###################################################################
## OUTPUT of StarlightChains_v04.for    [Cid@UFSC - 01/Apr/2007] ##
###################################################################

## Some input info
1948B.txt                                [arq_obs]
Base.CB07.vall.4m                        [arq_base]
Masks.EmLines.NEW.gm                     [arq_masks]
StCv04.C11.config                        [arq_config]
   66                                    [N_base]
    0                                    [N_YAV_components = # of components with extra extinction!]
    0                                    [i_FitPowerLaw (1/0 = Yes/No)]
-9.99                                    [alpha_PowerLaw]
CCM                                      [red_law_option]
 1.458241                                [q_norm = A(l_norm)/A(V)]

## (Re)Sampling Parameters
 3741.00                                 [l_ini (A)]
 7218.00                                 [l_fin (A)]
    1.00                                 [dl    (A)]     (OBS: dl_cushion =    50.00 A)

## Normalization info
 4020.00                                 [l_norm (A) - for base]
 4010.00                                 [llow_norm (A) - window for f_obs]
 4060.00                                 [lupp_norm (A) - window for f_obs]
1.001302E-17                             [fobs_norm (in input units)]

## S/N
 3691.00                                 [llow_SN (A) - window for S/N]
 7268.00                                 [lupp_SN (A) - window for S/N]
   4.751                                 [S/N in S/N window]
   6.580                                 [S/N in norm. window]
  10.000                                 [S/N_err in S/N window]
  13.848                                 [S/N_err in norm. window]
  1.0000                                 [fscale_chi2]

## etc...
    -2007200                             [idum_orig]
  2378                                   [NOl_eff]
  2265                                   [Nl_eff]
   113    NSIGMA                         [Ntot_cliped & clip_method]
  1081290                                [Nglobal_steps]
   7                                     [N_chains]
  21                                     [NEX0s_base = N_base in EX0s-fits]
 0   0   1        6   2.0   4.151E+01    [Clip-Bug, RC-Crash & Burn-In warning-flags, n_censored_weights, wei_nsig_threshold & wei_limit]
    12     11.546     10.939      0.607  [idt_all, wdt_TotTime, wdt_UsrTime & wdt_SysTime (sec)]

## Synthesis Results - Best model ##

 7.99295E-01                             [chi2/Nl_eff]
     6.94155                             [adev (%)]

    93.06201                             [sum-of-x (%)]
 1.74976E-17                             [Flux_tot (units of input spectrum!)]
 8.36784E-14                             [Mini_tot (???)]
 4.49179E-14                             [Mcor_tot (???)]

 -31.78                                  [v0_min  (km/s)]
 195.05                                  [vd_min  (km/s)]
 0.4691                                  [AV_min  (mag)]
 0.0000                                  [YAV_min (mag)]

# j     x_j(%)      Mini_j(%)     Mcor_j(%)     age_j(yr)     Z_j      (L/M)_j    YAV?  Mstars   component_j        a/Fe...       SSP_chi2r SSP_adev(%)   SSP_AV   SSP_x(%)
  1      0.0000     0.0000E+00    0.0000E+00    1.000000E+06  0.00400  1.094E-02    0   1.0000   age020_m42            0.0000     1.3545E+00     8.4687   2.5108    78.3305
  2      0.0000     0.0000E+00    0.0000E+00    3.160000E+06  0.00400  4.007E-02    0   0.9999   age045_m42            0.0000     1.0383E+00     7.7684   1.7754    84.0842
  3      0.0000     0.0000E+00    0.0000E+00    5.010000E+06  0.00400  2.539E-02    0   0.9488   age055_m42            0.0000     1.1373E+00     7.9769   2.0961    82.0053
  4      0.0000     0.0000E+00    0.0000E+00    6.610000E+06  0.00400  2.620E-02    0   0.9220   age061_m42            0.0000     9.8994E-01     7.5945   1.6969    84.4732
  5      0.0000     0.0000E+00    0.0000E+00    1.000000E+07  0.00400  1.322E-02    0   0.8862   age070_m42            0.0000     9.5876E-01     7.2388   1.4045    86.6496
  6      0.0000     0.0000E+00    0.0000E+00    1.445000E+07  0.00400  7.883E-03    0   0.8571   age078_m42            0.0000     1.0320E+00     7.4271   1.7353    84.3102
  7      0.0000     0.0000E+00    0.0000E+00    2.512000E+07  0.00400  5.251E-03    0   0.8174   age090_m42            0.0000     9.4614E-01     7.1857   1.2720    87.2271
  8      0.0000     0.0000E+00    0.0000E+00    4.000000E+07  0.00400  3.649E-03    0   0.7851   age104_m42            0.0000     9.0636E-01     7.1069   1.0442    87.9873
  9      0.0084     6.0877E-04    8.6519E-04    5.500000E+07  0.00400  3.098E-03    0   0.7629   age110_m42            0.0000     8.6917E-01     7.0974   1.2003    87.9079
 10      0.0000     0.0000E+00    0.0000E+00    1.015200E+08  0.00400  2.228E-03    0   0.7207   age116_m42            0.0000     8.5563E-01     7.1361   1.2218    88.0416
 11     44.2317     9.0930E+00    1.1261E+01    2.861200E+08  0.00400  1.093E-03    0   0.6648   age125_m42            0.0000     8.1067E-01     6.9484   0.6467    90.9151
 12      0.0766     2.6083E-02    3.0928E-02    5.088000E+08  0.00400  6.597E-04    0   0.6365   age130_m42            0.0000     8.1327E-01     7.0283   0.6413    91.5205
 13      6.1404     6.4715E+00    6.9900E+00    1.434000E+09  0.00400  2.132E-04    0   0.5798   age139_m42            0.0000     8.6899E-01     7.3041  -0.3218    93.0232
 14      0.0000     0.0000E+00    0.0000E+00    4.250000E+09  0.00400  5.895E-05    0   0.5377   age158_m42            0.0000     1.0691E+00     7.9667  -0.7489    88.9385
 15      0.0000     0.0000E+00    0.0000E+00    7.500000E+09  0.00400  3.510E-05    0   0.5212   age171_m42            0.0000     1.1715E+00     8.2654  -0.9314    88.1543
 16      0.0000     0.0000E+00    0.0000E+00    1.300000E+10  0.00400  2.005E-05    0   0.5034   age193_m42            0.0000     1.3086E+00     8.5639  -1.0000    84.4719
 17      0.0000     0.0000E+00    0.0000E+00    1.800000E+10  0.00400  1.525E-05    0   0.4967   age213_m42            0.0000     1.3180E+00     8.5807  -1.0000    83.3472
 18      0.0000     0.0000E+00    0.0000E+00    1.000000E+06  0.00800  1.238E-02    0   1.0000   age020_m52            0.0000     1.3568E+00     8.4747   2.5063    78.5070
 19      0.0000     0.0000E+00    0.0000E+00    3.160000E+06  0.00800  3.074E-02    0   0.9966   age045_m52            0.0000     1.3342E+00     8.4447   2.4301    79.1968
 20      0.0000     0.0000E+00    0.0000E+00    5.010000E+06  0.00800  2.668E-02    0   0.9443   age055_m52            0.0000     1.1822E+00     8.0634   2.1797    81.2220
 21      0.0000     0.0000E+00    0.0000E+00    6.610000E+06  0.00800  2.136E-02    0   0.9177   age061_m52            0.0000     1.0293E+00     7.4186   0.9107    87.3935
 22      0.0000     0.0000E+00    0.0000E+00    1.000000E+07  0.00800  1.215E-02    0   0.8827   age070_m52            0.0000     1.0112E+00     7.3073   1.5831    86.4587
 23      0.0000     0.0000E+00    0.0000E+00    1.445000E+07  0.00800  8.717E-03    0   0.8552   age078_m52            0.0000     1.0073E+00     7.3571   1.7000    85.5048
 24      0.0000     0.0000E+00    0.0000E+00    2.512000E+07  0.00800  5.592E-03    0   0.8162   age090_m52            0.0000     9.3244E-01     7.1535   1.3361    88.2596
 25      0.0000     0.0000E+00    0.0000E+00    4.000000E+07  0.00800  3.896E-03    0   0.7841   age104_m52            0.0000     8.8234E-01     7.0496   1.2483    88.9569
 26      0.4905     5.1309E-02    6.9069E-02    1.015200E+08  0.00800  2.148E-03    0   0.7226   age116_m52            0.0000     8.4779E-01     7.0323   1.1893    88.7342
 27      0.0119     2.6967E-03    3.3574E-03    2.861200E+08  0.00800  9.925E-04    0   0.6683   age125_m52            0.0000     8.1075E-01     7.0143   0.7048    92.4121
 28      0.0000     0.0000E+00    0.0000E+00    9.047900E+08  0.00800  3.141E-04    0   0.6138   age135_m52            0.0000     9.0818E-01     7.4103  -0.0791    95.6649
 29      1.0628     1.3892E+00    1.5147E+00    1.434000E+09  0.00800  1.719E-04    0   0.5853   age139_m52            0.0000     9.7913E-01     7.6827  -0.6537    93.5163
 30      1.1452     3.2689E+00    3.4102E+00    2.500000E+09  0.00800  7.872E-05    0   0.5600   age150_m52            0.0000     1.1646E+00     8.3116  -0.9115    90.6327
 31      0.0000     0.0000E+00    0.0000E+00    4.250000E+09  0.00800  4.336E-05    0   0.5426   age158_m52            0.0000     1.2032E+00     8.3808  -0.9256    89.7455
 32      0.0000     0.0000E+00    0.0000E+00    6.250000E+09  0.00800  3.159E-05    0   0.5319   age166_m52            0.0000     1.4046E+00     8.8292  -1.0000    85.4135
 33      0.0000     0.0000E+00    0.0000E+00    1.300000E+10  0.00800  1.361E-05    0   0.5073   age193_m52            0.0000     2.6744E+00    11.6328  -1.0000    69.8047
 34      0.0000     0.0000E+00    0.0000E+00    1.800000E+10  0.00800  9.886E-06    0   0.4990   age213_m52            0.0000     3.1996E+00    12.6323  -1.0000    66.2454
 35      0.0000     0.0000E+00    0.0000E+00    1.000000E+06  0.02000  1.544E-02    0   1.0000   age020_m62            0.0000     1.3695E+00     8.5016   2.5040    78.6328
 36      0.0000     0.0000E+00    0.0000E+00    3.160000E+06  0.02000  3.762E-02    0   0.9858   age045_m62            0.0000     1.3641E+00     8.5075   2.4419    79.3608
 37      0.0000     0.0000E+00    0.0000E+00    5.010000E+06  0.02000  3.296E-02    0   0.9342   age055_m62            0.0000     1.0881E+00     7.9100   2.0532    83.1303
 38      0.0000     0.0000E+00    0.0000E+00    8.710000E+06  0.02000  1.154E-02    0   0.8861   age067_m62            0.0000     1.4072E+00     8.2174   1.0208    89.3149
 39      0.0000     0.0000E+00    0.0000E+00    1.445000E+07  0.02000  7.663E-03    0   0.8472   age078_m62            0.0000     1.0673E+00     7.3861   1.2255    88.5815
 40      0.0000     0.0000E+00    0.0000E+00    2.512000E+07  0.02000  4.532E-03    0   0.8099   age090_m62            0.0000     1.0512E+00     7.3842   1.2136    88.5101
 41      0.0000     0.0000E+00    0.0000E+00    5.500000E+07  0.02000  2.733E-03    0   0.7595   age110_m62            0.0000     8.9531E-01     7.0756   1.2300    88.3665
 42      0.1023     1.6797E-02    2.1858E-02    1.609000E+08  0.02000  1.369E-03    0   0.6985   age120_m62            0.0000     8.2057E-01     6.9876   1.0682    90.8499
 43     15.7790     3.9337E+00    4.9202E+00    2.861200E+08  0.02000  9.013E-04    0   0.6714   age125_m62            0.0000     8.2221E-01     7.0503   0.8184    93.4444
 44      0.0000     0.0000E+00    0.0000E+00    5.088000E+08  0.02000  5.028E-04    0   0.6449   age130_m62            0.0000     8.9264E-01     7.3762   0.4522    95.4659
 45      0.0000     0.0000E+00    0.0000E+00    9.047900E+08  0.02000  2.428E-04    0   0.6179   age135_m62            0.0000     9.8594E-01     7.7334  -0.1249    94.5547
 46      0.0000     0.0000E+00    0.0000E+00    1.434000E+09  0.02000  1.263E-04    0   0.5908   age139_m62            0.0000     1.1047E+00     8.1072  -0.5644    93.0047
 47      0.0000     0.0000E+00    0.0000E+00    2.500000E+09  0.02000  5.985E-05    0   0.5673   age150_m62            0.0000     1.3185E+00     8.7823  -0.9223    91.4455
 48      0.0000     0.0000E+00    0.0000E+00    4.250000E+09  0.02000  3.271E-05    0   0.5468   age158_m62            0.0000     1.7458E+00     9.7095  -1.0000    82.9240
 49      0.0000     0.0000E+00    0.0000E+00    1.000000E+10  0.02000  1.360E-05    0   0.5167   age181_m62            0.0000     2.8694E+00    11.8797  -1.0000    71.3532
 50      0.0000     0.0000E+00    0.0000E+00    1.800000E+10  0.02000  7.124E-06    0   0.5013   age213_m62            0.0000     3.8305E+00    13.6184  -1.0000    64.5294
 51      0.0000     0.0000E+00    0.0000E+00    1.000000E+06  0.05000  2.592E-02    0   0.9998   age020_m72            0.0000     1.4150E+00     8.5783   2.4967    78.5964
 52      0.0000     0.0000E+00    0.0000E+00    3.160000E+06  0.05000  4.845E-02    0   0.9577   age045_m72            0.0000     1.2566E+00     8.3263   2.3208    80.5835
 53      0.0000     0.0000E+00    0.0000E+00    5.010000E+06  0.05000  3.072E-02    0   0.9147   age055_m72            0.0000     1.1312E+00     7.6182   1.8234    84.8076
 54      0.0447     6.9034E-04    1.1416E-03    6.610000E+06  0.05000  1.455E-02    0   0.8877   age061_m72            0.0000     1.8899E+00     9.7196   1.0609    90.3728
 55      0.0000     0.0000E+00    0.0000E+00    1.000000E+07  0.05000  9.074E-03    0   0.8524   age070_m72            0.0000     1.2250E+00     7.9929   2.0052    84.6356
 56      0.1948     1.0298E-02    1.5159E-02    2.512000E+07  0.05000  4.250E-03    0   0.7902   age090_m72            0.0000     1.0149E+00     7.4271   1.6969    86.5429
 57      2.4926     1.8143E-01    2.5748E-01    4.000000E+07  0.05000  3.087E-03    0   0.7618   age104_m72            0.0000     9.7465E-01     7.3561   1.4643    88.1775
 58      0.0000     0.0000E+00    0.0000E+00    1.015200E+08  0.05000  1.700E-03    0   0.7096   age116_m72            0.0000     8.2540E-01     6.9493   1.2085    90.5497
 59     19.8808     6.0497E+00    7.4755E+00    2.861200E+08  0.05000  7.384E-04    0   0.6633   age125_m72            0.0000     8.4755E-01     7.1893   0.6910    94.5428
 60      0.0000     0.0000E+00    0.0000E+00    5.088000E+08  0.05000  3.819E-04    0   0.6372   age130_m72            0.0000     9.4965E-01     7.6450   0.2100    95.6262
 61      0.0000     0.0000E+00    0.0000E+00    9.047900E+08  0.05000  1.676E-04    0   0.6110   age135_m72            0.0000     1.2398E+00     8.6273  -0.4707    93.4030
 62      0.0000     0.0000E+00    0.0000E+00    1.434000E+09  0.05000  8.837E-05    0   0.5874   age139_m72            0.0000     1.3696E+00     8.9408  -0.9227    92.7886
 63      0.0000     0.0000E+00    0.0000E+00    2.500000E+09  0.05000  4.233E-05    0   0.5598   age150_m72            0.0000     1.8272E+00     9.9157  -1.0000    83.6313
 64      0.0000     0.0000E+00    0.0000E+00    6.250000E+09  0.05000  1.435E-05    0   0.5249   age166_m72            0.0000     3.2729E+00    12.7170  -1.0000    68.1194
 65      0.0000     0.0000E+00    0.0000E+00    1.300000E+10  0.05000  6.513E-06    0   0.5036   age193_m72            0.0000     4.6683E+00    15.0930  -1.0000    60.6095
 66      1.4003     6.9504E+01    6.4028E+01    1.800000E+10  0.05000  4.527E-06    0   0.4945   age213_m72            0.0000     5.5740E+00    16.5075  -1.0000    56.1334


## Synthesis Results - Average & Chains ##

# j      x_j: min, <> & last-chain-values for 1 ...  7 chains
  1      0.0000      0.1231      0.0000      0.0000      0.0000      0.0000      0.0000      0.0000      0.6303
  2      0.0000      0.1309      0.7432      0.0000      0.0000      0.0000      0.0000      0.0000      0.0000
  3      0.0000      0.1262      0.0000      0.0000      0.0000      0.0000      0.0000      0.0000      0.0000
  4      0.0000      0.2668      0.0000      0.0000      0.0000      0.0000      0.0000      0.0000      2.5325
  5      0.0000      0.2580      0.0000      0.0272      0.0000      0.2506      0.0000      0.0000      0.0000
  6      0.0000      0.2830      0.0171      0.6789      0.0000      0.3593      0.0000      0.0000      0.2834
  7      0.0000      0.5877      0.0000      0.0000      0.3965      0.0000      0.0000      0.0000      0.0000
  8      0.0000      0.9133      3.3088      0.0000      2.5814      1.1098      2.4373      0.0000      0.0000
  9      0.0084      1.2586      0.0000      0.7967      0.0000      1.9678      0.0000      0.6538      2.7279
 10      0.0000      0.8491      0.0000      0.0000      1.1711      3.2912      2.8711      0.7649      0.5707
 11     44.2317     14.7273     14.7456     20.9647     20.4225     18.2913     16.4155     13.4656     16.2832
 12      0.0766     10.5777     20.2997     11.6071     11.1429      8.8732     11.0132     11.2175     17.0383
 13      6.1404      5.1327      7.0448      6.4934      5.2591      5.0323      5.4326      7.6263      8.3311
 14      0.0000      0.5585      0.8800      0.0000      0.0000      0.0000      0.2080      0.0000      0.0000
 15      0.0000      0.5342      0.0000      1.2198      1.8134      1.0186      0.0000      0.0000      0.0000
 16      0.0000      0.1617      0.0000      0.0000      0.0247      0.0000      0.0000      0.2288      0.0000
 17      0.0000      0.2256      0.0000      0.0000      0.0000      0.4190      1.1609      0.0000      0.0000
 18      0.0000      0.1101      0.0000      0.0000      0.0000      0.0000      0.0000      0.5970      0.2062
 19      0.0000      0.0676      0.0000      0.0000      0.0237      0.0000      0.0000      0.0000      0.0000
 20      0.0000      0.1275      0.0000      0.0000      0.0000      0.0000      0.0000      0.0000      0.0000
 21      0.0000      0.3824      0.0000      0.3328      0.1169      0.0000      0.0000      0.0000      0.0000
 22      0.0000      0.2775      0.0000      0.0000      0.0167      0.0000      0.0000      0.7629      0.5759
 23      0.0000      0.2462      0.0000      0.0000      0.0000      0.2105      0.0000      0.2719      0.0000
 24      0.0000      0.5455      0.0000      1.7653      0.0000      1.5603      0.0000      0.0000      0.4822
 25      0.0000      0.7832      1.7903      0.0000      0.0000      1.0829      1.0507      1.7703      0.0000
 26      0.4905      0.7871      0.0371      0.7863      0.0000      0.0000      0.4767      3.6069      2.2470
 27      0.0119      3.1701      0.0000      4.1733      4.5368      3.0255      0.7874      2.8114      2.2190
 28      0.0000     12.6676     10.0376     12.2680     21.1730     14.1570     12.2576     13.4084     14.7560
 29      1.0628      0.8281      0.9271      1.3115      0.0000      1.6045      1.4741      0.2939      1.4610
 30      1.1452      0.3742      1.0427      0.9165      1.2029      0.8358      0.0000      0.0000      0.0146
 31      0.0000      0.1635      0.0000      0.2478      0.0000      0.0000      0.0000      0.0741      0.0000
 32      0.0000      0.1681      0.0000      0.0000      0.1254      0.0000      0.0000      0.0000      1.4523
 33      0.0000      0.0628      0.3584      0.0000      0.0000      0.0000      0.2509      0.0000      0.4193
 34      0.0000      0.1831      0.6772      0.0000      0.0000      0.0000      0.3552      0.0660      0.1460
 35      0.0000      0.0726      0.0000      0.0000      0.0000      0.4320      0.0000      0.0000      0.0000
 36      0.0000      0.1220      0.0000      0.0000      0.0000      0.0000      0.0000      0.0000      0.0000
 37      0.0000      0.1346      0.0000      0.3981      0.0000      0.0000      0.0000      0.0000      0.0000
 38      0.0000      0.6703      0.0629      0.0000      0.0000      0.0000      0.0000      2.9181      0.0000
 39      0.0000      0.3165      0.0000      0.0000      0.0000      0.0000      0.0000      0.0000      0.0000
 40      0.0000      0.5950      0.0000      0.0000      0.0000      0.0000      0.0000      0.0000      0.2803
 41      0.0000      0.4365      0.0000      0.0000      0.0000      0.0000      2.9920      0.0000      0.0000
 42      0.1023      3.7678      9.0921      7.0400      3.6691      1.7601      2.9109      4.5959      0.0000
 43     15.7790      4.4310      2.2058      6.2657     10.2416      7.0174      4.9232      4.9752      9.7662
 44      0.0000     12.5732     10.3817      2.9381      0.0000      3.8259     17.7423     12.6302      2.0341
 45      0.0000      1.0075      0.0747      0.0000      0.1402      0.7787      0.0000      0.0000      0.0000
 46      0.0000      0.3203      0.0000      0.0000      0.0000      0.7401      0.0000      0.0000      0.0000
