###################################################################
## OUTPUT of StarlightChains_v04.for    [Cid@UFSC - 01/Apr/2007] ##
###################################################################

## Some input info
1954B.txt                                [arq_obs]
Base.CB07.vall.4m                        [arq_base]
Masks.EmLines.NEW.gm                     [arq_masks]
StCv04.C11.config                        [arq_config]
   66                                    [N_base]
    0                                    [N_YAV_components = # of components with extra extinction!]
    0                                    [i_FitPowerLaw (1/0 = Yes/No)]
-9.99                                    [alpha_PowerLaw]
CCM                                      [red_law_option]
 1.458241                                [q_norm = A(l_norm)/A(V)]

## (Re)Sampling Parameters
 3741.00                                 [l_ini (A)]
 7218.00                                 [l_fin (A)]
    1.00                                 [dl    (A)]     (OBS: dl_cushion =    50.00 A)

## Normalization info
 4020.00                                 [l_norm (A) - for base]
 4010.00                                 [llow_norm (A) - window for f_obs]
 4060.00                                 [lupp_norm (A) - window for f_obs]
6.810425E-15                             [fobs_norm (in input units)]

## S/N
 3691.00                                 [llow_SN (A) - window for S/N]
 7268.00                                 [lupp_SN (A) - window for S/N]
   5.163                                 [S/N in S/N window]
   7.113                                 [S/N in norm. window]
   9.994                                 [S/N_err in S/N window]
  13.769                                 [S/N_err in norm. window]
  1.0000                                 [fscale_chi2]

## etc...
    -2007201                             [idum_orig]
  2381                                   [NOl_eff]
  2315                                   [Nl_eff]
    66    NSIGMA                         [Ntot_cliped & clip_method]
  1098580                                [Nglobal_steps]
   7                                     [N_chains]
  16                                     [NEX0s_base = N_base in EX0s-fits]
 0   0   1        5   2.0   6.729E+01    [Clip-Bug, RC-Crash & Burn-In warning-flags, n_censored_weights, wei_nsig_threshold & wei_limit]
    14     14.132     13.590      0.542  [idt_all, wdt_TotTime, wdt_UsrTime & wdt_SysTime (sec)]

## Synthesis Results - Best model ##

 1.09687E+00                             [chi2/Nl_eff]
     8.19999                             [adev (%)]

    95.94238                             [sum-of-x (%)]
 1.07017E-14                             [Flux_tot (units of input spectrum!)]
 6.85732E-11                             [Mini_tot (???)]
 3.64393E-11                             [Mcor_tot (???)]

  39.24                                  [v0_min  (km/s)]
 146.98                                  [vd_min  (km/s)]
 0.3673                                  [AV_min  (mag)]
 0.0000                                  [YAV_min (mag)]

# j     x_j(%)      Mini_j(%)     Mcor_j(%)     age_j(yr)     Z_j      (L/M)_j    YAV?  Mstars   component_j        a/Fe...       SSP_chi2r SSP_adev(%)   SSP_AV   SSP_x(%)
  1      0.0000     0.0000E+00    0.0000E+00    1.000000E+06  0.00400  1.094E-02    0   1.0000   age020_m42            0.0000     1.8464E+00    10.0885   2.5698    76.8820
  2      0.0000     0.0000E+00    0.0000E+00    3.160000E+06  0.00400  4.007E-02    0   0.9999   age045_m42            0.0000     1.3946E+00     9.1167   1.7813    84.6219
  3      0.0000     0.0000E+00    0.0000E+00    5.010000E+06  0.00400  2.539E-02    0   0.9488   age055_m42            0.0000     1.5377E+00     9.4701   2.1249    81.6347
  4      0.0041     2.5604E-05    4.4425E-05    6.610000E+06  0.00400  2.620E-02    0   0.9220   age061_m42            0.0000     1.3363E+00     8.9806   1.7006    85.1051
  5      0.0038     4.6526E-05    7.7592E-05    1.000000E+07  0.00400  1.322E-02    0   0.8862   age070_m42            0.0000     1.2976E+00     8.7045   1.4296    86.4958
  6      0.0000     0.0000E+00    0.0000E+00    1.445000E+07  0.00400  7.883E-03    0   0.8571   age078_m42            0.0000     1.4200E+00     9.0112   1.7731    83.6345
  7      0.0000     0.0000E+00    0.0000E+00    2.512000E+07  0.00400  5.251E-03    0   0.8174   age090_m42            0.0000     1.2739E+00     8.6280   1.2977    87.0747
  8      0.0000     0.0000E+00    0.0000E+00    4.000000E+07  0.00400  3.649E-03    0   0.7851   age104_m42            0.0000     1.2201E+00     8.5082   1.0597    88.2487
  9      0.0000     0.0000E+00    0.0000E+00    5.500000E+07  0.00400  3.098E-03    0   0.7629   age110_m42            0.0000     1.1876E+00     8.4627   1.1975    88.8963
 10      0.0000     0.0000E+00    0.0000E+00    1.015200E+08  0.00400  2.228E-03    0   0.7207   age116_m42            0.0000     1.1805E+00     8.4758   1.2040    89.6332
 11      0.0019     2.8600E-04    3.5781E-04    2.861200E+08  0.00400  1.093E-03    0   0.6648   age125_m42            0.0000     1.1339E+00     8.3080   0.6207    92.9569
 12      0.0000     0.0000E+00    0.0000E+00    5.088000E+08  0.00400  6.597E-04    0   0.6365   age130_m42            0.0000     1.1872E+00     8.4908   0.5951    94.4066
 13      8.7788     6.6979E+00    7.3080E+00    1.434000E+09  0.00400  2.132E-04    0   0.5798   age139_m42            0.0000     1.2438E+00     8.7107  -0.3758    96.3255
 14      0.0694     1.9137E-01    1.9364E-01    4.250000E+09  0.00400  5.895E-05    0   0.5377   age158_m42            0.0000     1.5322E+00     9.4697  -0.7848    91.2629
 15      0.0000     0.0000E+00    0.0000E+00    7.500000E+09  0.00400  3.510E-05    0   0.5212   age171_m42            0.0000     1.7039E+00     9.9021  -0.9687    90.4810
 16      0.0000     0.0000E+00    0.0000E+00    1.300000E+10  0.00400  2.005E-05    0   0.5034   age193_m42            0.0000     1.9407E+00    10.4461  -1.0000    85.6866
 17      0.0000     0.0000E+00    0.0000E+00    1.800000E+10  0.00400  1.525E-05    0   0.4967   age213_m42            0.0000     1.9414E+00    10.4534  -1.0000    84.5691
 18      0.0000     0.0000E+00    0.0000E+00    1.000000E+06  0.00800  1.238E-02    0   1.0000   age020_m52            0.0000     1.8491E+00    10.0917   2.5661    77.0301
 19      0.0000     0.0000E+00    0.0000E+00    3.160000E+06  0.00800  3.074E-02    0   0.9966   age045_m52            0.0000     1.8051E+00    10.0376   2.4834    77.9331
 20      0.0000     0.0000E+00    0.0000E+00    5.010000E+06  0.00800  2.668E-02    0   0.9443   age055_m52            0.0000     1.5937E+00     9.5843   2.2172    80.5421
 21      0.0000     0.0000E+00    0.0000E+00    6.610000E+06  0.00800  2.136E-02    0   0.9177   age061_m52            0.0000     1.3877E+00     8.9178   0.9460    86.8673
 22      0.0000     0.0000E+00    0.0000E+00    1.000000E+07  0.00800  1.215E-02    0   0.8827   age070_m52            0.0000     1.3790E+00     8.8705   1.6224    85.7490
 23      0.0000     0.0000E+00    0.0000E+00    1.445000E+07  0.00800  8.717E-03    0   0.8552   age078_m52            0.0000     1.3769E+00     8.8918   1.7334    85.0054
 24      0.0000     0.0000E+00    0.0000E+00    2.512000E+07  0.00800  5.592E-03    0   0.8162   age090_m52            0.0000     1.2602E+00     8.5952   1.3593    88.2041
 25      0.0000     0.0000E+00    0.0000E+00    4.000000E+07  0.00800  3.896E-03    0   0.7841   age104_m52            0.0000     1.2034E+00     8.4637   1.2574    89.4772
 26      0.0000     0.0000E+00    0.0000E+00    1.015200E+08  0.00800  2.148E-03    0   0.7226   age116_m52            0.0000     1.1620E+00     8.3899   1.1789    90.0638
 27      0.0000     0.0000E+00    0.0000E+00    2.861200E+08  0.00800  9.925E-04    0   0.6683   age125_m52            0.0000     1.1799E+00     8.4344   0.6603    95.2885
 28      0.0000     0.0000E+00    0.0000E+00    9.047900E+08  0.00800  3.141E-04    0   0.6138   age135_m52            0.0000     1.3972E+00     9.0857  -0.1459    99.6264
 29      0.0000     0.0000E+00    0.0000E+00    1.434000E+09  0.00800  1.719E-04    0   0.5853   age139_m52            0.0000     1.4562E+00     9.3015  -0.7058    96.6889
 30      0.0000     0.0000E+00    0.0000E+00    2.500000E+09  0.00800  7.872E-05    0   0.5600   age150_m52            0.0000     1.7272E+00    10.0084  -0.9629    93.6026
 31      0.0000     0.0000E+00    0.0000E+00    4.250000E+09  0.00800  4.336E-05    0   0.5426   age158_m52            0.0000     1.7864E+00    10.1248  -0.9718    92.4543
 32      0.0000     0.0000E+00    0.0000E+00    6.250000E+09  0.00800  3.159E-05    0   0.5319   age166_m52            0.0000     2.1391E+00    10.9168  -1.0000    86.7607
 33      6.8537     8.1914E+01    7.8200E+01    1.300000E+10  0.00800  1.361E-05    0   0.5073   age193_m52            0.0000     3.8098E+00    14.1371  -1.0000    71.3685
 34      0.0000     0.0000E+00    0.0000E+00    1.800000E+10  0.00800  9.886E-06    0   0.4990   age213_m52            0.0000     4.5337E+00    15.2670  -1.0000    67.7831
 35      0.0000     0.0000E+00    0.0000E+00    1.000000E+06  0.02000  1.544E-02    0   1.0000   age020_m62            0.0000     1.8644E+00    10.1295   2.5639    77.1486
 36      0.0000     0.0000E+00    0.0000E+00    3.160000E+06  0.02000  3.762E-02    0   0.9858   age045_m62            0.0000     1.8519E+00    10.1698   2.4990    77.9598
 37      0.0000     0.0000E+00    0.0000E+00    5.010000E+06  0.02000  3.296E-02    0   0.9342   age055_m62            0.0000     1.4541E+00     9.3171   2.0696    83.2441
 38     15.4139     2.1727E-01    3.6230E-01    8.710000E+06  0.02000  1.154E-02    0   0.8861   age067_m62            0.0000     1.9215E+00    10.2836   1.1117    86.4607
 39      0.0000     0.0000E+00    0.0000E+00    1.445000E+07  0.02000  7.663E-03    0   0.8472   age078_m62            0.0000     1.4822E+00     9.1633   1.2780    87.3191
 40      0.0000     0.0000E+00    0.0000E+00    2.512000E+07  0.02000  4.532E-03    0   0.8099   age090_m62            0.0000     1.4545E+00     9.1514   1.2630    87.3713
 41      0.0000     0.0000E+00    0.0000E+00    5.500000E+07  0.02000  2.733E-03    0   0.7595   age110_m62            0.0000     1.2202E+00     8.5428   1.2447    88.6558
 42      4.9065     5.8298E-01    7.6631E-01    1.609000E+08  0.02000  1.369E-03    0   0.6985   age120_m62            0.0000     1.1512E+00     8.3192   1.0409    92.9325
 43     55.0042     9.9269E+00    1.2542E+01    2.861200E+08  0.02000  9.013E-04    0   0.6714   age125_m62            0.0000     1.2168E+00     8.5176   0.7659    96.6940
 44      0.0000     0.0000E+00    0.0000E+00    5.088000E+08  0.02000  5.028E-04    0   0.6449   age130_m62            0.0000     1.3996E+00     9.1577   0.3761    99.8175
 45      0.0000     0.0000E+00    0.0000E+00    9.047900E+08  0.02000  2.428E-04    0   0.6179   age135_m62            0.0000     1.5018E+00     9.3909  -0.1917    98.4186
 46      0.0000     0.0000E+00    0.0000E+00    1.434000E+09  0.02000  1.263E-04    0   0.5908   age139_m62            0.0000     1.6522E+00     9.7676  -0.6192    96.2324
 47      0.0000     0.0000E+00    0.0000E+00    2.500000E+09  0.02000  5.985E-05    0   0.5673   age150_m62            0.0000     1.9554E+00    10.5710  -0.9780    94.5862
 48      0.0000     0.0000E+00    0.0000E+00    4.250000E+09  0.02000  3.271E-05    0   0.5468   age158_m62            0.0000     2.6467E+00    12.0505  -1.0000    84.3848
 49      0.0000     0.0000E+00    0.0000E+00    1.000000E+10  0.02000  1.360E-05    0   0.5167   age181_m62            0.0000     4.2127E+00    14.7091  -1.0000    72.8947
 50      0.0000     0.0000E+00    0.0000E+00    1.800000E+10  0.02000  7.124E-06    0   0.5013   age213_m62            0.0000     5.4897E+00    16.5483  -1.0000    66.0119
 51      0.0000     0.0000E+00    0.0000E+00    1.000000E+06  0.05000  2.592E-02    0   0.9998   age020_m72            0.0000     1.9281E+00    10.2328   2.5625    76.9069
 52      0.0000     0.0000E+00    0.0000E+00    3.160000E+06  0.05000  4.845E-02    0   0.9577   age045_m72            0.0000     1.6850E+00     9.8656   2.3606    79.8002
 53      0.0000     0.0000E+00    0.0000E+00    5.010000E+06  0.05000  3.072E-02    0   0.9147   age055_m72            0.0000     1.6093E+00     9.5240   1.8787    83.4362
 54      0.0000     0.0000E+00    0.0000E+00    6.610000E+06  0.05000  1.455E-02    0   0.8877   age061_m72            0.0000     2.5395E+00    12.0894   1.1715    86.6576
 55      0.0000     0.0000E+00    0.0000E+00    1.000000E+07  0.05000  9.074E-03    0   0.8524   age070_m72            0.0000     1.7314E+00     9.9764   2.0650    83.1649
 56      0.0000     0.0000E+00    0.0000E+00    2.512000E+07  0.05000  4.250E-03    0   0.7902   age090_m72            0.0000     1.4373E+00     9.2196   1.7302    86.0455
 57      0.0000     0.0000E+00    0.0000E+00    4.000000E+07  0.05000  3.087E-03    0   0.7618   age104_m72            0.0000     1.3638E+00     9.0632   1.4877    88.0863
 58      4.9061     4.6943E-01    6.2686E-01    1.015200E+08  0.05000  1.700E-03    0   0.7096   age116_m72            0.0000     1.1533E+00     8.3194   1.1907    92.2218
 59      0.0000     0.0000E+00    0.0000E+00    2.861200E+08  0.05000  7.384E-04    0   0.6633   age125_m72            0.0000     1.3122E+00     8.8329   0.6253    98.3901
 60      0.0000     0.0000E+00    0.0000E+00    5.088000E+08  0.05000  3.819E-04    0   0.6372   age130_m72            0.0000     1.4434E+00     9.2645   0.1360    99.8528
 61      0.0000     0.0000E+00    0.0000E+00    9.047900E+08  0.05000  1.676E-04    0   0.6110   age135_m72            0.0000     1.8244E+00    10.3003  -0.5367    97.0647
 62      0.0000     0.0000E+00    0.0000E+00    1.434000E+09  0.05000  8.837E-05    0   0.5874   age139_m72            0.0000     2.0397E+00    10.7830  -0.9826    96.1497
 63      0.0000     0.0000E+00    0.0000E+00    2.500000E+09  0.05000  4.233E-05    0   0.5598   age150_m72            0.0000     2.7820E+00    12.3265  -1.0000    85.0923
 64      0.0000     0.0000E+00    0.0000E+00    6.250000E+09  0.05000  1.435E-05    0   0.5249   age166_m72            0.0000     4.7067E+00    15.5404  -1.0000    69.6535
 65      0.0000     0.0000E+00    0.0000E+00    1.300000E+10  0.05000  6.513E-06    0   0.5036   age193_m72            0.0000     6.5082E+00    17.9663  -1.0000    62.0669
 66      0.0000     0.0000E+00    0.0000E+00    1.800000E+10  0.05000  4.527E-06    0   0.4945   age213_m72            0.0000     7.6304E+00    19.3470  -1.0000    57.5164


## Synthesis Results - Average & Chains ##

# j      x_j: min, <> & last-chain-values for 1 ...  7 chains
  1      0.0000      0.1863      0.0000      0.0000      0.0000      0.0000      0.2763      1.1532      0.0000
  2      0.0000      0.3173      0.0000      0.0000      0.0000      0.0000      0.8773      0.0000      0.1394
  3      0.0000      0.1669      1.0498      0.0000      0.0000      1.8056      0.0000      0.1405      0.0000
  4      0.0041      0.8634      0.0000      0.0000      2.6288      0.0000      0.0715      0.0000      0.0000
  5      0.0038      0.4299      0.0000      0.9450      1.6231      1.2811      0.0000      0.0000      0.0000
  6      0.0000      0.2511      0.0000      0.6001      0.0000      0.0000      0.0000      0.1498      0.0000
  7      0.0000      0.8615      0.0000      0.0000      0.1926      1.3969      0.0000      1.6403      0.3142
  8      0.0000      1.0010      0.4602      0.0000      0.0000      1.8184      0.0000      0.9560      0.0000
  9      0.0000      1.0130      0.0000      3.0243      3.3841      1.5430      0.0000      0.0000      0.0000
 10      0.0000      1.0742      1.5944      2.4546      0.0000      0.0000      0.0000      0.0000      0.0000
 11      0.0019     13.9992     15.7449     12.9611     10.5348     14.7541     19.2671     17.2828     14.1645
 12      0.0000      4.6319      2.0193      4.0435      5.0255      0.0000      0.0000      1.4416     15.7582
 13      8.7788      8.4265     10.9681     10.9034     10.8008     11.3420     10.8850      9.4464      9.6023
 14      0.0694      3.1073      3.2796      3.3016      3.7106      2.0689      3.6539      3.5203      3.9191
 15      0.0000      1.4694      1.6474      2.8233      3.1257      1.7722      2.8617      0.0000      1.4810
 16      0.0000      0.7075      0.0000      0.0000      0.0241      0.0000      0.0000      0.0000      0.0000
 17      0.0000      0.4367      0.2344      0.0000      0.8649      0.0000      0.0000      0.0000      0.0000
 18      0.0000      0.1775      0.0000      0.0000      0.0000      0.0000      0.0000      0.0000      0.0000
 19      0.0000      0.2055      0.0000      0.0000      0.0000      0.0000      0.0000      0.0000      0.0000
 20      0.0000      0.1623      0.0526      0.0000      0.0000      0.0000      0.0000      0.0000      0.0000
 21      0.0000      0.3610      0.0000      0.0000      0.0000      0.0000      1.0646      0.0000      0.2980
 22      0.0000      0.4759      0.0000      0.8595      0.0000      2.5588      1.6261      0.0000      0.0000
 23      0.0000      0.3907      0.7013      0.0000      0.0000      0.0000      0.0000      0.0000      1.8820
 24      0.0000      0.6084      0.0000      0.3805      0.4994      0.0000      1.6804      2.5232      0.5141
 25      0.0000      0.6970      0.0000      0.7545      0.0000      0.7202      0.0000      0.5214      0.9765
 26      0.0000      0.9325      0.8300      1.4082      0.0000      0.8779      0.1181      0.0000      0.5117
 27      0.0000      3.7534      4.6273      2.7752      0.0000      3.9341      4.2244      6.9793      0.0000
 28      0.0000      0.6787      0.0000      0.0000      0.0000      0.3423      0.0000      0.0000      0.6088
 29      0.0000      0.5022      0.0000      0.0000      0.0667      0.0000      0.6721      0.0000      0.9812
 30      0.0000      0.3260      0.8719      0.8834      0.0000      0.0000      0.0000      0.0000      0.0000
 31      0.0000      0.1399      0.0000      0.0000      0.3342      1.2826      0.0000      0.0000      0.0000
 32      0.0000      0.1500      0.0000      0.0000      0.0000      0.0000      0.0000      0.0000      0.0000
 33      6.8537      0.8853      0.7988      2.0919      1.0197      1.5280      1.0695      1.8506      1.0198
 34      0.0000      0.1467      0.0000      0.0000      0.0000      0.0000      0.0000      0.8755      0.2947
 35      0.0000      0.3584      0.0982      0.0000      0.0000      0.0000      1.6288      0.1860      0.0000
 36      0.0000      0.1064      0.0000      0.0000      0.0000      0.0000      0.1384      0.0000      0.0330
 37      0.0000      0.3250      0.0000      0.0000      0.0000      0.0000      0.0000      0.2844      0.0000
 38     15.4139      6.9709     12.1080      7.4810      9.0945      5.9627      7.6670      8.7887      6.9515
 39      0.0000      0.3498      0.3354      0.0000      0.3474      0.0000      0.0000      0.5775      0.0000
 40      0.0000      0.5248      0.0000      0.0000      0.0000      0.0000      0.0000      0.5268      0.0000
 41      0.0000      0.6238      1.3468      1.5112      0.0000      0.0000      0.3399      0.0000      0.5505
 42      4.9065      1.7205      1.7028      2.4012      4.4504      1.7701      5.5078      0.6535      0.6687
 43     55.0042     12.5631     14.7965     16.4560     24.8651     21.4132     16.1239     13.3471     15.4944
 44      0.0000      1.5210      0.7136      0.0000      0.0000      0.3800      0.0000      0.0000      0.0000
 45      0.0000      0.3600      0.0000      0.0000      0.0000      0.0000      0.0000      0.1780      0.0000
 46      0.0000      0.3100      0.0000      0.0000      0.0000      2.1220      0.0000      0.0000      0.0000
