###################################################################
## OUTPUT of StarlightChains_v04.for    [Cid@UFSC - 01/Apr/2007] ##
###################################################################

## Some input info
1960M.txt                                [arq_obs]
Base.CB07.vall.4m                        [arq_base]
Masks.EmLines.NEW.gm                     [arq_masks]
StCv04.C11.config                        [arq_config]
   66                                    [N_base]
    0                                    [N_YAV_components = # of components with extra extinction!]
    0                                    [i_FitPowerLaw (1/0 = Yes/No)]
-9.99                                    [alpha_PowerLaw]
CCM                                      [red_law_option]
 1.458241                                [q_norm = A(l_norm)/A(V)]

## (Re)Sampling Parameters
 3741.00                                 [l_ini (A)]
 7218.00                                 [l_fin (A)]
    1.00                                 [dl    (A)]     (OBS: dl_cushion =    50.00 A)

## Normalization info
 4020.00                                 [l_norm (A) - for base]
 4010.00                                 [llow_norm (A) - window for f_obs]
 4060.00                                 [lupp_norm (A) - window for f_obs]
1.295002E-16                             [fobs_norm (in input units)]

## S/N
 3691.00                                 [llow_SN (A) - window for S/N]
 7268.00                                 [lupp_SN (A) - window for S/N]
   6.022                                 [S/N in S/N window]
   8.541                                 [S/N in norm. window]
   7.373                                 [S/N_err in S/N window]
  10.457                                 [S/N_err in norm. window]
  1.0000                                 [fscale_chi2]

## etc...
    -2007202                             [idum_orig]
  2383                                   [NOl_eff]
  2383                                   [Nl_eff]
     0    NSIGMA                         [Ntot_cliped & clip_method]
  1517250                                [Nglobal_steps]
   7                                     [N_chains]
  27                                     [NEX0s_base = N_base in EX0s-fits]
 0   0   1        0   2.0   1.907E+01    [Clip-Bug, RC-Crash & Burn-In warning-flags, n_censored_weights, wei_nsig_threshold & wei_limit]
    16     15.701     15.154      0.547  [idt_all, wdt_TotTime, wdt_UsrTime & wdt_SysTime (sec)]

## Synthesis Results - Best model ##

 3.34494E-01                             [chi2/Nl_eff]
     6.44014                             [adev (%)]

    93.22519                             [sum-of-x (%)]
 2.03128E-16                             [Flux_tot (units of input spectrum!)]
 1.43157E-12                             [Mini_tot (???)]
 7.64168E-13                             [Mcor_tot (???)]

-200.30                                  [v0_min  (km/s)]
 162.52                                  [vd_min  (km/s)]
 0.3874                                  [AV_min  (mag)]
 0.0000                                  [YAV_min (mag)]

# j     x_j(%)      Mini_j(%)     Mcor_j(%)     age_j(yr)     Z_j      (L/M)_j    YAV?  Mstars   component_j        a/Fe...       SSP_chi2r SSP_adev(%)   SSP_AV   SSP_x(%)
  1      5.1842     7.2125E-02    1.3512E-01    1.000000E+06  0.00400  1.094E-02    0   1.0000   age020_m42            0.0000     5.5306E-01     7.9315   2.4597    79.1551
  2      0.0102     3.8654E-05    7.2407E-05    3.160000E+06  0.00400  4.007E-02    0   0.9999   age045_m42            0.0000     4.8305E-01     7.4510   1.7604    83.7213
  3      0.0000     0.0000E+00    0.0000E+00    5.010000E+06  0.00400  2.539E-02    0   0.9488   age055_m42            0.0000     5.0299E-01     7.5736   2.0673    82.1226
  4      0.0000     0.0000E+00    0.0000E+00    6.610000E+06  0.00400  2.620E-02    0   0.9220   age061_m42            0.0000     4.6817E-01     7.3842   1.6864    83.9937
  5      0.0000     0.0000E+00    0.0000E+00    1.000000E+07  0.00400  1.322E-02    0   0.8862   age070_m42            0.0000     3.9201E-01     6.8726   1.3753    87.2913
  6      0.0000     0.0000E+00    0.0000E+00    1.445000E+07  0.00400  7.883E-03    0   0.8571   age078_m42            0.0000     4.1727E-01     7.0425   1.7000    85.1073
  7      0.0027     7.6865E-05    1.1770E-04    2.512000E+07  0.00400  5.251E-03    0   0.8174   age090_m42            0.0000     3.8230E-01     6.8256   1.2415    88.0171
  8      0.0000     0.0000E+00    0.0000E+00    4.000000E+07  0.00400  3.649E-03    0   0.7851   age104_m42            0.0000     3.7479E-01     6.7537   1.0182    88.5499
  9      0.0000     0.0000E+00    0.0000E+00    5.500000E+07  0.00400  3.098E-03    0   0.7629   age110_m42            0.0000     4.0038E-01     6.9632   1.1921    87.6182
 10      0.0039     2.6702E-04    3.6051E-04    1.015200E+08  0.00400  2.228E-03    0   0.7207   age116_m42            0.0000     4.2134E-01     7.1656   1.2255    87.1884
 11      0.0000     0.0000E+00    0.0000E+00    2.861200E+08  0.00400  1.093E-03    0   0.6648   age125_m42            0.0000     4.0558E-01     7.1135   0.6551    90.0908
 12      0.0000     0.0000E+00    0.0000E+00    5.088000E+08  0.00400  6.597E-04    0   0.6365   age130_m42            0.0000     4.2672E-01     7.3194   0.6600    90.0662
 13      0.0000     0.0000E+00    0.0000E+00    1.434000E+09  0.00400  2.132E-04    0   0.5798   age139_m42            0.0000     4.2470E-01     7.2915  -0.3150    91.8284
 14      2.1881     5.6495E+00    5.6908E+00    4.250000E+09  0.00400  5.895E-05    0   0.5377   age158_m42            0.0000     5.4550E-01     7.7406  -0.7465    87.6308
 15      0.0000     0.0000E+00    0.0000E+00    7.500000E+09  0.00400  3.510E-05    0   0.5212   age171_m42            0.0000     6.1793E-01     8.1155  -0.9218    86.5022
 16      0.0000     0.0000E+00    0.0000E+00    1.300000E+10  0.00400  2.005E-05    0   0.5034   age193_m42            0.0000     7.0209E-01     8.6156  -1.0000    83.0059
 17      0.0000     0.0000E+00    0.0000E+00    1.800000E+10  0.00400  1.525E-05    0   0.4967   age213_m42            0.0000     6.9699E-01     8.6126  -1.0000    81.8807
 18      4.3623     5.3631E-02    1.0047E-01    1.000000E+06  0.00800  1.238E-02    0   1.0000   age020_m52            0.0000     5.5299E-01     7.9362   2.4552    79.3337
 19      4.8017     2.3774E-02    4.4387E-02    3.160000E+06  0.00800  3.074E-02    0   0.9966   age045_m52            0.0000     5.4747E-01     7.8950   2.3807    79.9519
 20      0.0000     0.0000E+00    0.0000E+00    5.010000E+06  0.00800  2.668E-02    0   0.9443   age055_m52            0.0000     5.0431E-01     7.5882   2.1441    81.5888
 21      8.3639     5.9598E-02    1.0246E-01    6.610000E+06  0.00800  2.136E-02    0   0.9177   age061_m52            0.0000     3.6803E-01     6.6551   0.8638    88.6302
 22      0.0000     0.0000E+00    0.0000E+00    1.000000E+07  0.00800  1.215E-02    0   0.8827   age070_m52            0.0000     3.8773E-01     6.8947   1.5434    87.6542
 23      0.0000     0.0000E+00    0.0000E+00    1.445000E+07  0.00800  8.717E-03    0   0.8552   age078_m52            0.0000     4.0258E-01     6.9452   1.6639    86.3574
 24      0.0012     3.3907E-05    5.1845E-05    2.512000E+07  0.00800  5.592E-03    0   0.8162   age090_m52            0.0000     3.7327E-01     6.7785   1.3040    89.1529
 25      0.0000     0.0000E+00    0.0000E+00    4.000000E+07  0.00800  3.896E-03    0   0.7841   age104_m52            0.0000     3.7614E-01     6.7988   1.2283    89.3389
 26      0.0000     0.0000E+00    0.0000E+00    1.015200E+08  0.00800  2.148E-03    0   0.7226   age116_m52            0.0000     3.9531E-01     6.9607   1.1834    88.3715
 27      0.0000     0.0000E+00    0.0000E+00    2.861200E+08  0.00800  9.925E-04    0   0.6683   age125_m52            0.0000     4.1192E-01     7.2259   0.7244    90.9547
 28      8.1669     3.9574E+00    4.5506E+00    9.047900E+08  0.00800  3.141E-04    0   0.6138   age135_m52            0.0000     4.8141E-01     7.6814  -0.0544    93.7160
 29      0.0000     0.0000E+00    0.0000E+00    1.434000E+09  0.00800  1.719E-04    0   0.5853   age139_m52            0.0000     5.0924E-01     7.6854  -0.6439    92.0661
 30      0.0000     0.0000E+00    0.0000E+00    2.500000E+09  0.00800  7.872E-05    0   0.5600   age150_m52            0.0000     6.3072E-01     8.3055  -0.8912    88.5011
 31      0.0000     0.0000E+00    0.0000E+00    4.250000E+09  0.00800  4.336E-05    0   0.5426   age158_m52            0.0000     6.5380E-01     8.3547  -0.9053    87.6054
 32      0.0000     0.0000E+00    0.0000E+00    6.250000E+09  0.00800  3.159E-05    0   0.5319   age166_m52            0.0000     7.6557E-01     9.0663  -1.0000    83.7542
 33      3.8646     4.3219E+01    4.1074E+01    1.300000E+10  0.00800  1.361E-05    0   0.5073   age193_m52            0.0000     1.3571E+00    12.5992  -1.0000    68.1935
 34      0.0000     0.0000E+00    0.0000E+00    1.800000E+10  0.00800  9.886E-06    0   0.4990   age213_m52            0.0000     1.6045E+00    13.7854  -1.0000    64.6566
 35      4.1124     4.0539E-02    7.5944E-02    1.000000E+06  0.02000  1.544E-02    0   1.0000   age020_m62            0.0000     5.5552E-01     7.9648   2.4501    79.5495
 36      0.0000     0.0000E+00    0.0000E+00    3.160000E+06  0.02000  3.762E-02    0   0.9858   age045_m62            0.0000     5.5884E-01     7.9805   2.3917    80.1530
 37      0.0000     0.0000E+00    0.0000E+00    5.010000E+06  0.02000  3.296E-02    0   0.9342   age055_m62            0.0000     5.0100E-01     7.5710   2.0354    82.8151
 38     23.9330     3.1566E-01    5.2399E-01    8.710000E+06  0.02000  1.154E-02    0   0.8861   age067_m62            0.0000     4.4278E-01     7.6882   0.9308    93.5405
 39      0.0000     0.0000E+00    0.0000E+00    1.445000E+07  0.02000  7.663E-03    0   0.8472   age078_m62            0.0000     3.6951E-01     6.8575   1.1707    90.6978
 40      0.0000     0.0000E+00    0.0000E+00    2.512000E+07  0.02000  4.532E-03    0   0.8099   age090_m62            0.0000     3.8272E-01     6.9759   1.1647    90.4588
 41      0.0000     0.0000E+00    0.0000E+00    5.500000E+07  0.02000  2.733E-03    0   0.7595   age110_m62            0.0000     3.7627E-01     6.8079   1.2077    88.7914
 42      0.0000     0.0000E+00    0.0000E+00    1.609000E+08  0.02000  1.369E-03    0   0.6985   age120_m62            0.0000     4.0449E-01     7.1144   1.0770    89.8689
 43      0.0000     0.0000E+00    0.0000E+00    2.861200E+08  0.02000  9.013E-04    0   0.6714   age125_m62            0.0000     4.1713E-01     7.2891   0.8390    91.8562
 44      4.6189     1.3982E+00    1.6892E+00    5.088000E+08  0.02000  5.028E-04    0   0.6449   age130_m62            0.0000     4.7008E-01     7.7811   0.4836    93.1718
 45      0.0000     0.0000E+00    0.0000E+00    9.047900E+08  0.02000  2.428E-04    0   0.6179   age135_m62            0.0000     5.3880E-01     7.9546  -0.0992    92.3546
 46      0.0000     0.0000E+00    0.0000E+00    1.434000E+09  0.02000  1.263E-04    0   0.5908   age139_m62            0.0000     6.0767E-01     8.1428  -0.5440    90.8990
 47      0.0000     0.0000E+00    0.0000E+00    2.500000E+09  0.02000  5.985E-05    0   0.5673   age150_m62            0.0000     7.3682E-01     8.8467  -0.8912    88.7148
 48      5.4628     2.5419E+01    2.6038E+01    4.250000E+09  0.02000  3.271E-05    0   0.5468   age158_m62            0.0000     9.3595E-01    10.1552  -1.0000    81.0246
 49      0.0000     0.0000E+00    0.0000E+00    1.000000E+10  0.02000  1.360E-05    0   0.5167   age181_m62            0.0000     1.4569E+00    12.9432  -1.0000    69.5253
 50      0.0000     0.0000E+00    0.0000E+00    1.800000E+10  0.02000  7.124E-06    0   0.5013   age213_m62            0.0000     1.9013E+00    14.9927  -1.0000    62.8546
 51      4.7161     2.7693E-02    5.1869E-02    1.000000E+06  0.05000  2.592E-02    0   0.9998   age020_m72            0.0000     5.5934E-01     8.0168   2.4383    79.6892
 52      0.0000     0.0000E+00    0.0000E+00    3.160000E+06  0.05000  4.845E-02    0   0.9577   age045_m72            0.0000     5.4847E-01     7.8773   2.2838    80.8873
 53      0.0000     0.0000E+00    0.0000E+00    5.010000E+06  0.05000  3.072E-02    0   0.9147   age055_m72            0.0000     4.3236E-01     7.2788   1.7805    86.1201
 54      0.0000     0.0000E+00    0.0000E+00    6.610000E+06  0.05000  1.455E-02    0   0.8877   age061_m72            0.0000     6.6491E-01     9.4113   0.9796    95.1546
 55      0.0000     0.0000E+00    0.0000E+00    1.000000E+07  0.05000  9.074E-03    0   0.8524   age070_m72            0.0000     5.0968E-01     7.8598   1.9837    85.3964
 56      0.0000     0.0000E+00    0.0000E+00    2.512000E+07  0.05000  4.250E-03    0   0.7902   age090_m72            0.0000     4.4093E-01     7.3552   1.6791    87.0659
 57      0.0000     0.0000E+00    0.0000E+00    4.000000E+07  0.05000  3.087E-03    0   0.7618   age104_m72            0.0000     4.3033E-01     7.3149   1.4493    88.6489
 58      0.0000     0.0000E+00    0.0000E+00    1.015200E+08  0.05000  1.700E-03    0   0.7096   age116_m72            0.0000     3.9818E-01     7.0756   1.2113    89.9503
 59      0.0000     0.0000E+00    0.0000E+00    2.861200E+08  0.05000  7.384E-04    0   0.6633   age125_m72            0.0000     4.3524E-01     7.4893   0.7207    92.4484
 60     12.8050     5.1033E+00    6.0919E+00    5.088000E+08  0.05000  3.819E-04    0   0.6372   age130_m72            0.0000     4.9790E-01     7.8769   0.2374    93.3216
 61      0.0000     0.0000E+00    0.0000E+00    9.047900E+08  0.05000  1.676E-04    0   0.6110   age135_m72            0.0000     6.8670E-01     8.7346  -0.4377    90.5349
 62      0.0000     0.0000E+00    0.0000E+00    1.434000E+09  0.05000  8.837E-05    0   0.5874   age139_m72            0.0000     7.7172E-01     9.0793  -0.8885    89.8639
 63      0.0000     0.0000E+00    0.0000E+00    2.500000E+09  0.05000  4.233E-05    0   0.5598   age150_m72            0.0000     9.8656E-01    10.4290  -1.0000    81.6300
 64      0.0000     0.0000E+00    0.0000E+00    6.250000E+09  0.05000  1.435E-05    0   0.5249   age166_m72            0.0000     1.6393E+00    13.8710  -1.0000    66.3316
 65      0.6273     1.4660E+01    1.3831E+01    1.300000E+10  0.05000  6.513E-06    0   0.5036   age193_m72            0.0000     2.2953E+00    16.6400  -1.0000    59.0559
 66      0.0000     0.0000E+00    0.0000E+00    1.800000E+10  0.05000  4.527E-06    0   0.4945   age213_m72            0.0000     2.7273E+00    18.2889  -1.0000    54.7550


## Synthesis Results - Average & Chains ##

# j      x_j: min, <> & last-chain-values for 1 ...  7 chains
  1      5.1842      0.5345      0.0000      1.7655      0.0000      0.0000      1.2187      2.8419      0.0000
  2      0.0102      1.0988      2.6368      0.3237      5.0910      7.6846      2.3273      0.0000      0.9736
  3      0.0000      0.8029      0.0000      0.0000      0.0000     11.0203      0.5608      0.0000      0.1282
  4      0.0000      0.7147      0.0000      0.0000      0.0000      0.0000      3.6269      1.7056      0.0000
  5      0.0000      0.8073      0.0000      0.0000      0.0000      0.0000      0.0000      0.0000      0.5226
  6      0.0000      0.7150      0.0000      0.0000      0.4931      0.1775      0.0000      3.3581      0.0000
  7      0.0027      1.7328      0.9005      0.0000      0.0000      0.6570      4.4415      0.6861      4.8053
  8      0.0000      1.6095      3.3440      5.2213      0.5910      0.0000      0.2722      0.0000      0.6483
  9      0.0000      0.7305      0.0000      0.0655      0.0000      0.0000      0.0000      0.0000      0.5528
 10      0.0039      1.3223      1.3965      0.7342      0.0000      0.0000      1.5958      0.0000      2.4437
 11      0.0000      0.9287      0.0000      0.0000      0.0000      0.0000      0.0000      0.0000      0.0000
 12      0.0000      0.9717      0.0000      0.0000      0.3638      0.0000      0.0000      0.0000      0.0000
 13      0.0000      0.4620      0.0000      0.0000      0.0000      0.0000      0.0000      0.6582      0.0000
 14      2.1881      0.4429      0.0000      0.0000      0.0000      0.0000      1.7587      0.2306      1.5628
 15      0.0000      0.2933      0.0000      0.0000      0.0000      0.0033      0.0000      0.0000      0.0000
 16      0.0000      0.3710      0.0000      0.0000      0.3245      0.0000      0.0000      1.5146      0.6877
 17      0.0000      0.1002      0.0000      0.0000      0.0000      0.6577      0.0000      0.0000      0.0000
 18      4.3623      0.9542      1.3176      2.8619      2.7955      0.0000      1.8685      0.0000      0.0000
 19      4.8017      1.1568      0.0033      3.2041      0.9674      3.5881      2.4798      3.3041      0.0000
 20      0.0000      0.9749      2.6079      0.9422      3.2786      0.9753      0.2162      0.8771      0.5388
 21      8.3639      6.4330      5.1028      6.7844     10.8147      8.4280      9.1809      3.3677     12.9650
 22      0.0000      0.6737      0.0000      0.3315      0.0000      0.0000      0.0000      1.9387      0.0000
 23      0.0000      0.7893      0.4387      0.0000      0.1276      0.0000      1.4003      2.8322      0.0000
 24      0.0012      0.9765      0.0000      0.0000      6.1229      1.3834      2.1038      0.0000      0.1605
 25      0.0000      1.3654      0.0000      6.3114      0.0210      0.0000      0.2470      0.5120      0.0000
 26      0.0000      0.9098      0.0000      2.4982      0.0000      0.0000      0.0000      0.0000      0.0000
 27      0.0000      1.1986      1.8831      0.0000      0.0000      0.0000      0.0000      0.0000      0.0000
 28      8.1669      6.4964     10.8248     10.9949      6.6624      6.0350      5.9309      6.2315      4.5258
 29      0.0000      0.2734      1.1945      0.2595      0.0000      0.0000      0.0000      0.0000      0.0000
 30      0.0000      0.2072      0.0000      0.0000      0.0000      0.0000      0.0000      0.0957      0.0000
 31      0.0000      0.2416      0.0000      0.0000      0.6902      0.4280      0.0000      0.0000      0.0000
 32      0.0000      0.2068      0.7526      0.2994      0.0000      0.3931      0.0000      0.0000      0.0000
 33      3.8646      1.6654      1.8939      1.7047      2.6487      1.0668      4.7344      1.6170      0.6570
 34      0.0000      0.0489      0.0000      0.0000      0.0000      0.0000      0.0000      0.5500      0.0000
 35      4.1124      0.4885      1.5832      0.2730      0.0000      0.5009      1.2682      1.3747      1.3141
 36      0.0000      0.6449      2.5921      0.0000      0.0000      0.0000      0.0000      1.0190      1.8563
 37      0.0000      0.4394      0.0000      0.5718      0.0000      0.0000      0.0000      0.0000      1.7443
 38     23.9330     20.7034     25.3758     21.2126     25.4433     23.8564     17.4513     24.4442     24.3743
 39      0.0000      5.0513      4.9487      4.3064      5.6984      2.7006      3.8490      4.9282      3.1394
 40      0.0000      1.0438      0.0000      0.0000      0.0000      0.0000      2.4841      0.0000      0.0000
 41      0.0000      0.9101      0.0000      0.0903      0.0000      0.0000      0.0000      0.0000      1.5324
 42      0.0000      0.7132      0.0000      0.0000      0.4297      2.1000      0.0000      1.4735      0.0000
 43      0.0000      0.9720      0.0000      0.9569      0.0000      0.2910      0.0000      0.0000      0.0000
 44      4.6189      2.7345      1.2145      3.3828      0.0000      2.9224      0.8244      5.3641      4.8768
 45      0.0000      3.0099      3.4533      0.7723      6.1068      2.0075      5.9230      4.2253      1.6638
 46      0.0000      0.3551      0.0000      0.0000      0.3399      0.0000      0.0000      0.0377      0.0000
