###################################################################
## OUTPUT of StarlightChains_v04.for    [Cid@UFSC - 01/Apr/2007] ##
###################################################################

## Some input info
1961V.txt                                [arq_obs]
Base.CB07.vall.4m                        [arq_base]
Masks.EmLines.NEW.gm                     [arq_masks]
StCv04.C11.config                        [arq_config]
   66                                    [N_base]
    0                                    [N_YAV_components = # of components with extra extinction!]
    0                                    [i_FitPowerLaw (1/0 = Yes/No)]
-9.99                                    [alpha_PowerLaw]
CCM                                      [red_law_option]
 1.458241                                [q_norm = A(l_norm)/A(V)]

## (Re)Sampling Parameters
 3741.00                                 [l_ini (A)]
 7218.00                                 [l_fin (A)]
    1.00                                 [dl    (A)]     (OBS: dl_cushion =    50.00 A)

## Normalization info
 4020.00                                 [l_norm (A) - for base]
 4010.00                                 [llow_norm (A) - window for f_obs]
 4060.00                                 [lupp_norm (A) - window for f_obs]
4.405379E-17                             [fobs_norm (in input units)]

## S/N
 3691.00                                 [llow_SN (A) - window for S/N]
 7268.00                                 [lupp_SN (A) - window for S/N]
   2.474                                 [S/N in S/N window]
   4.652                                 [S/N in norm. window]
  10.000                                 [S/N_err in S/N window]
  18.805                                 [S/N_err in norm. window]
  1.0000                                 [fscale_chi2]

## etc...
    -2007203                             [idum_orig]
  2402                                   [NOl_eff]
  1906                                   [Nl_eff]
   496    NSIGMA                         [Ntot_cliped & clip_method]
   731850                                [Nglobal_steps]
   7                                     [N_chains]
  12                                     [NEX0s_base = N_base in EX0s-fits]
 0   0   1       35   2.0   5.414E+01    [Clip-Bug, RC-Crash & Burn-In warning-flags, n_censored_weights, wei_nsig_threshold & wei_limit]
    13     13.207     12.672      0.536  [idt_all, wdt_TotTime, wdt_UsrTime & wdt_SysTime (sec)]

## Synthesis Results - Best model ##

 2.13154E+00                             [chi2/Nl_eff]
    12.02243                             [adev (%)]

    76.87560                             [sum-of-x (%)]
 1.60511E-16                             [Flux_tot (units of input spectrum!)]
 8.17509E-15                             [Mini_tot (???)]
 7.81785E-15                             [Mcor_tot (???)]

 -19.79                                  [v0_min  (km/s)]
  29.38                                  [vd_min  (km/s)]
 1.1585                                  [AV_min  (mag)]
 0.0000                                  [YAV_min (mag)]

# j     x_j(%)      Mini_j(%)     Mcor_j(%)     age_j(yr)     Z_j      (L/M)_j    YAV?  Mstars   component_j        a/Fe...       SSP_chi2r SSP_adev(%)   SSP_AV   SSP_x(%)
  1      4.9772     1.1620E+01    1.2151E+01    1.000000E+06  0.00400  1.094E-02    0   1.0000   age020_m42            0.0000     2.3085E+00    12.2972   1.5899    73.2149
  2      0.0000     0.0000E+00    0.0000E+00    3.160000E+06  0.00400  4.007E-02    0   0.9999   age045_m42            0.0000     2.4340E+00    12.5837   0.8870    77.4483
  3      0.0000     0.0000E+00    0.0000E+00    5.010000E+06  0.00400  2.539E-02    0   0.9488   age055_m42            0.0000     2.3721E+00    12.4624   1.1953    75.9505
  4      0.0000     0.0000E+00    0.0000E+00    6.610000E+06  0.00400  2.620E-02    0   0.9220   age061_m42            0.0000     2.4632E+00    12.6372   0.8147    77.5789
  5      0.0000     0.0000E+00    0.0000E+00    1.000000E+07  0.00400  1.322E-02    0   0.8862   age070_m42            0.0000     2.4005E+00    12.5927   0.5284    79.4190
  6      0.0000     0.0000E+00    0.0000E+00    1.445000E+07  0.00400  7.883E-03    0   0.8571   age078_m42            0.0000     2.3511E+00    12.4976   0.8497    77.6105
  7      0.0000     0.0000E+00    0.0000E+00    2.512000E+07  0.00400  5.251E-03    0   0.8174   age090_m42            0.0000     2.4292E+00    12.6850   0.3991    79.8268
  8      0.0000     0.0000E+00    0.0000E+00    4.000000E+07  0.00400  3.649E-03    0   0.7851   age104_m42            0.0000     2.4650E+00    12.7382   0.1744    80.3770
  9      0.0000     0.0000E+00    0.0000E+00    5.500000E+07  0.00400  3.098E-03    0   0.7629   age110_m42            0.0000     2.5320E+00    12.8154   0.3356    80.1035
 10      0.0000     0.0000E+00    0.0000E+00    1.015200E+08  0.00400  2.228E-03    0   0.7207   age116_m42            0.0000     2.6108E+00    12.9203   0.3613    80.0553
 11      0.0000     0.0000E+00    0.0000E+00    2.861200E+08  0.00400  1.093E-03    0   0.6648   age125_m42            0.0000     2.6098E+00    12.8909  -0.1997    82.2857
 12      0.0000     0.0000E+00    0.0000E+00    5.088000E+08  0.00400  6.597E-04    0   0.6365   age130_m42            0.0000     2.7295E+00    13.0479  -0.2035    82.7137
 13      0.0000     0.0000E+00    0.0000E+00    1.434000E+09  0.00400  2.132E-04    0   0.5798   age139_m42            0.0000     2.9505E+00    13.4213  -1.0000    78.8983
 14      0.0000     0.0000E+00    0.0000E+00    4.250000E+09  0.00400  5.895E-05    0   0.5377   age158_m42            0.0000     4.1547E+00    15.8891  -1.0000    63.3403
 15      0.0000     0.0000E+00    0.0000E+00    7.500000E+09  0.00400  3.510E-05    0   0.5212   age171_m42            0.0000     5.0789E+00    17.6069  -1.0000    57.9193
 16      0.0000     0.0000E+00    0.0000E+00    1.300000E+10  0.00400  2.005E-05    0   0.5034   age193_m42            0.0000     6.0120E+00    19.1784  -1.0000    53.4443
 17      0.0000     0.0000E+00    0.0000E+00    1.800000E+10  0.00400  1.525E-05    0   0.4967   age213_m42            0.0000     6.1244E+00    19.4240  -1.0000    52.6352
 18      0.0071     1.4642E-02    1.5311E-02    1.000000E+06  0.00800  1.238E-02    0   1.0000   age020_m52            0.0000     2.3109E+00    12.3040   1.5863    73.3581
 19      0.0000     0.0000E+00    0.0000E+00    3.160000E+06  0.00800  3.074E-02    0   0.9966   age045_m52            0.0000     2.3304E+00    12.3543   1.5100    73.9953
 20      0.0000     0.0000E+00    0.0000E+00    5.010000E+06  0.00800  2.668E-02    0   0.9443   age055_m52            0.0000     2.3604E+00    12.4388   1.2748    75.3621
 21      0.0000     0.0000E+00    0.0000E+00    6.610000E+06  0.00800  2.136E-02    0   0.9177   age061_m52            0.0000     2.3707E+00    12.5045   0.0204    80.5992
 22      0.0000     0.0000E+00    0.0000E+00    1.000000E+07  0.00800  1.215E-02    0   0.8827   age070_m52            0.0000     2.3389E+00    12.4860   0.7038    79.4216
 23      0.0000     0.0000E+00    0.0000E+00    1.445000E+07  0.00800  8.717E-03    0   0.8552   age078_m52            0.0000     2.3580E+00    12.5075   0.8175    78.6074
 24      0.0000     0.0000E+00    0.0000E+00    2.512000E+07  0.00800  5.592E-03    0   0.8162   age090_m52            0.0000     2.4200E+00    12.6732   0.4654    80.7010
 25      0.0000     0.0000E+00    0.0000E+00    4.000000E+07  0.00800  3.896E-03    0   0.7841   age104_m52            0.0000     2.4619E+00    12.7242   0.3845    81.0945
 26      0.0000     0.0000E+00    0.0000E+00    1.015200E+08  0.00800  2.148E-03    0   0.7226   age116_m52            0.0000     2.5600E+00    12.8203   0.3297    80.7000
 27      0.0000     0.0000E+00    0.0000E+00    2.861200E+08  0.00800  9.925E-04    0   0.6683   age125_m52            0.0000     2.7710E+00    13.1312  -0.1378    83.4127
 28      0.0000     0.0000E+00    0.0000E+00    9.047900E+08  0.00800  3.141E-04    0   0.6138   age135_m52            0.0000     2.9057E+00    13.4004  -0.9292    86.6016
 29      0.0000     0.0000E+00    0.0000E+00    1.434000E+09  0.00800  1.719E-04    0   0.5853   age139_m52            0.0000     3.7732E+00    15.0529  -1.0000    69.3952
 30      0.0000     0.0000E+00    0.0000E+00    2.500000E+09  0.00800  7.872E-05    0   0.5600   age150_m52            0.0000     5.0305E+00    17.4086  -1.0000    60.0850
 31      0.0000     0.0000E+00    0.0000E+00    4.250000E+09  0.00800  4.336E-05    0   0.5426   age158_m52            0.0000     5.1070E+00    17.5437  -1.0000    59.1221
 32      0.0000     0.0000E+00    0.0000E+00    6.250000E+09  0.00800  3.159E-05    0   0.5319   age166_m52            0.0000     6.3157E+00    19.5112  -1.0000    53.9034
 33      0.0000     0.0000E+00    0.0000E+00    1.300000E+10  0.00800  1.361E-05    0   0.5073   age193_m52            0.0000     9.4888E+00    24.1961  -1.0000    42.7314
 34      0.0000     0.0000E+00    0.0000E+00    1.800000E+10  0.00800  9.886E-06    0   0.4990   age213_m52            0.0000     1.0287E+01    25.0986  -1.0000    40.3436
 35      0.0295     4.8844E-02    5.1076E-02    1.000000E+06  0.02000  1.544E-02    0   1.0000   age020_m62            0.0000     2.3105E+00    12.3017   1.5817    73.5556
 36      0.0000     0.0000E+00    0.0000E+00    3.160000E+06  0.02000  3.762E-02    0   0.9858   age045_m62            0.0000     2.3308E+00    12.3535   1.5188    74.2597
 37      0.0000     0.0000E+00    0.0000E+00    5.010000E+06  0.02000  3.296E-02    0   0.9342   age055_m62            0.0000     2.4335E+00    12.5825   1.1605    76.6985
 38      0.0000     0.0000E+00    0.0000E+00    8.710000E+06  0.02000  1.154E-02    0   0.8861   age067_m62            0.0000     2.4556E+00    12.9455   0.1410    82.2552
 39      0.0000     0.0000E+00    0.0000E+00    1.445000E+07  0.02000  7.663E-03    0   0.8472   age078_m62            0.0000     2.3098E+00    12.4848   0.3489    81.3622
 40      0.0000     0.0000E+00    0.0000E+00    2.512000E+07  0.02000  4.532E-03    0   0.8099   age090_m62            0.0000     2.3436E+00    12.5657   0.3444    81.0397
 41      0.0000     0.0000E+00    0.0000E+00    5.500000E+07  0.02000  2.733E-03    0   0.7595   age110_m62            0.0000     2.4476E+00    12.6716   0.3635    80.6487
 42      0.0000     0.0000E+00    0.0000E+00    1.609000E+08  0.02000  1.369E-03    0   0.6985   age120_m62            0.0000     2.6941E+00    13.0130   0.2182    82.2533
 43      0.0000     0.0000E+00    0.0000E+00    2.861200E+08  0.02000  9.013E-04    0   0.6714   age125_m62            0.0000     2.8987E+00    13.3352  -0.0221    84.1859
 44      0.0000     0.0000E+00    0.0000E+00    5.088000E+08  0.02000  5.028E-04    0   0.6449   age130_m62            0.0000     3.0495E+00    13.5828  -0.3908    86.0717
 45      0.0000     0.0000E+00    0.0000E+00    9.047900E+08  0.02000  2.428E-04    0   0.6179   age135_m62            0.0000     2.9468E+00    13.4857  -0.9888    86.0519
 46      0.0000     0.0000E+00    0.0000E+00    1.434000E+09  0.02000  1.263E-04    0   0.5908   age139_m62            0.0000     3.6373E+00    14.7084  -1.0000    71.6148
 47      0.0000     0.0000E+00    0.0000E+00    2.500000E+09  0.02000  5.985E-05    0   0.5673   age150_m62            0.0000     5.2534E+00    17.6476  -1.0000    60.3123
 48      0.0000     0.0000E+00    0.0000E+00    4.250000E+09  0.02000  3.271E-05    0   0.5468   age158_m62            0.0000     7.1476E+00    20.6233  -1.0000    51.9540
 49      0.0000     0.0000E+00    0.0000E+00    1.000000E+10  0.02000  1.360E-05    0   0.5167   age181_m62            0.0000     9.5675E+00    23.9228  -1.0000    43.7681
 50      0.0000     0.0000E+00    0.0000E+00    1.800000E+10  0.02000  7.124E-06    0   0.5013   age213_m62            0.0000     1.1088E+01    25.7512  -1.0000    39.1689
 51     52.3132     5.1547E+01    5.3891E+01    1.000000E+06  0.05000  2.592E-02    0   0.9998   age020_m72            0.0000     2.3018E+00    12.2828   1.5713    73.6578
 52      0.0000     0.0000E+00    0.0000E+00    3.160000E+06  0.05000  4.845E-02    0   0.9577   age045_m72            0.0000     2.3787E+00    12.4688   1.4095    74.9827
 53      0.0000     0.0000E+00    0.0000E+00    5.010000E+06  0.05000  3.072E-02    0   0.9147   age055_m72            0.0000     2.2054E+00    12.1719   0.9372    78.3073
 54     17.2304     3.0245E+01    2.8076E+01    6.610000E+06  0.05000  1.455E-02    0   0.8877   age061_m72            0.0000     2.5460E+00    13.1759   0.1999    83.0643
 55      2.3182     6.5249E+00    5.8160E+00    1.000000E+07  0.05000  9.074E-03    0   0.8524   age070_m72            0.0000     2.1954E+00    12.1721   1.1300    77.9697
 56      0.0000     0.0000E+00    0.0000E+00    2.512000E+07  0.05000  4.250E-03    0   0.7902   age090_m72            0.0000     2.2927E+00    12.3776   0.8350    79.0906
 57      0.0000     0.0000E+00    0.0000E+00    4.000000E+07  0.05000  3.087E-03    0   0.7618   age104_m72            0.0000     2.3502E+00    12.4941   0.6106    80.2789
 58      0.0000     0.0000E+00    0.0000E+00    1.015200E+08  0.05000  1.700E-03    0   0.7096   age116_m72            0.0000     2.6169E+00    12.9011   0.3610    81.9611
 59      0.0000     0.0000E+00    0.0000E+00    2.861200E+08  0.05000  7.384E-04    0   0.6633   age125_m72            0.0000     2.9662E+00    13.4320  -0.1490    85.1451
 60      0.0000     0.0000E+00    0.0000E+00    5.088000E+08  0.05000  3.819E-04    0   0.6372   age130_m72            0.0000     3.0327E+00    13.5984  -0.6458    86.6444
 61      0.0000     0.0000E+00    0.0000E+00    9.047900E+08  0.05000  1.676E-04    0   0.6110   age135_m72            0.0000     3.5876E+00    14.6092  -1.0000    74.6631
 62      0.0000     0.0000E+00    0.0000E+00    1.434000E+09  0.05000  8.837E-05    0   0.5874   age139_m72            0.0000     5.3370E+00    17.7715  -1.0000    61.1494
 63      0.0000     0.0000E+00    0.0000E+00    2.500000E+09  0.05000  4.233E-05    0   0.5598   age150_m72            0.0000     7.2057E+00    20.6257  -1.0000    52.4038
 64      0.0000     0.0000E+00    0.0000E+00    6.250000E+09  0.05000  1.435E-05    0   0.5249   age166_m72            0.0000     1.0254E+01    24.8347  -1.0000    41.5608
 65      0.0000     0.0000E+00    0.0000E+00    1.300000E+10  0.05000  6.513E-06    0   0.5036   age193_m72            0.0000     1.2293E+01    27.1976  -1.0000    36.4974
 66      0.0000     0.0000E+00    0.0000E+00    1.800000E+10  0.05000  4.527E-06    0   0.4945   age213_m72            0.0000     1.3452E+01    28.4671  -1.0000    33.5865


## Synthesis Results - Average & Chains ##

# j      x_j: min, <> & last-chain-values for 1 ...  7 chains
  1      4.9772      5.1832     10.1011      9.7390      4.0822      5.1757      5.4531      6.2391      7.8133
  2      0.0000      2.3050      1.3339      2.0136      2.9388      1.0442      0.4982      2.4379      0.0000
  3      0.0000      1.3472      1.0054      1.4756      1.9500      0.0000      2.1130      0.0000      0.0000
  4      0.0000      0.6023      0.0000      0.4007      0.0000      0.5535      0.0000      0.1313      0.0000
  5      0.0000      0.2126      0.0000      0.0486      0.0000      0.0000      0.0000      0.0000      0.0000
  6      0.0000      0.2466      0.0000      0.0000      0.0000      0.1832      0.0000      0.0000      0.0000
  7      0.0000      0.0937      0.1234      0.0000      0.0000      0.0000      0.5479      0.0000      0.0000
  8      0.0000      0.1200      0.0000      0.0000      0.0036      0.0000      0.0000      0.3212      0.0000
  9      0.0000      0.1871      0.0000      0.0000      0.0000      0.0000      0.0000      0.0000      0.0902
 10      0.0000      0.1429      0.0000      0.0807      0.0000      0.0000      0.0000      0.0000      0.0146
 11      0.0000      0.1614      0.2387      0.0803      0.0000      0.0000      0.0598      0.0000      0.2789
 12      0.0000      0.1242      0.0000      0.0000      0.0000      0.0000      0.0000      0.0000      0.0000
 13      0.0000      0.0210      0.0000      0.0000      0.0000      0.0000      0.0000      0.0000      0.0000
 14      0.0000      0.0196      0.0000      0.0000      0.0000      0.0000      0.0000      0.0000      0.0000
 15      0.0000      0.0056      0.0000      0.0000      0.0000      0.0000      0.0000      0.0000      0.0000
 16      0.0000      0.0021      0.0000      0.0000      0.0000      0.0000      0.0000      0.0000      0.0000
 17      0.0000      0.0028      0.0000      0.0000      0.0000      0.0000      0.0000      0.0000      0.0000
 18      0.0071      5.2472      4.8255      2.0498      6.5158      3.5503      3.0246      6.3354      2.9863
 19      0.0000      2.3030      0.0000      1.8593      1.9841      3.0383      0.8778      1.4131      1.6045
 20      0.0000      0.9501      2.4252      0.0000      0.0000      0.1181      0.8549      0.5916      0.0000
 21      0.0000      0.4915      1.2799      0.0177      0.0000      0.4903      0.0000      0.2332      0.0000
 22      0.0000      0.2145      0.0000      0.0000      0.0000      0.0000      0.0000      0.0000      0.0000
 23      0.0000      0.2259      0.0000      0.0000      0.0000      0.0000      0.0000      0.0000      0.0000
 24      0.0000      0.1420      0.0000      0.0000      0.0000      0.0328      0.0000      0.0000      0.0000
 25      0.0000      0.1707      0.0000      0.0000      0.0000      0.0000      0.9470      0.0000      0.0000
 26      0.0000      0.1966      0.0000      0.0000      0.0000      0.0000      0.0000      0.0000      0.2335
 27      0.0000      0.1287      0.0000      0.0000      0.0000      0.7662      0.0000      0.0000      0.0000
 28      0.0000      0.1365      0.0000      0.0000      0.0000      1.1090      0.0000      0.0000      0.0000
 29      0.0000      0.0111      0.0000      0.0000      0.0000      0.0000      0.0000      0.0000      0.0000
 30      0.0000      0.0045      0.0000      0.0000      0.0000      0.0000      0.0555      0.0000      0.0000
 31      0.0000      0.0160      0.0000      0.0000      0.0000      0.0000      0.0000      0.0000      0.0000
 32      0.0000      0.0127      0.0000      0.0000      0.0000      0.0000      0.0000      0.0000      0.0000
 33      0.0000      0.0443      0.0000      0.0413      0.0000      0.0000      0.0000      0.0000      0.1450
 34      0.0000      0.0010      0.0000      0.0245      0.0000      0.0000      0.0000      0.0000      0.0000
 35      0.0295      4.7044      3.9103      4.3610      5.1001      4.0450      4.9012      5.7359      4.6026
 36      0.0000      2.1299      1.7952      0.0000      9.0382      3.5078      4.1071      0.8663      4.3917
 37      0.0000      0.4790      0.0000      0.0000      0.0000      0.2191      2.1133      0.7224      0.0000
 38      0.0000      0.0898      0.0000      0.0000      0.0000      0.0000      0.0000      0.0000      0.0000
 39      0.0000      0.3474      0.0000      0.0000      0.0000      0.3209      0.0000      0.0000      0.0000
 40      0.0000      0.3069      0.0000      0.0000      0.0000      0.0000      0.0000      0.0000      1.3439
 41      0.0000      0.1622      0.0000      0.0000      0.0000      0.0000      0.0657      0.0000      0.0000
 42      0.0000      0.1901      0.0000      0.0000      0.0000      0.0000      0.0000      0.0000      0.0000
 43      0.0000      0.0911      0.0314      0.0000      0.0000      0.1134      0.0000      0.0000      0.0000
 44      0.0000      0.4585      0.0000      0.0623      0.7880      0.8145      1.0148      0.6846      1.2223
 45      0.0000      0.1781      0.0000      0.0000      0.0000      0.0000      0.0000      0.0000      0.3727
 46      0.0000      0.0328      0.0763      0.0000      0.0000      0.0000      0.0000      0.5495      0.0000
