###################################################################
## OUTPUT of StarlightChains_v04.for    [Cid@UFSC - 01/Apr/2007] ##
###################################################################

## Some input info
1963J.txt                                [arq_obs]
Base.CB07.vall.4m                        [arq_base]
Masks.EmLines.NEW.gm                     [arq_masks]
StCv04.C11.config                        [arq_config]
   66                                    [N_base]
    0                                    [N_YAV_components = # of components with extra extinction!]
    0                                    [i_FitPowerLaw (1/0 = Yes/No)]
-9.99                                    [alpha_PowerLaw]
CCM                                      [red_law_option]
 1.458241                                [q_norm = A(l_norm)/A(V)]

## (Re)Sampling Parameters
 3741.00                                 [l_ini (A)]
 7218.00                                 [l_fin (A)]
    1.00                                 [dl    (A)]     (OBS: dl_cushion =    50.00 A)

## Normalization info
 4020.00                                 [l_norm (A) - for base]
 4010.00                                 [llow_norm (A) - window for f_obs]
 4060.00                                 [lupp_norm (A) - window for f_obs]
1.523338E-15                             [fobs_norm (in input units)]

## S/N
 3691.00                                 [llow_SN (A) - window for S/N]
 7268.00                                 [lupp_SN (A) - window for S/N]
   8.797                                 [S/N in S/N window]
  10.363                                 [S/N in norm. window]
   7.886                                 [S/N_err in S/N window]
   9.290                                 [S/N_err in norm. window]
  1.0000                                 [fscale_chi2]

## etc...
    -2007204                             [idum_orig]
  2404                                   [NOl_eff]
  2397                                   [Nl_eff]
     7    NSIGMA                         [Ntot_cliped & clip_method]
  1562400                                [Nglobal_steps]
   7                                     [N_chains]
  30                                     [NEX0s_base = N_base in EX0s-fits]
 0   0   1       32   2.0   1.689E+01    [Clip-Bug, RC-Crash & Burn-In warning-flags, n_censored_weights, wei_nsig_threshold & wei_limit]
    13     13.115     12.574      0.541  [idt_all, wdt_TotTime, wdt_UsrTime & wdt_SysTime (sec)]

## Synthesis Results - Best model ##

 2.63308E-01                             [chi2/Nl_eff]
     3.62802                             [adev (%)]

   102.04421                             [sum-of-x (%)]
 2.11104E-15                             [Flux_tot (units of input spectrum!)]
 1.97624E-11                             [Mini_tot (???)]
 1.06248E-11                             [Mcor_tot (???)]

 -96.37                                  [v0_min  (km/s)]
 184.52                                  [vd_min  (km/s)]
 0.2279                                  [AV_min  (mag)]
 0.0000                                  [YAV_min (mag)]

# j     x_j(%)      Mini_j(%)     Mcor_j(%)     age_j(yr)     Z_j      (L/M)_j    YAV?  Mstars   component_j        a/Fe...       SSP_chi2r SSP_adev(%)   SSP_AV   SSP_x(%)
  1      7.8720     7.5325E-02    1.4011E-01    1.000000E+06  0.00400  1.094E-02    0   1.0000   age020_m42            0.0000     7.1535E-01     6.1325   2.8722    82.9527
  2      0.0000     0.0000E+00    0.0000E+00    3.160000E+06  0.00400  4.007E-02    0   0.9999   age045_m42            0.0000     4.7446E-01     5.1331   2.0998    90.6656
  3      0.0000     0.0000E+00    0.0000E+00    5.010000E+06  0.00400  2.539E-02    0   0.9488   age055_m42            0.0000     5.7272E-01     5.4893   2.4419    87.4878
  4      0.0000     0.0000E+00    0.0000E+00    6.610000E+06  0.00400  2.620E-02    0   0.9220   age061_m42            0.0000     4.7924E-01     4.9951   2.0244    90.9001
  5      0.0000     0.0000E+00    0.0000E+00    1.000000E+07  0.00400  1.322E-02    0   0.8862   age070_m42            0.0000     4.9298E-01     4.7636   1.7562    91.8068
  6      0.0000     0.0000E+00    0.0000E+00    1.445000E+07  0.00400  7.883E-03    0   0.8571   age078_m42            0.0000     5.4848E-01     5.0421   2.0947    89.0430
  7      0.0000     0.0000E+00    0.0000E+00    2.512000E+07  0.00400  5.251E-03    0   0.8174   age090_m42            0.0000     4.9412E-01     4.7910   1.6247    92.3006
  8      0.0000     0.0000E+00    0.0000E+00    4.000000E+07  0.00400  3.649E-03    0   0.7851   age104_m42            0.0000     4.4780E-01     4.5608   1.3867    93.6022
  9      0.0000     0.0000E+00    0.0000E+00    5.500000E+07  0.00400  3.098E-03    0   0.7629   age110_m42            0.0000     4.3920E-01     4.4754   1.5270    94.4034
 10      0.0000     0.0000E+00    0.0000E+00    1.015200E+08  0.00400  2.228E-03    0   0.7207   age116_m42            0.0000     4.5950E-01     4.5254   1.5380    95.1322
 11      0.0000     0.0000E+00    0.0000E+00    2.861200E+08  0.00400  1.093E-03    0   0.6648   age125_m42            0.0000     4.3916E-01     4.3289   0.9578    98.3900
 12      0.0000     0.0000E+00    0.0000E+00    5.088000E+08  0.00400  6.597E-04    0   0.6365   age130_m42            0.0000     4.6310E-01     4.3470   0.9330   100.1404
 13      2.7746     1.3623E+00    1.4692E+00    1.434000E+09  0.00400  2.132E-04    0   0.5798   age139_m42            0.0000     3.5567E-01     4.0531  -0.0627   103.4642
 14      0.0000     0.0000E+00    0.0000E+00    4.250000E+09  0.00400  5.895E-05    0   0.5377   age158_m42            0.0000     3.7496E-01     4.7234  -0.5020    99.7954
 15      2.2014     6.5654E+00    6.3647E+00    7.500000E+09  0.00400  3.510E-05    0   0.5212   age171_m42            0.0000     4.4724E-01     5.2198  -0.6939    99.4763
 16      6.0262     3.1463E+01    2.9460E+01    1.300000E+10  0.00400  2.005E-05    0   0.5034   age193_m42            0.0000     5.2878E-01     5.6952  -0.8610    99.1818
 17      2.8110     1.9296E+01    1.7827E+01    1.800000E+10  0.00400  1.525E-05    0   0.4967   age213_m42            0.0000     5.1753E-01     5.6056  -0.8821    98.6123
 18      5.5311     4.6769E-02    8.6991E-02    1.000000E+06  0.00800  1.238E-02    0   1.0000   age020_m52            0.0000     7.1755E-01     6.1427   2.8685    83.1169
 19      0.0000     0.0000E+00    0.0000E+00    3.160000E+06  0.00800  3.074E-02    0   0.9966   age045_m52            0.0000     7.0165E-01     6.0972   2.7886    83.9958
 20      0.0000     0.0000E+00    0.0000E+00    5.010000E+06  0.00800  2.668E-02    0   0.9443   age055_m52            0.0000     6.0045E-01     5.5931   2.5300    86.4540
 21      0.0040     1.9834E-05    3.3855E-05    6.610000E+06  0.00800  2.136E-02    0   0.9177   age061_m52            0.0000     4.2959E-01     4.4541   1.2551    92.9853
 22      0.0000     0.0000E+00    0.0000E+00    1.000000E+07  0.00800  1.215E-02    0   0.8827   age070_m52            0.0000     5.3466E-01     4.9855   1.9440    91.1087
 23      0.0000     0.0000E+00    0.0000E+00    1.445000E+07  0.00800  8.717E-03    0   0.8552   age078_m52            0.0000     5.2171E-01     4.8921   2.0554    90.4584
 24      0.0000     0.0000E+00    0.0000E+00    2.512000E+07  0.00800  5.592E-03    0   0.8162   age090_m52            0.0000     4.8159E-01     4.7191   1.6850    93.5315
 25      0.0000     0.0000E+00    0.0000E+00    4.000000E+07  0.00800  3.896E-03    0   0.7841   age104_m52            0.0000     4.4084E-01     4.4827   1.5840    94.9716
 26      0.0000     0.0000E+00    0.0000E+00    1.015200E+08  0.00800  2.148E-03    0   0.7226   age116_m52            0.0000     4.1517E-01     4.3197   1.5069    95.7520
 27      0.0000     0.0000E+00    0.0000E+00    2.861200E+08  0.00800  9.925E-04    0   0.6683   age125_m52            0.0000     4.5776E-01     4.2501   0.9939   101.2408
 28     26.2900     8.7618E+00    1.0003E+01    9.047900E+08  0.00800  3.141E-04    0   0.6138   age135_m52            0.0000     4.2392E-01     4.5139   0.1555   107.8654
 29      1.0699     6.5154E-01    7.0931E-01    1.434000E+09  0.00800  1.719E-04    0   0.5853   age139_m52            0.0000     3.5921E-01     4.5213  -0.4179   105.4300
 30      1.4470     1.9242E+00    2.0042E+00    2.500000E+09  0.00800  7.872E-05    0   0.5600   age150_m52            0.0000     4.6251E-01     5.4890  -0.6934   103.3146
 31      6.2817     1.5166E+01    1.5306E+01    4.250000E+09  0.00800  4.336E-05    0   0.5426   age158_m52            0.0000     4.8846E-01     5.5728  -0.7063   102.2553
 32      0.0000     0.0000E+00    0.0000E+00    6.250000E+09  0.00800  3.159E-05    0   0.5319   age166_m52            0.0000     6.1868E-01     6.3620  -0.9206   103.0509
 33      0.0000     0.0000E+00    0.0000E+00    1.300000E+10  0.00800  1.361E-05    0   0.5073   age193_m52            0.0000     1.4026E+00     8.3167  -1.0000    87.6721
 34      0.0000     0.0000E+00    0.0000E+00    1.800000E+10  0.00800  9.886E-06    0   0.4990   age213_m52            0.0000     1.9245E+00     9.6892  -1.0000    83.4095
 35      3.8897     2.6372E-02    4.9052E-02    1.000000E+06  0.02000  1.544E-02    0   1.0000   age020_m62            0.0000     7.2657E-01     6.1803   2.8662    83.2451
 36      0.2434     6.7740E-04    1.2421E-03    3.160000E+06  0.02000  3.762E-02    0   0.9858   age045_m62            0.0000     7.2387E-01     6.1892   2.8041    84.0326
 37      0.0000     0.0000E+00    0.0000E+00    5.010000E+06  0.02000  3.296E-02    0   0.9342   age055_m62            0.0000     5.3824E-01     5.3623   2.3903    89.1158
 38      0.0000     0.0000E+00    0.0000E+00    8.710000E+06  0.02000  1.154E-02    0   0.8861   age067_m62            0.0000     9.4671E-01     7.8480   1.4296    91.1431
 39      0.0000     0.0000E+00    0.0000E+00    1.445000E+07  0.02000  7.663E-03    0   0.8472   age078_m62            0.0000     5.8114E-01     5.4730   1.5955    92.6970
 40      0.0000     0.0000E+00    0.0000E+00    2.512000E+07  0.02000  4.532E-03    0   0.8099   age090_m62            0.0000     6.1115E-01     5.6768   1.5859    92.4718
 41      0.0000     0.0000E+00    0.0000E+00    5.500000E+07  0.02000  2.733E-03    0   0.7595   age110_m62            0.0000     4.6270E-01     4.5039   1.5713    94.0794
 42      0.0007     5.0610E-05    6.5753E-05    1.609000E+08  0.02000  1.369E-03    0   0.6985   age120_m62            0.0000     4.7918E-01     4.3340   1.3776    98.4449
 43      0.0000     0.0000E+00    0.0000E+00    2.861200E+08  0.02000  9.013E-04    0   0.6714   age125_m62            0.0000     5.3855E-01     4.4270   1.1040   102.5188
 44      9.0547     1.8852E+00    2.2613E+00    5.088000E+08  0.02000  5.028E-04    0   0.6449   age130_m62            0.0000     5.4954E-01     4.8844   0.6950   107.1941
 45     13.0740     5.6368E+00    6.4784E+00    9.047900E+08  0.02000  2.428E-04    0   0.6179   age135_m62            0.0000     4.4066E-01     4.9823   0.0950   107.5450
 46      8.1777     6.7779E+00    7.4483E+00    1.434000E+09  0.02000  1.263E-04    0   0.5908   age139_m62            0.0000     4.5590E-01     5.3278  -0.3496   106.1291
 47      0.0000     0.0000E+00    0.0000E+00    2.500000E+09  0.02000  5.985E-05    0   0.5673   age150_m62            0.0000     5.9878E-01     6.3846  -0.7245   105.4178
 48      0.1012     3.2377E-01    3.2929E-01    4.250000E+09  0.02000  3.271E-05    0   0.5468   age158_m62            0.0000     8.3648E-01     7.4813  -1.0000   103.7856
 49      0.0000     0.0000E+00    0.0000E+00    1.000000E+10  0.02000  1.360E-05    0   0.5167   age181_m62            0.0000     1.7602E+00     9.4198  -1.0000    89.9909
 50      0.0000     0.0000E+00    0.0000E+00    1.800000E+10  0.02000  7.124E-06    0   0.5013   age213_m62            0.0000     2.7343E+00    11.4909  -1.0000    81.5667
 51      0.0374     1.5106E-04    2.8092E-04    1.000000E+06  0.05000  2.592E-02    0   0.9998   age020_m72            0.0000     7.6096E-01     6.2882   2.8626    83.0586
 52      0.0000     0.0000E+00    0.0000E+00    3.160000E+06  0.05000  4.845E-02    0   0.9577   age045_m72            0.0000     6.5120E-01     5.9436   2.6726    85.7864
 53      0.0000     0.0000E+00    0.0000E+00    5.010000E+06  0.05000  3.072E-02    0   0.9147   age055_m72            0.0000     6.1850E-01     5.4349   2.1921    89.1359
 54      5.1542     3.7083E-02    6.1229E-02    6.610000E+06  0.05000  1.455E-02    0   0.8877   age061_m72            0.0000     1.4302E+00    10.3648   1.4891    91.1637
 55      0.0000     0.0000E+00    0.0000E+00    1.000000E+07  0.05000  9.074E-03    0   0.8524   age070_m72            0.0000     7.1057E-01     6.0597   2.3784    88.8983
 56      0.0000     0.0000E+00    0.0000E+00    2.512000E+07  0.05000  4.250E-03    0   0.7902   age090_m72            0.0000     5.7993E-01     5.3751   2.0546    91.4468
 57      0.0000     0.0000E+00    0.0000E+00    4.000000E+07  0.05000  3.087E-03    0   0.7618   age104_m72            0.0000     5.7322E-01     5.4110   1.8175    93.2885
 58      0.0000     0.0000E+00    0.0000E+00    1.015200E+08  0.05000  1.700E-03    0   0.7096   age116_m72            0.0000     4.8440E-01     4.4244   1.5278    97.5394
 59      0.0000     0.0000E+00    0.0000E+00    2.861200E+08  0.05000  7.384E-04    0   0.6633   age125_m72            0.0000     5.4950E-01     4.5962   0.9519   105.1239
 60      0.0024     6.4550E-04    7.6505E-04    5.088000E+08  0.05000  3.819E-04    0   0.6372   age130_m72            0.0000     4.9011E-01     5.0936   0.4335   108.4991
 61      0.0000     0.0000E+00    0.0000E+00    9.047900E+08  0.05000  1.676E-04    0   0.6110   age135_m72            0.0000     5.7828E-01     6.4151  -0.2768   107.8448
 62      0.0000     0.0000E+00    0.0000E+00    1.434000E+09  0.05000  8.837E-05    0   0.5874   age139_m72            0.0000     6.5713E-01     6.6795  -0.7352   107.5221
 63      0.0000     0.0000E+00    0.0000E+00    2.500000E+09  0.05000  4.233E-05    0   0.5598   age150_m72            0.0000     9.3052E-01     7.9365  -1.0000   104.8539
 64      0.0000     0.0000E+00    0.0000E+00    6.250000E+09  0.05000  1.435E-05    0   0.5249   age166_m72            0.0000     2.1165E+00    10.2903  -1.0000    86.0008
 65      0.0000     0.0000E+00    0.0000E+00    1.300000E+10  0.05000  6.513E-06    0   0.5036   age193_m72            0.0000     3.5495E+00    13.0658  -1.0000    76.6127
 66      0.0000     0.0000E+00    0.0000E+00    1.800000E+10  0.05000  4.527E-06    0   0.4945   age213_m72            0.0000     4.4898E+00    14.6811  -1.0000    70.9384


## Synthesis Results - Average & Chains ##

# j      x_j: min, <> & last-chain-values for 1 ...  7 chains
  1      7.8720      2.5936      2.8474      2.3358      2.9237      0.7526      2.5266      2.8467      2.2468
  2      0.0000      1.0653      0.0882      0.0000      1.6851      1.2665      0.0000      1.9912      0.9076
  3      0.0000      0.3563      0.0000      0.0000      0.0000      0.2698      0.0000      0.0000      0.3316
  4      0.0000      0.2442      0.9889      0.0000      1.4424      0.0000      0.0000      0.0000      0.0868
  5      0.0000      0.5042      0.0000      0.0000      0.0000      0.0000      0.0000      0.2731      1.2535
  6      0.0000      0.5122      0.9142      0.0000      0.0927      0.0000      0.0000      0.0000      0.0000
  7      0.0000      0.4408      0.0028      0.0000      0.0000      0.0000      0.0000      0.0000      0.0000
  8      0.0000      0.5526      1.3038      0.3932      0.0000      0.5589      0.0000      0.5138      0.0857
  9      0.0000      0.5861      0.8212      0.0000      0.0000      0.0000      0.0000      0.0000      0.0000
 10      0.0000      0.3237      0.0000      0.0000      0.0000      0.0000      0.0000      0.0000      0.0000
 11      0.0000      0.6682      0.0000      0.0000      0.0000      0.1436      0.8406      0.0000      0.2495
 12      0.0000      0.9102      0.0000      0.0000      0.0000      0.4207      0.0000      0.0000      0.0000
 13      2.7746      3.2684      4.1345      6.2978      0.0000      1.0019      0.7527      0.0000      0.0000
 14      0.0000      3.3466      0.0000      5.8309      5.8934      3.1111      5.2850      2.0335      3.1815
 15      2.2014      1.7271      2.2043      0.0000      0.0000      1.4940      0.0000      0.0000      2.1253
 16      6.0262      2.6587      4.5074      0.6099      1.5751      3.6785      2.2007      4.0256      2.7228
 17      2.8110      0.5838      2.0620      1.3605      0.0000      1.0973      0.9633      0.7790      1.2416
 18      5.5311      1.6693      3.6175      3.5926      0.3105      4.9077      0.1675      1.8258      3.2509
 19      0.0000      0.8754      0.6649      0.0000      0.6297      2.2934      2.1354      4.5480      0.4108
 20      0.0000      0.8530      1.1881      1.3632      0.0000      0.0000      0.5353      0.0000      0.0000
 21      0.0040      2.4280      0.7709      2.6044      5.4107      6.7429      7.3200      4.5083      0.0000
 22      0.0000      0.7651      0.3860      0.0000      0.0000      0.0000      2.8581      0.0000      0.0000
 23      0.0000      0.4076      0.0000      0.6213      0.0000      2.0749      0.0000      0.0000      0.0000
 24      0.0000      0.5113      0.2116      0.0000      0.0000      0.0000      0.2399      0.0000      0.0000
 25      0.0000      0.4402      0.0000      0.0000      0.0000      0.0000      0.0000      0.0000      0.0000
 26      0.0000      0.7267      0.0000      2.5964      0.0000      0.7774      0.0000      0.0000      0.0000
 27      0.0000      0.8513      0.0000      0.0000      1.0960      0.0000      0.3940      1.3912      3.3008
 28     26.2900     20.8292     21.1469     25.4457     29.1306     23.1263     26.1869     30.5233     24.6496
 29      1.0699      3.0910      4.1675      1.3652      3.8685      2.9053      2.3053      7.3652      2.1372
 30      1.4470      0.9554      1.1862      0.0000      0.0000      0.0000      1.7012      0.0000      0.0000
 31      6.2817      2.7636      5.2854      7.7556      3.5536      1.3501      1.6900      0.0000      5.4449
 32      0.0000      0.3943      0.0000      0.0000      0.0111      0.0000      0.0000      0.0000      0.0000
 33      0.0000      0.1493      0.0000      0.0000      0.6120      0.0000      0.0000      0.0000      0.0000
 34      0.0000      0.0579      0.0000      0.0000      0.5976      0.0000      0.0000      0.0000      0.0000
 35      3.8897      0.4855      2.6142      1.2441      1.5194      1.3205      0.0591      0.0000      0.0000
 36      0.2434      1.7922      3.0973      2.8074      5.7906      2.3126      0.6438      1.0182      1.6634
 37      0.0000      0.3813      0.7103      0.0000      0.0000      0.0000      0.0000      0.0000      0.2104
 38      0.0000      0.9603      0.5168      2.2347      0.0000      1.2034      3.3152      1.6493      2.2932
 39      0.0000      1.0722      1.6248      0.0558      0.0000      0.0000      2.4374      0.0000      4.6129
 40      0.0000      0.4304      0.0000      0.0000      0.0000      0.2916      0.0000      0.7672      1.0405
 41      0.0000      0.4231      0.0000      0.0000      0.2933      1.2228      0.0000      0.0000      0.0000
 42      0.0007      0.3506      0.8983      0.0000      0.0000      0.0000      0.0000      0.3297      0.0000
 43      0.0000      0.4708      0.3783      0.0000      0.0000      0.0000      0.0000      0.0000      1.7379
 44      9.0547      1.1877      1.5780      0.0000      0.9067      3.6519      4.3205      0.0000      0.0000
 45     13.0740     13.9973     15.6613     18.3477     18.5899     16.5761     10.6706     15.9691     17.9404
 46      8.1777      7.2718      7.0466      5.8123      8.5105      6.8124     10.7354      6.5440      8.3506
