###################################################################
## OUTPUT of StarlightChains_v04.for    [Cid@UFSC - 01/Apr/2007] ##
###################################################################

## Some input info
1969C.txt                                [arq_obs]
Base.CB07.vall.4m                        [arq_base]
Masks.EmLines.NEW.gm                     [arq_masks]
StCv04.C11.config                        [arq_config]
   66                                    [N_base]
    0                                    [N_YAV_components = # of components with extra extinction!]
    0                                    [i_FitPowerLaw (1/0 = Yes/No)]
-9.99                                    [alpha_PowerLaw]
CCM                                      [red_law_option]
 1.458241                                [q_norm = A(l_norm)/A(V)]

## (Re)Sampling Parameters
 3741.00                                 [l_ini (A)]
 7218.00                                 [l_fin (A)]
    1.00                                 [dl    (A)]     (OBS: dl_cushion =    50.00 A)

## Normalization info
 4020.00                                 [l_norm (A) - for base]
 4010.00                                 [llow_norm (A) - window for f_obs]
 4060.00                                 [lupp_norm (A) - window for f_obs]
3.125431E-16                             [fobs_norm (in input units)]

## S/N
 3691.00                                 [llow_SN (A) - window for S/N]
 7268.00                                 [lupp_SN (A) - window for S/N]
   9.237                                 [S/N in S/N window]
   9.278                                 [S/N in norm. window]
  15.727                                 [S/N_err in S/N window]
  15.797                                 [S/N_err in norm. window]
  1.0000                                 [fscale_chi2]

## etc...
    -2007205                             [idum_orig]
  2384                                   [NOl_eff]
  2376                                   [Nl_eff]
     8    NSIGMA                         [Ntot_cliped & clip_method]
  1666840                                [Nglobal_steps]
   7                                     [N_chains]
  28                                     [NEX0s_base = N_base in EX0s-fits]
 0   0   1        7   2.0   2.257E+01    [Clip-Bug, RC-Crash & Burn-In warning-flags, n_censored_weights, wei_nsig_threshold & wei_limit]
    15     14.793     14.247      0.546  [idt_all, wdt_TotTime, wdt_UsrTime & wdt_SysTime (sec)]

## Synthesis Results - Best model ##

 4.12593E-01                             [chi2/Nl_eff]
     3.01414                             [adev (%)]

   104.71111                             [sum-of-x (%)]
 5.34792E-16                             [Flux_tot (units of input spectrum!)]
 5.38163E-12                             [Mini_tot (???)]
 2.95455E-12                             [Mcor_tot (???)]

-105.69                                  [v0_min  (km/s)]
 137.83                                  [vd_min  (km/s)]
 0.3656                                  [AV_min  (mag)]
 0.0000                                  [YAV_min (mag)]

# j     x_j(%)      Mini_j(%)     Mcor_j(%)     age_j(yr)     Z_j      (L/M)_j    YAV?  Mstars   component_j        a/Fe...       SSP_chi2r SSP_adev(%)   SSP_AV   SSP_x(%)
  1      6.3042     5.4688E-02    9.9613E-02    1.000000E+06  0.00400  1.094E-02    0   1.0000   age020_m42            0.0000     1.5235E+00     6.3693   3.1007    91.3149
  2      0.0000     0.0000E+00    0.0000E+00    3.160000E+06  0.00400  4.007E-02    0   0.9999   age045_m42            0.0000     1.1351E+00     5.1329   2.4044    96.1906
  3      0.0000     0.0000E+00    0.0000E+00    5.010000E+06  0.00400  2.539E-02    0   0.9488   age055_m42            0.0000     1.2871E+00     5.5507   2.7110    94.4621
  4      0.0000     0.0000E+00    0.0000E+00    6.610000E+06  0.00400  2.620E-02    0   0.9220   age061_m42            0.0000     1.1055E+00     5.0519   2.3304    96.4188
  5      0.0000     0.0000E+00    0.0000E+00    1.000000E+07  0.00400  1.322E-02    0   0.8862   age070_m42            0.0000     1.0480E+00     4.8685   2.0295    99.2708
  6      0.0000     0.0000E+00    0.0000E+00    1.445000E+07  0.00400  7.883E-03    0   0.8571   age078_m42            0.0000     1.1591E+00     5.1727   2.3519    97.0009
  7      0.0000     0.0000E+00    0.0000E+00    2.512000E+07  0.00400  5.251E-03    0   0.8174   age090_m42            0.0000     1.0518E+00     4.8925   1.8988    99.8394
  8      0.0000     0.0000E+00    0.0000E+00    4.000000E+07  0.00400  3.649E-03    0   0.7851   age104_m42            0.0000     9.5544E-01     4.6686   1.6763   100.4192
  9      0.0000     0.0000E+00    0.0000E+00    5.500000E+07  0.00400  3.098E-03    0   0.7629   age110_m42            0.0000     9.6135E-01     4.6301   1.8449    99.7510
 10      0.0000     0.0000E+00    0.0000E+00    1.015200E+08  0.00400  2.228E-03    0   0.7207   age116_m42            0.0000     9.8030E-01     4.7153   1.8750    99.4913
 11      0.0094     8.1445E-04    9.8623E-04    2.861200E+08  0.00400  1.093E-03    0   0.6648   age125_m42            0.0000     9.2669E-01     4.7686   1.3017   102.5596
 12      0.0000     0.0000E+00    0.0000E+00    5.088000E+08  0.00400  6.597E-04    0   0.6365   age130_m42            0.0000     8.7154E-01     4.7408   1.3059   102.7661
 13      2.0395     9.0786E-01    9.5878E-01    1.434000E+09  0.00400  2.132E-04    0   0.5798   age139_m42            0.0000     5.4722E-01     3.8062   0.3449   104.2333
 14     13.1249     2.1130E+01    2.0694E+01    4.250000E+09  0.00400  5.895E-05    0   0.5377   age158_m42            0.0000     5.6978E-01     3.7905  -0.0977   100.3910
 15      0.0014     3.6631E-03    3.4776E-03    7.500000E+09  0.00400  3.510E-05    0   0.5212   age171_m42            0.0000     7.0528E-01     4.2527  -0.2797    99.4615
 16      2.7230     1.2889E+01    1.1818E+01    1.300000E+10  0.00400  2.005E-05    0   0.5034   age193_m42            0.0000     8.7610E-01     4.7267  -0.4403    98.7295
 17      0.0000     0.0000E+00    0.0000E+00    1.800000E+10  0.00400  1.525E-05    0   0.4967   age213_m42            0.0000     8.4615E-01     4.6157  -0.4656    98.3813
 18      0.0000     0.0000E+00    0.0000E+00    1.000000E+06  0.00800  1.238E-02    0   1.0000   age020_m52            0.0000     1.5249E+00     6.3769   3.0959    91.5301
 19      0.0000     0.0000E+00    0.0000E+00    3.160000E+06  0.00800  3.074E-02    0   0.9966   age045_m52            0.0000     1.5029E+00     6.2776   3.0232    92.1853
 20      0.0000     0.0000E+00    0.0000E+00    5.010000E+06  0.00800  2.668E-02    0   0.9443   age055_m52            0.0000     1.3107E+00     5.6607   2.7886    93.8291
 21      0.0000     0.0000E+00    0.0000E+00    6.610000E+06  0.00800  2.136E-02    0   0.9177   age061_m52            0.0000     7.8371E-01     4.4563   1.5238   100.6785
 22      0.0000     0.0000E+00    0.0000E+00    1.000000E+07  0.00800  1.215E-02    0   0.8827   age070_m52            0.0000     1.1176E+00     5.1067   2.1989    99.4650
 23      2.0596     2.2423E-02    3.4930E-02    1.445000E+07  0.00800  8.717E-03    0   0.8552   age078_m52            0.0000     1.0940E+00     5.0061   2.3186    98.2589
 24      1.7773     3.0164E-02    4.4844E-02    2.512000E+07  0.00800  5.592E-03    0   0.8162   age090_m52            0.0000     1.0206E+00     4.8349   1.9631   100.9388
 25      0.0000     0.0000E+00    0.0000E+00    4.000000E+07  0.00800  3.896E-03    0   0.7841   age104_m52            0.0000     9.5408E-01     4.6826   1.8846   101.2822
 26      0.0000     0.0000E+00    0.0000E+00    1.015200E+08  0.00800  2.148E-03    0   0.7226   age116_m52            0.0000     8.7608E-01     4.5489   1.8353   100.5946
 27      0.0000     0.0000E+00    0.0000E+00    2.861200E+08  0.00800  9.925E-04    0   0.6683   age125_m52            0.0000     8.2109E-01     4.6027   1.3711   103.6750
 28      3.0508     9.2178E-01    1.0306E+00    9.047900E+08  0.00800  3.141E-04    0   0.6138   age135_m52            0.0000     6.4226E-01     4.2861   0.5961   106.7466
 29      0.0000     0.0000E+00    0.0000E+00    1.434000E+09  0.00800  1.719E-04    0   0.5853   age139_m52            0.0000     5.5482E-01     3.8334   0.0059   105.0285
 30      0.0000     0.0000E+00    0.0000E+00    2.500000E+09  0.00800  7.872E-05    0   0.5600   age150_m52            0.0000     7.4771E-01     4.5234  -0.2506   101.7581
 31      0.0000     0.0000E+00    0.0000E+00    4.250000E+09  0.00800  4.336E-05    0   0.5426   age158_m52            0.0000     7.8637E-01     4.6117  -0.2670   100.8793
 32      0.0000     0.0000E+00    0.0000E+00    6.250000E+09  0.00800  3.159E-05    0   0.5319   age166_m52            0.0000     1.0509E+00     5.3547  -0.4581   100.3805
 33      3.4527     2.4076E+01    2.2247E+01    1.300000E+10  0.00800  1.361E-05    0   0.5073   age193_m52            0.0000     1.5300E+00     6.3932  -0.9106    98.9898
 34      0.0000     0.0000E+00    0.0000E+00    1.800000E+10  0.00800  9.886E-06    0   0.4990   age213_m52            0.0000     1.9298E+00     7.2319  -1.0000    97.7379
 35      0.0000     0.0000E+00    0.0000E+00    1.000000E+06  0.02000  1.544E-02    0   1.0000   age020_m62            0.0000     1.5424E+00     6.4228   3.0912    91.7784
 36      0.0000     0.0000E+00    0.0000E+00    3.160000E+06  0.02000  3.762E-02    0   0.9858   age045_m62            0.0000     1.5558E+00     6.4100   3.0327    92.4960
 37      0.0000     0.0000E+00    0.0000E+00    5.010000E+06  0.02000  3.296E-02    0   0.9342   age055_m62            0.0000     1.2308E+00     5.3756   2.6776    95.3247
 38     10.1165     8.3197E-02    1.3428E-01    8.710000E+06  0.02000  1.154E-02    0   0.8861   age067_m62            0.0000     1.8941E+00     7.4140   1.6037   104.2838
 39      0.0000     0.0000E+00    0.0000E+00    1.445000E+07  0.02000  7.663E-03    0   0.8472   age078_m62            0.0000     1.1886E+00     5.5374   1.8321   102.2604
 40      0.0000     0.0000E+00    0.0000E+00    2.512000E+07  0.02000  4.532E-03    0   0.8099   age090_m62            0.0000     1.2817E+00     5.6723   1.8248   101.9282
 41      0.0000     0.0000E+00    0.0000E+00    5.500000E+07  0.02000  2.733E-03    0   0.7595   age110_m62            0.0000     9.4549E-01     4.6572   1.8632   100.7569
 42      0.0000     0.0000E+00    0.0000E+00    1.609000E+08  0.02000  1.369E-03    0   0.6985   age120_m62            0.0000     9.0621E-01     4.6524   1.7266   102.3658
 43      2.4700     2.6008E-01    3.1807E-01    2.861200E+08  0.02000  9.013E-04    0   0.6714   age125_m62            0.0000     8.8353E-01     4.7409   1.4894   104.6202
 44      1.6391     3.0938E-01    3.6342E-01    5.088000E+08  0.02000  5.028E-04    0   0.6449   age130_m62            0.0000     8.2114E-01     4.8375   1.1337   106.3275
 45      0.5588     2.1842E-01    2.4582E-01    9.047900E+08  0.02000  2.428E-04    0   0.6179   age135_m62            0.0000     6.3590E-01     4.2762   0.5482   105.6571
 46     40.5843     3.0495E+01    3.2817E+01    1.434000E+09  0.02000  1.263E-04    0   0.5908   age139_m62            0.0000     6.7968E-01     4.3497   0.1014   104.2291
 47      1.3286     2.1067E+00    2.1769E+00    2.500000E+09  0.02000  5.985E-05    0   0.5673   age150_m62            0.0000     1.0054E+00     5.3003  -0.2554   102.3930
 48      0.0000     0.0000E+00    0.0000E+00    4.250000E+09  0.02000  3.271E-05    0   0.5468   age158_m62            0.0000     1.5319E+00     6.5319  -0.5425   100.6955
 49      0.0000     0.0000E+00    0.0000E+00    1.000000E+10  0.02000  1.360E-05    0   0.5167   age181_m62            0.0000     2.3135E+00     7.9742  -0.8665    99.1678
 50      0.0000     0.0000E+00    0.0000E+00    1.800000E+10  0.02000  7.124E-06    0   0.5013   age213_m62            0.0000     3.0170E+00     9.1016  -1.0000    95.4767
 51      5.6865     2.0820E-02    3.7916E-02    1.000000E+06  0.05000  2.592E-02    0   0.9998   age020_m72            0.0000     1.5871E+00     6.5499   3.0806    91.9054
 52      0.0000     0.0000E+00    0.0000E+00    3.160000E+06  0.05000  4.845E-02    0   0.9577   age045_m72            0.0000     1.4564E+00     6.0148   2.9252    93.2977
 53      0.0000     0.0000E+00    0.0000E+00    5.010000E+06  0.05000  3.072E-02    0   0.9147   age055_m72            0.0000     1.2938E+00     5.7612   2.4241    98.2212
 54      0.0000     0.0000E+00    0.0000E+00    6.610000E+06  0.05000  1.455E-02    0   0.8877   age061_m72            0.0000     3.3422E+00     9.8750   1.6289   106.1384
 55      0.0000     0.0000E+00    0.0000E+00    1.000000E+07  0.05000  9.074E-03    0   0.8524   age070_m72            0.0000     1.6992E+00     6.5654   2.6091    97.8946
 56      0.0000     0.0000E+00    0.0000E+00    2.512000E+07  0.05000  4.250E-03    0   0.7902   age090_m72            0.0000     1.3625E+00     5.6996   2.3177    99.2231
 57      0.0000     0.0000E+00    0.0000E+00    4.000000E+07  0.05000  3.087E-03    0   0.7618   age104_m72            0.0000     1.3582E+00     5.6669   2.0910   100.7457
 58      0.0000     0.0000E+00    0.0000E+00    1.015200E+08  0.05000  1.700E-03    0   0.7096   age116_m72            0.0000     9.8923E-01     4.8553   1.8595   102.3347
 59      0.0000     0.0000E+00    0.0000E+00    2.861200E+08  0.05000  7.384E-04    0   0.6633   age125_m72            0.0000     8.3151E-01     4.7129   1.3694   105.4322
 60      2.2563     5.6069E-01    6.5076E-01    5.088000E+08  0.05000  3.819E-04    0   0.6372   age130_m72            0.0000     6.9860E-01     4.4506   0.8901   106.5242
 61      0.0699     3.9586E-02    4.4056E-02    9.047900E+08  0.05000  1.676E-04    0   0.6110   age135_m72            0.0000     9.4239E-01     5.2563   0.2031   104.2953
 62      5.4566     5.8599E+00    6.2697E+00    1.434000E+09  0.05000  8.837E-05    0   0.5874   age139_m72            0.0000     1.1123E+00     5.5378  -0.2526   103.6861
 63      0.0000     0.0000E+00    0.0000E+00    2.500000E+09  0.05000  4.233E-05    0   0.5598   age150_m72            0.0000     1.7141E+00     6.9381  -0.5388   101.3443
 64      0.0016     1.0356E-02    9.9016E-03    6.250000E+09  0.05000  1.435E-05    0   0.5249   age166_m72            0.0000     2.5342E+00     8.3646  -0.9589    98.5355
 65      0.0000     0.0000E+00    0.0000E+00    1.300000E+10  0.05000  6.513E-06    0   0.5036   age193_m72            0.0000     3.8775E+00    10.1230  -1.0000    90.6225
 66      0.0000     0.0000E+00    0.0000E+00    1.800000E+10  0.05000  4.527E-06    0   0.4945   age213_m72            0.0000     5.2126E+00    11.5393  -1.0000    84.7135


## Synthesis Results - Average & Chains ##

# j      x_j: min, <> & last-chain-values for 1 ...  7 chains
  1      6.3042      2.8962      2.4380      4.4781      5.8019      0.9184      3.9949      3.4540      1.4836
  2      0.0000      0.3063      0.0000      0.0000      0.0000      0.0000      0.6722      0.5208      0.9692
  3      0.0000      0.2015      0.2150      0.4357      0.0000      0.0354      0.0000      0.0000      0.0000
  4      0.0000      0.3088      0.0000      0.0000      0.0000      0.8860      0.8638      0.0000      0.0000
  5      0.0000      0.2969      1.2806      0.0000      0.0000      0.4942      0.0074      0.0000      1.1528
  6      0.0000      0.3408      0.5483      0.0000      0.0000      0.0000      0.0000      0.8692      0.4122
  7      0.0000      0.3948      0.0000      4.1851      1.1590      0.0330      0.1698      0.0000      0.0000
  8      0.0000      0.3403      1.3341      0.3144      0.0000      0.0000      0.0000      0.0000      0.3256
  9      0.0000      0.1613      0.0000      0.0000      0.0000      0.0000      0.0000      0.0000      0.0000
 10      0.0000      0.2542      0.0000      0.0000      0.0000      0.0000      0.0000      0.2334      0.0000
 11      0.0094      0.6519      0.0000      0.0000      0.8173      2.3273      0.0000      0.8489      0.0000
 12      0.0000      0.2633      0.0000      1.2325      0.0000      0.0000      0.4390      0.1356      0.0000
 13      2.0395      3.6582      2.5756      3.1017      4.5313      2.1500      1.9202      0.0000      2.0188
 14     13.1249      8.6147      8.7602      7.8646     10.6123      7.4008      9.0532     10.9548      8.8254
 15      0.0014      1.7173      1.5701      2.5689      1.5313      1.5117      1.4983      0.8256      3.2390
 16      2.7230      5.0287      4.9653      4.7598      4.9777      5.6086      5.3412      4.5331      5.3560
 17      0.0000      0.2661      0.0000      0.7286      0.3718      1.5589      0.7996      0.0000      0.2583
 18      0.0000      0.4327      0.0000      0.1290      0.0000      2.3919      0.3448      0.6826      0.0000
 19      0.0000      0.4179      0.0000      0.0000      0.0000      1.4734      0.0000      0.0000      0.0000
 20      0.0000      0.2693      0.3736      0.4856      0.0000      0.1996      0.0000      0.0807      0.0000
 21      0.0000      0.5559      0.0000      0.2055      0.0000      0.0000      0.0000      0.0000      0.5807
 22      0.0000      0.5232      1.4898      0.0000      0.0000      0.8500      0.0941      0.0000      2.7244
 23      2.0596      1.0567      0.1086      0.0000      1.7677      1.6838      0.4261      1.1928      2.9140
 24      1.7773      0.4967      0.1679      0.0000      1.4660      1.1417      0.1327      0.2234      0.0000
 25      0.0000      0.5465      0.0301      0.0000      0.3482      1.0910      0.9737      0.3086      0.8200
 26      0.0000      0.4256      0.6701      0.0000      0.0000      0.6946      1.5270      1.0259      1.0032
 27      0.0000      0.4573      1.3865      0.4407      0.0000      0.0000      0.4513      0.8167      0.0000
 28      3.0508      2.8589      1.5535      1.1032      1.5780      3.1034      3.9064      2.7677      3.8613
 29      0.0000      1.6522      1.8047      1.3538      2.0658      0.0000      0.9978      0.6028      0.0000
 30      0.0000      0.4198      0.0000      0.0330      0.0000      0.1604      0.0000      0.0000      0.0000
 31      0.0000      2.9887      3.4636      2.6110      2.4972      2.0403      0.0000      2.6398      2.7221
 32      0.0000      0.3599      0.0000      0.0272      0.7315      0.0000      1.6058      0.1895      0.0552
 33      3.4527      1.4961      2.3880      0.9746      1.7801      1.4089      1.8220      2.1263      0.8146
 34      0.0000      0.0591      0.0000      0.0000      0.0000      0.0000      0.0000      0.6679      0.0000
 35      0.0000      0.2977      1.0024      0.0000      0.0000      0.4443      0.0000      0.7750      0.0617
 36      0.0000      0.3770      0.7898      0.0396      0.2748      0.4331      1.2692      0.3869      0.0000
 37      0.0000      0.2937      0.1317      0.0000      0.4042      0.0000      0.4401      0.0000      0.0000
 38     10.1165      7.6579      7.1129      8.6449      7.3709      6.7819     10.4790      7.3028      7.8061
 39      0.0000      1.6041      0.5820      1.6101      1.2186      1.9284      2.0197      1.9685      2.3324
 40      0.0000      0.3462      1.1203      0.5044      0.2141      0.0000      0.0000      0.0000      0.0000
 41      0.0000      0.9265      1.2797      0.0000      0.0035      1.1558      1.5188      1.4662      1.4019
 42      0.0000      0.6228      0.8224      0.3922      0.0000      0.9465      1.0583      1.1025      0.0000
 43      2.4700      0.4644      0.1601      0.0000      0.7419      0.9609      1.4412      1.5058      0.9125
 44      1.6391      0.9907      5.4860      0.0000      0.4543      0.0000      0.1986      0.0000      0.0000
 45      0.5588      5.0402      2.6086      3.5393      3.6882      5.4277      5.0710      3.9225      5.0011
 46     40.5843     20.7619     24.3386     22.4995     25.5400     28.1781     24.4637     26.2587     22.1828
