###################################################################
## OUTPUT of StarlightChains_v04.for    [Cid@UFSC - 01/Apr/2007] ##
###################################################################

## Some input info
1970J.txt                                [arq_obs]
Base.CB07.vall.4m                        [arq_base]
Masks.EmLines.NEW.gm                     [arq_masks]
StCv04.C11.config                        [arq_config]
   66                                    [N_base]
    0                                    [N_YAV_components = # of components with extra extinction!]
    0                                    [i_FitPowerLaw (1/0 = Yes/No)]
-9.99                                    [alpha_PowerLaw]
CCM                                      [red_law_option]
 1.458241                                [q_norm = A(l_norm)/A(V)]

## (Re)Sampling Parameters
 3741.00                                 [l_ini (A)]
 7218.00                                 [l_fin (A)]
    1.00                                 [dl    (A)]     (OBS: dl_cushion =    50.00 A)

## Normalization info
 4020.00                                 [l_norm (A) - for base]
 4010.00                                 [llow_norm (A) - window for f_obs]
 4060.00                                 [lupp_norm (A) - window for f_obs]
2.264229E-17                             [fobs_norm (in input units)]

## S/N
 3691.00                                 [llow_SN (A) - window for S/N]
 7268.00                                 [lupp_SN (A) - window for S/N]
   3.920                                 [S/N in S/N window]
   2.335                                 [S/N in norm. window]
   0.000                                 [S/N_err in S/N window]
   0.000                                 [S/N_err in norm. window]
  1.0000                                 [fscale_chi2]

## etc...
    -2007206                             [idum_orig]
  2305                                   [NOl_eff]
  2283                                   [Nl_eff]
    22    NSIGMA                         [Ntot_cliped & clip_method]
   410970                                [Nglobal_steps]
   7                                     [N_chains]
  12                                     [NEX0s_base = N_base in EX0s-fits]
 0   0   1      207   2.0   7.851E+00    [Clip-Bug, RC-Crash & Burn-In warning-flags, n_censored_weights, wei_nsig_threshold & wei_limit]
    13     13.297     12.755      0.542  [idt_all, wdt_TotTime, wdt_UsrTime & wdt_SysTime (sec)]

## Synthesis Results - Best model ##

 3.84437E-01                             [chi2/Nl_eff]
    19.44826                             [adev (%)]

   121.66257                             [sum-of-x (%)]
 1.51558E-17                             [Flux_tot (units of input spectrum!)]
 1.35062E-12                             [Mini_tot (???)]
 6.74423E-13                             [Mcor_tot (???)]

-294.35                                  [v0_min  (km/s)]
 425.00                                  [vd_min  (km/s)]
-0.4449                                  [AV_min  (mag)]
 0.0000                                  [YAV_min (mag)]

# j     x_j(%)      Mini_j(%)     Mcor_j(%)     age_j(yr)     Z_j      (L/M)_j    YAV?  Mstars   component_j        a/Fe...       SSP_chi2r SSP_adev(%)   SSP_AV   SSP_x(%)
  1      0.0000     0.0000E+00    0.0000E+00    1.000000E+06  0.00400  1.094E-02    0   1.0000   age020_m42            0.0000     6.5183E-01    15.8307   4.0000   105.1849
  2      0.0000     0.0000E+00    0.0000E+00    3.160000E+06  0.00400  4.007E-02    0   0.9999   age045_m42            0.0000     5.5577E-01    30.4097   4.0000   103.9391
  3      0.0000     0.0000E+00    0.0000E+00    5.010000E+06  0.00400  2.539E-02    0   0.9488   age055_m42            0.0000     5.9359E-01    21.0975   4.0000   105.1192
  4      0.0000     0.0000E+00    0.0000E+00    6.610000E+06  0.00400  2.620E-02    0   0.9220   age061_m42            0.0000     5.5873E-01    33.1559   4.0000   103.4741
  5      0.0000     0.0000E+00    0.0000E+00    1.000000E+07  0.00400  1.322E-02    0   0.8862   age070_m42            0.0000     5.5276E-01    45.2037   4.0000   103.1823
  6      0.0000     0.0000E+00    0.0000E+00    1.445000E+07  0.00400  7.883E-03    0   0.8571   age078_m42            0.0000     5.8006E-01    32.3948   4.0000   103.7893
  7      0.0000     0.0000E+00    0.0000E+00    2.512000E+07  0.00400  5.251E-03    0   0.8174   age090_m42            0.0000     5.4805E-01    50.9123   4.0000   102.3907
  8      0.0000     0.0000E+00    0.0000E+00    4.000000E+07  0.00400  3.649E-03    0   0.7851   age104_m42            0.0000     5.3276E-01    61.7732   4.0000   101.0364
  9      0.0000     0.0000E+00    0.0000E+00    5.500000E+07  0.00400  3.098E-03    0   0.7629   age110_m42            0.0000     5.4687E-01    53.2346   4.0000   101.8795
 10      0.0000     0.0000E+00    0.0000E+00    1.015200E+08  0.00400  2.228E-03    0   0.7207   age116_m42            0.0000     5.5553E-01    51.7622   4.0000   101.9118
 11      0.0000     0.0000E+00    0.0000E+00    2.861200E+08  0.00400  1.093E-03    0   0.6648   age125_m42            0.0000     5.3788E-01    66.2198   3.7250   101.7595
 12      0.0000     0.0000E+00    0.0000E+00    5.088000E+08  0.00400  6.597E-04    0   0.6365   age130_m42            0.0000     5.3884E-01    55.9452   3.5336   103.8632
 13      0.0000     0.0000E+00    0.0000E+00    1.434000E+09  0.00400  2.132E-04    0   0.5798   age139_m42            0.0000     4.7848E-01    34.9454   2.1212   109.7119
 14      0.0000     0.0000E+00    0.0000E+00    4.250000E+09  0.00400  5.895E-05    0   0.5377   age158_m42            0.0000     4.1701E-01    21.4546   1.2890   110.8281
 15      0.0000     0.0000E+00    0.0000E+00    7.500000E+09  0.00400  3.510E-05    0   0.5212   age171_m42            0.0000     4.0076E-01    16.2343   0.9177   112.1557
 16     15.9505     7.3375E+00    7.3971E+00    1.300000E+10  0.00400  2.005E-05    0   0.5034   age193_m42            0.0000     3.8921E-01    13.1937   0.5914   113.5340
 17      0.0000     0.0000E+00    0.0000E+00    1.800000E+10  0.00400  1.525E-05    0   0.4967   age213_m42            0.0000     3.9106E-01    13.4481   0.5846   112.8247
 18      0.0000     0.0000E+00    0.0000E+00    1.000000E+06  0.00800  1.238E-02    0   1.0000   age020_m52            0.0000     6.5079E-01    15.8151   4.0000   105.3676
 19      0.0000     0.0000E+00    0.0000E+00    3.160000E+06  0.00800  3.074E-02    0   0.9966   age045_m52            0.0000     6.3776E-01    15.8504   4.0000   105.5977
 20      0.0000     0.0000E+00    0.0000E+00    5.010000E+06  0.00800  2.668E-02    0   0.9443   age055_m52            0.0000     6.0493E-01    19.2195   4.0000   105.1387
 21      0.0000     0.0000E+00    0.0000E+00    6.610000E+06  0.00800  2.136E-02    0   0.9177   age061_m52            0.0000     4.8196E-01    71.1001   4.0000   100.9594
 22      0.0000     0.0000E+00    0.0000E+00    1.000000E+07  0.00800  1.215E-02    0   0.8827   age070_m52            0.0000     5.6789E-01    37.9040   4.0000   104.5791
 23      0.0000     0.0000E+00    0.0000E+00    1.445000E+07  0.00800  8.717E-03    0   0.8552   age078_m52            0.0000     5.7390E-01    33.4651   4.0000   104.7211
 24      0.0000     0.0000E+00    0.0000E+00    2.512000E+07  0.00800  5.592E-03    0   0.8162   age090_m52            0.0000     5.5137E-01    47.5558   4.0000   103.7951
 25      0.0000     0.0000E+00    0.0000E+00    4.000000E+07  0.00800  3.896E-03    0   0.7841   age104_m52            0.0000     5.4449E-01    50.9243   4.0000   103.3607
 26      0.0000     0.0000E+00    0.0000E+00    1.015200E+08  0.00800  2.148E-03    0   0.7226   age116_m52            0.0000     5.4015E-01    53.3853   4.0000   102.4690
 27      0.0000     0.0000E+00    0.0000E+00    2.861200E+08  0.00800  9.925E-04    0   0.6683   age125_m52            0.0000     5.4414E-01    54.8150   3.5779   104.9022
 28      0.0000     0.0000E+00    0.0000E+00    9.047900E+08  0.00800  3.141E-04    0   0.6138   age135_m52            0.0000     4.7946E-01    22.8715   2.0459   115.3073
 29      0.0000     0.0000E+00    0.0000E+00    1.434000E+09  0.00800  1.719E-04    0   0.5853   age139_m52            0.0000     4.4037E-01    20.3473   1.3666   115.2047
 30      0.0000     0.0000E+00    0.0000E+00    2.500000E+09  0.00800  7.872E-05    0   0.5600   age150_m52            0.0000     4.1319E-01    13.3139   0.7763   116.3512
 31      0.0000     0.0000E+00    0.0000E+00    4.250000E+09  0.00800  4.336E-05    0   0.5426   age158_m52            0.0000     4.0527E-01    12.8558   0.7156   115.9299
 32      0.0000     0.0000E+00    0.0000E+00    6.250000E+09  0.00800  3.159E-05    0   0.5319   age166_m52            0.0000     3.9416E-01    14.0690   0.2540   118.9314
 33      0.0000     0.0000E+00    0.0000E+00    1.300000E+10  0.00800  1.361E-05    0   0.5073   age193_m52            0.0000     3.8675E-01    21.9000  -0.6030   122.7799
 34     99.3162     9.2659E+01    9.2595E+01    1.800000E+10  0.00800  9.886E-06    0   0.4990   age213_m52            0.0000     3.8638E-01    27.4766  -0.9868   125.5385
 35      6.3958     3.8206E-03    7.6513E-03    1.000000E+06  0.02000  1.544E-02    0   1.0000   age020_m62            0.0000     6.5045E-01    15.8139   4.0000   105.6678
 36      0.0000     0.0000E+00    0.0000E+00    3.160000E+06  0.02000  3.762E-02    0   0.9858   age045_m62            0.0000     6.4110E-01    15.8477   4.0000   106.2174
 37      0.0000     0.0000E+00    0.0000E+00    5.010000E+06  0.02000  3.296E-02    0   0.9342   age055_m62            0.0000     5.8852E-01    21.9067   4.0000   105.7929
 38      0.0000     0.0000E+00    0.0000E+00    8.710000E+06  0.02000  1.154E-02    0   0.8861   age067_m62            0.0000     5.5106E-01    65.3401   4.0000   103.3878
 39      0.0000     0.0000E+00    0.0000E+00    1.445000E+07  0.02000  7.663E-03    0   0.8472   age078_m62            0.0000     5.3574E-01    53.8175   4.0000   103.9223
 40      0.0000     0.0000E+00    0.0000E+00    2.512000E+07  0.02000  4.532E-03    0   0.8099   age090_m62            0.0000     5.4671E-01    53.9391   4.0000   103.2825
 41      0.0000     0.0000E+00    0.0000E+00    5.500000E+07  0.02000  2.733E-03    0   0.7595   age110_m62            0.0000     5.4229E-01    52.3208   4.0000   102.9515
 42      0.0000     0.0000E+00    0.0000E+00    1.609000E+08  0.02000  1.369E-03    0   0.6985   age120_m62            0.0000     5.5763E-01    58.7888   4.0000   103.2660
 43      0.0000     0.0000E+00    0.0000E+00    2.861200E+08  0.02000  9.013E-04    0   0.6714   age125_m62            0.0000     5.6746E-01    55.4089   3.7055   105.8072
 44      0.0000     0.0000E+00    0.0000E+00    5.088000E+08  0.02000  5.028E-04    0   0.6449   age130_m62            0.0000     5.4202E-01    32.5804   2.8425   112.4094
 45      0.0000     0.0000E+00    0.0000E+00    9.047900E+08  0.02000  2.428E-04    0   0.6179   age135_m62            0.0000     4.6439E-01    17.5466   1.8019   116.9342
 46      0.0000     0.0000E+00    0.0000E+00    1.434000E+09  0.02000  1.263E-04    0   0.5908   age139_m62            0.0000     4.3066E-01    13.7501   1.1583   118.2011
 47      0.0000     0.0000E+00    0.0000E+00    2.500000E+09  0.02000  5.985E-05    0   0.5673   age150_m62            0.0000     4.0771E-01    14.4928   0.4440   121.2077
 48      0.0000     0.0000E+00    0.0000E+00    4.250000E+09  0.02000  3.271E-05    0   0.5468   age158_m62            0.0000     3.9353E-01    22.6124  -0.2616   125.0787
 49      0.0000     0.0000E+00    0.0000E+00    1.000000E+10  0.02000  1.360E-05    0   0.5167   age181_m62            0.0000     3.9638E-01    30.1597  -1.0000   129.5189
 50      0.0000     0.0000E+00    0.0000E+00    1.800000E+10  0.02000  7.124E-06    0   0.5013   age213_m62            0.0000     4.2498E-01    25.5549  -1.0000   126.8284
 51      0.0000     0.0000E+00    0.0000E+00    1.000000E+06  0.05000  2.592E-02    0   0.9998   age020_m72            0.0000     6.5165E-01    15.8587   4.0000   105.7552
 52      0.0000     0.0000E+00    0.0000E+00    3.160000E+06  0.05000  4.845E-02    0   0.9577   age045_m72            0.0000     6.2130E-01    16.7144   4.0000   106.1263
 53      0.0000     0.0000E+00    0.0000E+00    5.010000E+06  0.05000  3.072E-02    0   0.9147   age055_m72            0.0000     5.8005E-01    29.7082   4.0000   105.5827
 54      0.0000     0.0000E+00    0.0000E+00    6.610000E+06  0.05000  1.455E-02    0   0.8877   age061_m72            0.0000     5.7203E-01    62.8192   4.0000   104.5675
 55      0.0000     0.0000E+00    0.0000E+00    1.000000E+07  0.05000  9.074E-03    0   0.8524   age070_m72            0.0000     6.0741E-01    23.6402   4.0000   106.5245
 56      0.0000     0.0000E+00    0.0000E+00    2.512000E+07  0.05000  4.250E-03    0   0.7902   age090_m72            0.0000     5.8257E-01    32.8379   4.0000   104.9845
 57      0.0000     0.0000E+00    0.0000E+00    4.000000E+07  0.05000  3.087E-03    0   0.7618   age104_m72            0.0000     5.7238E-01    41.4966   4.0000   104.2401
 58      0.0000     0.0000E+00    0.0000E+00    1.015200E+08  0.05000  1.700E-03    0   0.7096   age116_m72            0.0000     5.6595E-01    51.9380   4.0000   104.0326
 59      0.0000     0.0000E+00    0.0000E+00    2.861200E+08  0.05000  7.384E-04    0   0.6633   age125_m72            0.0000     5.6657E-01    41.6619   3.2993   109.0879
 60      0.0000     0.0000E+00    0.0000E+00    5.088000E+08  0.05000  3.819E-04    0   0.6372   age130_m72            0.0000     5.0734E-01    21.3917   2.2802   116.1027
 61      0.0000     0.0000E+00    0.0000E+00    9.047900E+08  0.05000  1.676E-04    0   0.6110   age135_m72            0.0000     4.3739E-01    13.3005   1.0126   121.7828
 62      0.0000     0.0000E+00    0.0000E+00    1.434000E+09  0.05000  8.837E-05    0   0.5874   age139_m72            0.0000     4.1376E-01    16.5113   0.3444   123.7892
 63      0.0000     0.0000E+00    0.0000E+00    2.500000E+09  0.05000  4.233E-05    0   0.5598   age150_m72            0.0000     3.9737E-01    26.3324  -0.4396   128.2261
 64      0.0000     0.0000E+00    0.0000E+00    6.250000E+09  0.05000  1.435E-05    0   0.5249   age166_m72            0.0000     4.0820E-01    28.1321  -1.0000   128.1563
 65      0.0000     0.0000E+00    0.0000E+00    1.300000E+10  0.05000  6.513E-06    0   0.5036   age193_m72            0.0000     4.5870E-01    21.9397  -1.0000   127.0360
 66      0.0000     0.0000E+00    0.0000E+00    1.800000E+10  0.05000  4.527E-06    0   0.4945   age213_m72            0.0000     5.1326E-01    18.5437  -1.0000   125.2273


## Synthesis Results - Average & Chains ##

# j      x_j: min, <> & last-chain-values for 1 ...  7 chains
  1      0.0000      0.4383      0.0000      0.0000      0.0000      2.1526      0.0000      0.0000      0.0000
  2      0.0000      0.1649      0.0000      0.0000      0.0000      0.8432      0.0000      0.0000      0.0000
  3      0.0000      0.0982      0.0000      0.0000      0.0000      0.0000      0.0000      0.0000      0.0000
  4      0.0000      0.2719      0.0000      0.0000      0.0000      0.0000      0.0000      0.0000      0.0000
  5      0.0000      0.1122      0.0000      0.0000      2.1632      0.0000      0.0000      0.0000      0.0000
  6      0.0000      0.1787      0.0000      0.0000      0.0000      0.0000      0.0000      0.0000      0.0000
  7      0.0000      0.1799      0.0000      0.0000      0.0000      0.0000      0.0000      0.0000      0.0000
  8      0.0000      0.2688      0.0000      0.7364      0.0000      0.0000      1.1807      0.0000      0.0000
  9      0.0000      0.1350      0.0000      0.0000      0.0000      0.0000      0.0000      0.0000      0.0000
 10      0.0000      0.2104      0.0000      0.0000      0.0000      0.0000      0.0000      0.0000      0.4698
 11      0.0000      0.0881      0.0000      0.0000      0.0000      0.0000      0.0000      0.0000      0.0000
 12      0.0000      0.0855      0.0000      0.0000      0.0000      0.0000      0.0000      0.0000      0.0000
 13      0.0000      0.1298      0.0000      0.0000      0.0000      0.0000      0.0000      0.0000      0.0000
 14      0.0000      1.8881      0.0000      0.0000      0.0000      0.0000      0.0000      0.0000      0.0000
 15      0.0000      6.5428      0.0000      0.0000      0.0000      0.0000      0.5726      0.0000      0.0000
 16     15.9505     20.4431     25.7709     19.5203     22.5615     35.8046     37.8042     27.9787     21.7239
 17      0.0000     14.5407     20.5666     19.9834     24.4264      5.2604     23.8658     31.8530     33.7929
 18      0.0000      0.3952      0.0000      0.0000      1.1309      0.0000      0.0000      0.0000      0.0000
 19      0.0000      0.3177      0.0000      0.0000      0.0000      0.0000      0.0000      0.0000      0.0000
 20      0.0000      0.0987      0.0000      0.0000      0.0000      0.0000      0.0000      0.0000      0.0000
 21      0.0000      0.1934      0.0000      0.0000      1.9477      0.0000      0.0000      0.0000      0.0000
 22      0.0000      0.1544      0.0000      0.0000      3.0233      0.6999      0.0000      0.0000      0.0000
 23      0.0000      0.1970      0.0000      0.0000      0.0000      0.0000      0.0000      1.0034      0.0000
 24      0.0000      0.2250      0.0000      0.0000      0.0000      0.0000      0.0000      0.0000      0.0000
 25      0.0000      0.1088      1.1928      0.0000      0.0000      0.0000      0.0000      0.0000      0.0000
 26      0.0000      0.1844      0.0000      0.0000      0.0000      0.0000      0.0000      0.0000      0.0000
 27      0.0000      0.2375      0.0000      0.0000      0.0000      0.0000      0.0000      0.0000      0.0000
 28      0.0000      0.2212      0.0000      0.0000      0.0000      0.0000      0.0000      0.0000      0.0000
 29      0.0000      0.2712      0.0000      0.0000      0.0000      0.0000      0.0000      0.0000      0.0000
 30      0.0000      0.7838      0.0027      1.6539      0.0000      0.0000      0.0000      0.0000      0.0000
 31      0.0000      1.8014      0.0000      2.6655      0.0000      0.0000      0.0000      0.0000      1.6633
 32      0.0000     12.0985      4.5994     12.8484      7.9694     34.9618      8.8877      8.0775      0.0000
 33      0.0000     12.6356      8.1186     34.6956      0.0000     14.3498     18.4906     27.0203     20.6578
 34     99.3162     11.2764     20.4535     12.3652     43.3896      7.5078      0.0000      0.0000      7.2970
 35      6.3958      0.2606      0.0583      1.0560      0.0000      0.0000      0.0000      0.0000      0.0000
 36      0.0000      0.2945      0.0000      0.0000      0.0000      2.1254      0.0000      0.0000      1.6402
 37      0.0000      0.0718      0.5134      0.0000      0.2268      0.0000      0.0000      0.0000      0.0000
 38      0.0000      0.0997      0.0000      0.0000      0.0000      0.0000      0.0000      0.0000      0.0000
 39      0.0000      0.2449      0.0000      0.0000      0.0000      0.0000      0.0000      0.0000      0.0000
 40      0.0000      0.1768      0.0000      0.0000      0.0000      0.0000      0.0000      0.0000      0.0000
 41      0.0000      0.1485      0.0000      0.0000      0.4240      0.0000      0.0000      0.0000      0.0000
 42      0.0000      0.0794      0.0000      0.0000      0.0000      0.0000      0.0000      0.0000      0.0000
 43      0.0000      0.0699      0.0000      0.0000      0.0000      0.0000      0.0000      0.0000      0.0000
 44      0.0000      0.2053      0.0000      0.0000      0.0000      0.0000      0.0000      0.0000      0.0000
 45      0.0000      0.2122      0.0000      0.7248      0.0000      0.3082      0.0000      0.0000      0.0000
 46      0.0000      0.5851      0.0000      0.0000      0.0000      0.0000      0.0000      0.0000      0.0000
