###################################################################
## OUTPUT of StarlightChains_v04.for    [Cid@UFSC - 01/Apr/2007] ##
###################################################################

## Some input info
1971K.txt                                [arq_obs]
Base.CB07.vall.4m                        [arq_base]
Masks.EmLines.NEW.gm                     [arq_masks]
StCv04.C11.config                        [arq_config]
   66                                    [N_base]
    0                                    [N_YAV_components = # of components with extra extinction!]
    0                                    [i_FitPowerLaw (1/0 = Yes/No)]
-9.99                                    [alpha_PowerLaw]
CCM                                      [red_law_option]
 1.458241                                [q_norm = A(l_norm)/A(V)]

## (Re)Sampling Parameters
 3741.00                                 [l_ini (A)]
 7218.00                                 [l_fin (A)]
    1.00                                 [dl    (A)]     (OBS: dl_cushion =    50.00 A)

## Normalization info
 4020.00                                 [l_norm (A) - for base]
 4010.00                                 [llow_norm (A) - window for f_obs]
 4060.00                                 [lupp_norm (A) - window for f_obs]
2.477132E-17                             [fobs_norm (in input units)]

## S/N
 3691.00                                 [llow_SN (A) - window for S/N]
 7268.00                                 [lupp_SN (A) - window for S/N]
   2.722                                 [S/N in S/N window]
   2.421                                 [S/N in norm. window]
  10.000                                 [S/N_err in S/N window]
   8.894                                 [S/N_err in norm. window]
  1.0000                                 [fscale_chi2]

## etc...
    -2007207                             [idum_orig]
  2353                                   [NOl_eff]
   187                                   [Nl_eff]
  2166    NSIGMA                         [Ntot_cliped & clip_method]
   981750                                [Nglobal_steps]
   7                                     [N_chains]
  27                                     [NEX0s_base = N_base in EX0s-fits]
 0   0   1        5   2.0   2.638E+02    [Clip-Bug, RC-Crash & Burn-In warning-flags, n_censored_weights, wei_nsig_threshold & wei_limit]
    12     12.171     11.633      0.538  [idt_all, wdt_TotTime, wdt_UsrTime & wdt_SysTime (sec)]

## Synthesis Results - Best model ##

 2.52518E+00                             [chi2/Nl_eff]
    13.27500                             [adev (%)]

    75.79930                             [sum-of-x (%)]
 4.90138E-18                             [Flux_tot (units of input spectrum!)]
 1.31991E-13                             [Mini_tot (???)]
 6.94990E-14                             [Mcor_tot (???)]

  50.12                                  [v0_min  (km/s)]
 150.00                                  [vd_min  (km/s)]
-1.0000                                  [AV_min  (mag)]
 0.0000                                  [YAV_min (mag)]

# j     x_j(%)      Mini_j(%)     Mcor_j(%)     age_j(yr)     Z_j      (L/M)_j    YAV?  Mstars   component_j        a/Fe...       SSP_chi2r SSP_adev(%)   SSP_AV   SSP_x(%)
  1      0.0000     0.0000E+00    0.0000E+00    1.000000E+06  0.00400  1.094E-02    0   1.0000   age020_m42            0.0000     4.2139E+00    16.0907   2.3651    63.0595
  2      0.0000     0.0000E+00    0.0000E+00    3.160000E+06  0.00400  4.007E-02    0   0.9999   age045_m42            0.0000     3.5487E+00    15.0218   1.6173    67.6241
  3      0.0000     0.0000E+00    0.0000E+00    5.010000E+06  0.00400  2.539E-02    0   0.9488   age055_m42            0.0000     3.8754E+00    15.5662   1.9490    65.7820
  4      0.0000     0.0000E+00    0.0000E+00    6.610000E+06  0.00400  2.620E-02    0   0.9220   age061_m42            0.0000     3.5612E+00    15.0568   1.5434    67.7205
  5      0.0000     0.0000E+00    0.0000E+00    1.000000E+07  0.00400  1.322E-02    0   0.8862   age070_m42            0.0000     3.8323E+00    15.6673   1.2565    68.6953
  6      0.0000     0.0000E+00    0.0000E+00    1.445000E+07  0.00400  7.883E-03    0   0.8571   age078_m42            0.0000     4.0456E+00    15.9728   1.5936    66.7795
  7      0.0000     0.0000E+00    0.0000E+00    2.512000E+07  0.00400  5.251E-03    0   0.8174   age090_m42            0.0000     3.8719E+00    15.7570   1.1278    68.9073
  8      0.0000     0.0000E+00    0.0000E+00    4.000000E+07  0.00400  3.649E-03    0   0.7851   age104_m42            0.0000     3.7199E+00    15.4993   0.8980    69.6091
  9      0.0000     0.0000E+00    0.0000E+00    5.500000E+07  0.00400  3.098E-03    0   0.7629   age110_m42            0.0000     3.5042E+00    15.0482   1.0496    69.8863
 10      0.0000     0.0000E+00    0.0000E+00    1.015200E+08  0.00400  2.228E-03    0   0.7207   age116_m42            0.0000     3.3494E+00    14.7451   1.0682    70.2020
 11      0.0000     0.0000E+00    0.0000E+00    2.861200E+08  0.00400  1.093E-03    0   0.6648   age125_m42            0.0000     3.3166E+00    14.7579   0.4796    72.4262
 12      0.0000     0.0000E+00    0.0000E+00    5.088000E+08  0.00400  6.597E-04    0   0.6365   age130_m42            0.0000     3.0815E+00    14.3743   0.4694    73.4181
 13      0.0000     0.0000E+00    0.0000E+00    1.434000E+09  0.00400  2.132E-04    0   0.5798   age139_m42            0.0000     2.7307E+00    13.6688  -0.4908    74.9120
 14      0.0000     0.0000E+00    0.0000E+00    4.250000E+09  0.00400  5.895E-05    0   0.5377   age158_m42            0.0000     2.6946E+00    13.5505  -0.9163    72.2401
 15      0.0000     0.0000E+00    0.0000E+00    7.500000E+09  0.00400  3.510E-05    0   0.5212   age171_m42            0.0000     2.6915E+00    13.5053  -1.0000    69.6715
 16      4.3939     1.0736E+01    1.0264E+01    1.300000E+10  0.00400  2.005E-05    0   0.5034   age193_m42            0.0000     3.0128E+00    14.1573  -1.0000    65.7195
 17      0.0000     0.0000E+00    0.0000E+00    1.800000E+10  0.00400  1.525E-05    0   0.4967   age213_m42            0.0000     3.1045E+00    14.3733  -1.0000    64.7832
 18      0.0000     0.0000E+00    0.0000E+00    1.000000E+06  0.00800  1.238E-02    0   1.0000   age020_m52            0.0000     4.2084E+00    16.0828   2.3615    63.1831
 19      0.0000     0.0000E+00    0.0000E+00    3.160000E+06  0.00800  3.074E-02    0   0.9966   age045_m52            0.0000     4.1808E+00    16.0114   2.2875    63.6577
 20      0.0000     0.0000E+00    0.0000E+00    5.010000E+06  0.00800  2.668E-02    0   0.9443   age055_m52            0.0000     3.9881E+00    15.7270   2.0363    65.0723
 21      0.0000     0.0000E+00    0.0000E+00    6.610000E+06  0.00800  2.136E-02    0   0.9177   age061_m52            0.0000     3.7203E+00    15.4131   0.7605    69.6873
 22      0.0000     0.0000E+00    0.0000E+00    1.000000E+07  0.00800  1.215E-02    0   0.8827   age070_m52            0.0000     4.0543E+00    16.0505   1.4389    68.2244
 23      0.0000     0.0000E+00    0.0000E+00    1.445000E+07  0.00800  8.717E-03    0   0.8552   age078_m52            0.0000     3.9676E+00    15.8564   1.5589    67.6636
 24      0.0000     0.0000E+00    0.0000E+00    2.512000E+07  0.00800  5.592E-03    0   0.8162   age090_m52            0.0000     3.8479E+00    15.7128   1.1944    69.5165
 25      0.0000     0.0000E+00    0.0000E+00    4.000000E+07  0.00800  3.896E-03    0   0.7841   age104_m52            0.0000     3.6875E+00    15.4274   1.1026    70.1928
 26      0.0000     0.0000E+00    0.0000E+00    1.015200E+08  0.00800  2.148E-03    0   0.7226   age116_m52            0.0000     3.4477E+00    14.9477   1.0346    70.5693
 27      0.0000     0.0000E+00    0.0000E+00    2.861200E+08  0.00800  9.925E-04    0   0.6683   age125_m52            0.0000     3.0769E+00    14.3989   0.5375    73.8812
 28     17.5466     2.7367E+00    3.1903E+00    9.047900E+08  0.00800  3.141E-04    0   0.6138   age135_m52            0.0000     2.7111E+00    13.6438  -0.2482    76.7949
 29      0.0000     0.0000E+00    0.0000E+00    1.434000E+09  0.00800  1.719E-04    0   0.5853   age139_m52            0.0000     2.6906E+00    13.6597  -0.8247    75.4605
 30      0.0000     0.0000E+00    0.0000E+00    2.500000E+09  0.00800  7.872E-05    0   0.5600   age150_m52            0.0000     2.6317E+00    13.4728  -1.0000    71.9164
 31      0.0000     0.0000E+00    0.0000E+00    4.250000E+09  0.00800  4.336E-05    0   0.5426   age158_m52            0.0000     2.6494E+00    13.4956  -1.0000    70.9596
 32      0.0000     0.0000E+00    0.0000E+00    6.250000E+09  0.00800  3.159E-05    0   0.5319   age166_m52            0.0000     3.0453E+00    14.2183  -1.0000    66.4430
 33      0.0000     0.0000E+00    0.0000E+00    1.300000E+10  0.00800  1.361E-05    0   0.5073   age193_m52            0.0000     5.6436E+00    19.4181  -1.0000    55.0024
 34      7.9790     3.9540E+01    3.7472E+01    1.800000E+10  0.00800  9.886E-06    0   0.4990   age213_m52            0.0000     6.4941E+00    20.8503  -1.0000    52.3895
 35      0.0000     0.0000E+00    0.0000E+00    1.000000E+06  0.02000  1.544E-02    0   1.0000   age020_m62            0.0000     4.2254E+00    16.1023   2.3583    63.3216
 36      0.0000     0.0000E+00    0.0000E+00    3.160000E+06  0.02000  3.762E-02    0   0.9858   age045_m62            0.0000     4.2244E+00    16.0533   2.3008    63.7830
 37      0.0000     0.0000E+00    0.0000E+00    5.010000E+06  0.02000  3.296E-02    0   0.9342   age055_m62            0.0000     3.7025E+00    15.2592   1.9070    66.6884
 38      0.0000     0.0000E+00    0.0000E+00    8.710000E+06  0.02000  1.154E-02    0   0.8861   age067_m62            0.0000     5.0595E+00    17.6293   0.8938    68.7964
 39      0.0000     0.0000E+00    0.0000E+00    1.445000E+07  0.02000  7.663E-03    0   0.8472   age078_m62            0.0000     4.2805E+00    16.4167   1.0834    69.3652
 40      0.0000     0.0000E+00    0.0000E+00    2.512000E+07  0.02000  4.532E-03    0   0.8099   age090_m62            0.0000     4.3314E+00    16.5306   1.0724    69.1273
 41      0.0000     0.0000E+00    0.0000E+00    5.500000E+07  0.02000  2.733E-03    0   0.7595   age110_m62            0.0000     3.7199E+00    15.4633   1.0874    69.7618
 42      0.0000     0.0000E+00    0.0000E+00    1.609000E+08  0.02000  1.369E-03    0   0.6985   age120_m62            0.0000     3.2694E+00    14.7012   0.9104    72.3602
 43      0.0000     0.0000E+00    0.0000E+00    2.861200E+08  0.02000  9.013E-04    0   0.6714   age125_m62            0.0000     3.0445E+00    14.3325   0.6563    74.6842
 44     15.5378     1.5139E+00    1.8542E+00    5.088000E+08  0.02000  5.028E-04    0   0.6449   age130_m62            0.0000     2.7798E+00    13.7051   0.2880    76.7220
 45      0.0000     0.0000E+00    0.0000E+00    9.047900E+08  0.02000  2.428E-04    0   0.6179   age135_m62            0.0000     2.6497E+00    13.5392  -0.2834    76.0799
 46      0.0000     0.0000E+00    0.0000E+00    1.434000E+09  0.02000  1.263E-04    0   0.5908   age139_m62            0.0000     2.6647E+00    13.6486  -0.7144    74.8318
 47      0.0000     0.0000E+00    0.0000E+00    2.500000E+09  0.02000  5.985E-05    0   0.5673   age150_m62            0.0000     2.6491E+00    13.5569  -1.0000    72.4491
 48     30.3370     4.5436E+01    4.7184E+01    4.250000E+09  0.02000  3.271E-05    0   0.5468   age158_m62            0.0000     3.3980E+00    14.8905  -1.0000    65.0052
 49      0.0000     0.0000E+00    0.0000E+00    1.000000E+10  0.02000  1.360E-05    0   0.5167   age181_m62            0.0000     5.4495E+00    18.8813  -1.0000    56.4556
 50      0.0000     0.0000E+00    0.0000E+00    1.800000E+10  0.02000  7.124E-06    0   0.5013   age213_m62            0.0000     7.1521E+00    21.6530  -1.0000    51.2016
 51      0.0000     0.0000E+00    0.0000E+00    1.000000E+06  0.05000  2.592E-02    0   0.9998   age020_m72            0.0000     4.3155E+00    16.2563   2.3533    63.2333
 52      0.0000     0.0000E+00    0.0000E+00    3.160000E+06  0.05000  4.845E-02    0   0.9577   age045_m72            0.0000     4.0396E+00    15.7757   2.1811    64.6708
 53      0.0000     0.0000E+00    0.0000E+00    5.010000E+06  0.05000  3.072E-02    0   0.9147   age055_m72            0.0000     4.3557E+00    16.4204   1.6712    67.0053
 54      0.0000     0.0000E+00    0.0000E+00    6.610000E+06  0.05000  1.455E-02    0   0.8877   age061_m72            0.0000     6.1428E+00    19.2888   0.8966    69.2252
 55      0.0000     0.0000E+00    0.0000E+00    1.000000E+07  0.05000  9.074E-03    0   0.8524   age070_m72            0.0000     4.6376E+00    16.9607   1.8239    67.0481
 56      0.0000     0.0000E+00    0.0000E+00    2.512000E+07  0.05000  4.250E-03    0   0.7902   age090_m72            0.0000     4.2275E+00    16.2952   1.5343    68.2425
 57      0.0000     0.0000E+00    0.0000E+00    4.000000E+07  0.05000  3.087E-03    0   0.7618   age104_m72            0.0000     4.1170E+00    16.1200   1.3008    69.3966
 58      0.0000     0.0000E+00    0.0000E+00    1.015200E+08  0.05000  1.700E-03    0   0.7096   age116_m72            0.0000     3.4458E+00    15.0141   1.0496    71.8122
 59      0.0000     0.0000E+00    0.0000E+00    2.861200E+08  0.05000  7.384E-04    0   0.6633   age125_m72            0.0000     2.9160E+00    14.0993   0.5384    75.3497
 60      0.0000     0.0000E+00    0.0000E+00    5.088000E+08  0.05000  3.819E-04    0   0.6372   age130_m72            0.0000     2.6943E+00    13.6020   0.0653    76.5034
 61      0.0000     0.0000E+00    0.0000E+00    9.047900E+08  0.05000  1.676E-04    0   0.6110   age135_m72            0.0000     2.6463E+00    13.5765  -0.6068    75.2086
 62      0.0000     0.0000E+00    0.0000E+00    1.434000E+09  0.05000  8.837E-05    0   0.5874   age139_m72            0.0000     2.6929E+00    13.6812  -1.0000    73.3995
 63      0.0000     0.0000E+00    0.0000E+00    2.500000E+09  0.05000  4.233E-05    0   0.5598   age150_m72            0.0000     3.4141E+00    14.9608  -1.0000    65.5353
 64      0.0000     0.0000E+00    0.0000E+00    6.250000E+09  0.05000  1.435E-05    0   0.5249   age166_m72            0.0000     6.1263E+00    20.0961  -1.0000    53.9794
 65      0.0050     3.7263E-02    3.5639E-02    1.300000E+10  0.05000  6.513E-06    0   0.5036   age193_m72            0.0000     8.6139E+00    23.9648  -1.0000    48.1091
 66      0.0000     0.0000E+00    0.0000E+00    1.800000E+10  0.05000  4.527E-06    0   0.4945   age213_m72            0.0000     1.0177E+01    26.2956  -1.0000    44.5049


## Synthesis Results - Average & Chains ##

# j      x_j: min, <> & last-chain-values for 1 ...  7 chains
  1      0.0000      0.2519      0.1045      0.0000      0.4328      0.0155      0.0000      0.0000      0.0000
  2      0.0000      0.2237      0.0000      0.0000      0.0000      0.1114      0.0000      0.2813      0.0000
  3      0.0000      0.1936      0.0000      1.3410      0.0176      0.2160      0.0000      0.0000      0.0000
  4      0.0000      0.4254      0.3660      0.0280      0.0000      0.4074      0.0616      0.3784      0.0000
  5      0.0000      0.2544      0.0000      1.7324      0.0000      0.0000      0.0000      0.0000      0.0000
  6      0.0000      0.2250      0.0000      0.0400      0.0000      0.0568      0.7362      0.0000      0.0000
  7      0.0000      0.2036      0.0000      0.0000      0.0000      0.0000      0.0000      0.7870      0.0000
  8      0.0000      0.2791      0.3401      0.0000      0.0000      0.0000      0.0000      0.0000      0.0538
  9      0.0000      0.3889      0.0000      1.1925      0.4623      0.0000      0.0000      1.0949      0.0000
 10      0.0000      0.3169      0.0000      0.0000      0.0484      0.0000      0.2847      0.0000      0.5357
 11      0.0000      0.5927      2.6221      0.0000      0.0000      0.0000      0.0000      0.1221      0.0000
 12      0.0000      0.9679      0.5268      0.0366      0.7689      0.2747      1.5196      0.0000      1.8701
 13      0.0000      1.6161      2.1337      5.4902      2.8544      2.3547      1.2797      0.8018      6.5371
 14      0.0000      1.5877      2.2867      1.1519      5.7663      0.7786      1.4346      2.1124      3.9751
 15      0.0000      2.2814      0.6344      3.0731      5.6739      0.0000      3.6506     18.5867      3.2411
 16      4.3939      2.0516      0.5429      1.7635      0.4388      0.0000      3.8836      3.6468      2.6488
 17      0.0000      1.6892      4.5656      5.4349      0.0000      0.0000      1.1015      0.3023      1.9984
 18      0.0000      0.1901      0.0000      0.0000      0.0000      0.0000      0.0000      0.0000      0.8356
 19      0.0000      0.1274      0.0632      0.2174      0.0000      0.0000      0.0000      0.0000      0.0000
 20      0.0000      0.1234      0.0000      0.0000      0.0000      0.0000      0.0000      0.0000      0.8398
 21      0.0000      0.4010      0.2086      0.0000      0.1040      0.0067      0.0000      0.0000      0.0000
 22      0.0000      0.3319      0.4198      0.0000      0.0000      0.1049      0.0000      0.0000      0.0000
 23      0.0000      0.1050      0.0000      0.0000      0.0000      0.0000      0.1673      0.0000      0.0000
 24      0.0000      0.3608      0.0000      0.0000      0.0000      0.0000      0.5633      0.4969      0.0000
 25      0.0000      0.4999      0.0000      1.9814      0.0000      0.1237      0.4198      0.0624      0.0000
 26      0.0000      0.2395      0.0000      0.3561      0.3345      0.0000      0.0382      0.0000      0.3389
 27      0.0000      0.6894      1.5926      0.0000      0.0000      1.4999      0.4132      4.5982      0.7444
 28     17.5466      1.1548      5.3278      2.6117      0.7455      8.5051      1.1668      2.4435      0.6476
 29      0.0000      1.1458      1.5197      0.0000      2.3457      1.2424      0.8682      0.8975      3.3859
 30      0.0000      1.7592      3.9706      0.6181      3.3147      1.8290      2.9232      3.0251      0.0661
 31      0.0000      2.3997      1.7606      0.0000      0.0000      2.2859      5.0979      1.8415      4.5137
 32      0.0000      1.6499      1.5336      3.5297      1.9752      0.4104      3.3937      0.0594      2.0669
 33      0.0000      1.8818      2.0835      2.3647      2.7619      5.3275      2.6921      1.2813      0.0000
 34      7.9790      1.9147      0.0000      7.0204      1.3619      1.6599      1.9120      1.0088      2.6106
 35      0.0000      0.1468      0.0000      0.0000      0.0000      0.0510      0.2648      0.0773      0.0000
 36      0.0000      0.2317      0.0000      0.0000      0.0000      0.0768      0.0000      0.0000      0.0000
 37      0.0000      0.2109      0.0000      0.4317      0.0000      0.2047      0.3496      0.0000      0.0000
 38      0.0000      0.1851      0.0000      0.0000      0.0000      0.4409      0.0000      0.0000      0.0000
 39      0.0000      0.2896      0.0000      0.0000      0.0000      0.0000      0.4827      0.0000      0.0000
 40      0.0000      0.2079      0.0000      0.0000      0.0000      0.0000      0.0000      0.0000      1.4109
 41      0.0000      0.3541      0.0000      0.0000      0.0000      1.8987      0.0000      0.0000      0.1510
 42      0.0000      0.4620      0.0000      0.0000      0.0000      0.0000      1.0563      0.0000      0.0000
 43      0.0000      0.9048      0.0879      0.0000      0.6684      2.6835      1.3998      0.0000      0.0000
 44     15.5378      0.6630      0.9570      0.0000      0.6388      0.0000      0.1311      1.1921      2.0355
 45      0.0000      1.4879      6.4757      0.0000      6.6043     11.4982      1.0343      1.3069      4.9972
 46      0.0000      1.0865      1.3696      0.0000      2.0463      1.2906      1.5098      2.8139      0.0845
