###################################################################
## OUTPUT of StarlightChains_v04.for    [Cid@UFSC - 01/Apr/2007] ##
###################################################################

## Some input info
1971P.txt                                [arq_obs]
Base.CB07.vall.4m                        [arq_base]
Masks.EmLines.NEW.gm                     [arq_masks]
StCv04.C11.config                        [arq_config]
   66                                    [N_base]
    0                                    [N_YAV_components = # of components with extra extinction!]
    0                                    [i_FitPowerLaw (1/0 = Yes/No)]
-9.99                                    [alpha_PowerLaw]
CCM                                      [red_law_option]
 1.458241                                [q_norm = A(l_norm)/A(V)]

## (Re)Sampling Parameters
 3741.00                                 [l_ini (A)]
 7218.00                                 [l_fin (A)]
    1.00                                 [dl    (A)]     (OBS: dl_cushion =    50.00 A)

## Normalization info
 4020.00                                 [l_norm (A) - for base]
 4010.00                                 [llow_norm (A) - window for f_obs]
 4060.00                                 [lupp_norm (A) - window for f_obs]
2.423563E-17                             [fobs_norm (in input units)]

## S/N
 3691.00                                 [llow_SN (A) - window for S/N]
 7268.00                                 [lupp_SN (A) - window for S/N]
   6.370                                 [S/N in S/N window]
   5.844                                 [S/N in norm. window]
  10.000                                 [S/N_err in S/N window]
   9.175                                 [S/N_err in norm. window]
  1.0000                                 [fscale_chi2]

## etc...
    -2007208                             [idum_orig]
  2226                                   [NOl_eff]
  2192                                   [Nl_eff]
    34    NSIGMA                         [Ntot_cliped & clip_method]
  1623370                                [Nglobal_steps]
   7                                     [N_chains]
  28                                     [NEX0s_base = N_base in EX0s-fits]
 0   0   1       84   2.0   1.418E+01    [Clip-Bug, RC-Crash & Burn-In warning-flags, n_censored_weights, wei_nsig_threshold & wei_limit]
    14     13.606     13.066      0.540  [idt_all, wdt_TotTime, wdt_UsrTime & wdt_SysTime (sec)]

## Synthesis Results - Best model ##

 4.72827E-01                             [chi2/Nl_eff]
     5.12544                             [adev (%)]

   102.42840                             [sum-of-x (%)]
 2.63090E-17                             [Flux_tot (units of input spectrum!)]
 1.26534E-12                             [Mini_tot (???)]
 6.48662E-13                             [Mcor_tot (???)]

-115.44                                  [v0_min  (km/s)]
 369.40                                  [vd_min  (km/s)]
 0.0433                                  [AV_min  (mag)]
 0.0000                                  [YAV_min (mag)]

# j     x_j(%)      Mini_j(%)     Mcor_j(%)     age_j(yr)     Z_j      (L/M)_j    YAV?  Mstars   component_j        a/Fe...       SSP_chi2r SSP_adev(%)   SSP_AV   SSP_x(%)
  1      3.8109     7.0711E-03    1.3793E-02    1.000000E+06  0.00400  1.094E-02    0   1.0000   age020_m42            0.0000     1.0629E+00     7.4476   3.4701    85.4279
  2      0.0000     0.0000E+00    0.0000E+00    3.160000E+06  0.00400  4.007E-02    0   0.9999   age045_m42            0.0000     9.2114E-01     6.9720   2.7361    91.6975
  3      0.0000     0.0000E+00    0.0000E+00    5.010000E+06  0.00400  2.539E-02    0   0.9488   age055_m42            0.0000     9.7014E-01     7.1259   3.0623    89.1899
  4      0.0000     0.0000E+00    0.0000E+00    6.610000E+06  0.00400  2.620E-02    0   0.9220   age061_m42            0.0000     9.1622E-01     6.9200   2.6652    91.8345
  5      0.0000     0.0000E+00    0.0000E+00    1.000000E+07  0.00400  1.322E-02    0   0.8862   age070_m42            0.0000     9.2030E-01     6.9899   2.3999    93.2996
  6      0.0000     0.0000E+00    0.0000E+00    1.445000E+07  0.00400  7.883E-03    0   0.8571   age078_m42            0.0000     9.5990E-01     7.0918   2.7288    90.8310
  7      0.0000     0.0000E+00    0.0000E+00    2.512000E+07  0.00400  5.251E-03    0   0.8174   age090_m42            0.0000     9.2924E-01     7.0452   2.2720    93.7642
  8      0.0035     1.9564E-05    2.9962E-05    4.000000E+07  0.00400  3.649E-03    0   0.7851   age104_m42            0.0000     8.8580E-01     6.8958   2.0377    94.8287
  9      0.0000     0.0000E+00    0.0000E+00    5.500000E+07  0.00400  3.098E-03    0   0.7629   age110_m42            0.0000     8.8850E-01     6.8143   2.1847    95.0606
 10      0.0000     0.0000E+00    0.0000E+00    1.015200E+08  0.00400  2.228E-03    0   0.7207   age116_m42            0.0000     9.0775E-01     6.7930   2.2011    95.3753
 11      0.0000     0.0000E+00    0.0000E+00    2.861200E+08  0.00400  1.093E-03    0   0.6648   age125_m42            0.0000     8.8130E-01     6.7766   1.6399    98.2019
 12      0.0011     3.3652E-05    4.1783E-05    5.088000E+08  0.00400  6.597E-04    0   0.6365   age130_m42            0.0000     8.8365E-01     6.5983   1.6165    99.5184
 13     11.8214     1.1255E+00    1.2730E+00    1.434000E+09  0.00400  2.132E-04    0   0.5798   age139_m42            0.0000     6.6614E-01     5.6882   0.6191   102.6204
 14      0.0000     0.0000E+00    0.0000E+00    4.250000E+09  0.00400  5.895E-05    0   0.5377   age158_m42            0.0000     5.8376E-01     5.4868   0.1579    99.4454
 15      0.0000     0.0000E+00    0.0000E+00    7.500000E+09  0.00400  3.510E-05    0   0.5212   age171_m42            0.0000     6.1377E-01     5.5650  -0.0363    99.1086
 16      0.0000     0.0000E+00    0.0000E+00    1.300000E+10  0.00400  2.005E-05    0   0.5034   age193_m42            0.0000     6.6453E-01     5.7393  -0.2061    98.8331
 17      0.0000     0.0000E+00    0.0000E+00    1.800000E+10  0.00400  1.525E-05    0   0.4967   age213_m42            0.0000     6.4883E-01     5.6821  -0.2282    98.3436
 18      3.5351     5.7963E-03    1.1307E-02    1.000000E+06  0.00800  1.238E-02    0   1.0000   age020_m52            0.0000     1.0642E+00     7.4524   3.4656    85.6185
 19      0.7894     5.2129E-04    1.0134E-03    3.160000E+06  0.00800  3.074E-02    0   0.9966   age045_m52            0.0000     1.0503E+00     7.3996   3.3888    86.3743
 20      0.0000     0.0000E+00    0.0000E+00    5.010000E+06  0.00800  2.668E-02    0   0.9443   age055_m52            0.0000     9.8081E-01     7.1540   3.1467    88.3153
 21      0.0000     0.0000E+00    0.0000E+00    6.610000E+06  0.00800  2.136E-02    0   0.9177   age061_m52            0.0000     7.7376E-01     6.5437   1.8855    94.9312
 22      0.0000     0.0000E+00    0.0000E+00    1.000000E+07  0.00800  1.215E-02    0   0.8827   age070_m52            0.0000     9.5256E-01     7.1332   2.5876    92.8519
 23      0.0058     1.3484E-05    2.2495E-05    1.445000E+07  0.00800  8.717E-03    0   0.8552   age078_m52            0.0000     9.3553E-01     7.0099   2.6932    92.1473
 24      0.0000     0.0000E+00    0.0000E+00    2.512000E+07  0.00800  5.592E-03    0   0.8162   age090_m52            0.0000     9.1383E-01     6.9864   2.3378    94.8771
 25      0.0385     2.0075E-04    3.0705E-04    4.000000E+07  0.00800  3.896E-03    0   0.7841   age104_m52            0.0000     8.8360E-01     6.8670   2.2455    95.8288
 26      0.0000     0.0000E+00    0.0000E+00    1.015200E+08  0.00800  2.148E-03    0   0.7226   age116_m52            0.0000     8.6504E-01     6.7282   2.1737    96.0245
 27      0.0000     0.0000E+00    0.0000E+00    2.861200E+08  0.00800  9.925E-04    0   0.6683   age125_m52            0.0000     8.7040E-01     6.5233   1.6814   100.4897
 28      0.0000     0.0000E+00    0.0000E+00    9.047900E+08  0.00800  3.141E-04    0   0.6138   age135_m52            0.0000     7.5538E-01     5.9951   0.8531   106.0950
 29      0.0000     0.0000E+00    0.0000E+00    1.434000E+09  0.00800  1.719E-04    0   0.5853   age139_m52            0.0000     6.1363E-01     5.5629   0.2712   104.0638
 30      0.0000     0.0000E+00    0.0000E+00    2.500000E+09  0.00800  7.872E-05    0   0.5600   age150_m52            0.0000     6.3987E-01     5.6152  -0.0186   102.0731
 31      0.0000     0.0000E+00    0.0000E+00    4.250000E+09  0.00800  4.336E-05    0   0.5426   age158_m52            0.0000     6.5611E-01     5.6803  -0.0367   101.2053
 32      0.0000     0.0000E+00    0.0000E+00    6.250000E+09  0.00800  3.159E-05    0   0.5319   age166_m52            0.0000     7.4720E-01     5.9283  -0.2497   101.6999
 33      0.0252     3.7646E-02    3.7254E-02    1.300000E+10  0.00800  1.361E-05    0   0.5073   age193_m52            0.0000     9.0245E-01     6.3921  -0.7329   101.6942
 34      2.4959     5.1249E+00    4.9886E+00    1.800000E+10  0.00800  9.886E-06    0   0.4990   age213_m52            0.0000     1.0721E+00     6.9659  -0.8486   101.5487
 35      0.0000     0.0000E+00    0.0000E+00    1.000000E+06  0.02000  1.544E-02    0   1.0000   age020_m62            0.0000     1.0715E+00     7.4739   3.4619    85.8034
 36      1.7467     9.4251E-04    1.8124E-03    3.160000E+06  0.02000  3.762E-02    0   0.9858   age045_m62            0.0000     1.0661E+00     7.4460   3.4021    86.5279
 37      0.0097     5.9828E-06    1.0903E-05    5.010000E+06  0.02000  3.296E-02    0   0.9342   age055_m62            0.0000     9.4717E-01     7.0344   3.0185    90.4519
 38     21.1591     3.7219E-02    6.4334E-02    8.710000E+06  0.02000  1.154E-02    0   0.8861   age067_m62            0.0000     1.3210E+00     8.8353   2.0701    94.5112
 39      0.0000     0.0000E+00    0.0000E+00    1.445000E+07  0.02000  7.663E-03    0   0.8472   age078_m62            0.0000     9.7352E-01     7.3913   2.2446    94.7699
 40      0.0000     0.0000E+00    0.0000E+00    2.512000E+07  0.02000  4.532E-03    0   0.8099   age090_m62            0.0000     1.0086E+00     7.5424   2.2418    94.3699
 41      0.0000     0.0000E+00    0.0000E+00    5.500000E+07  0.02000  2.733E-03    0   0.7595   age110_m62            0.0000     8.7766E-01     6.8310   2.2277    95.1362
 42      0.0000     0.0000E+00    0.0000E+00    1.609000E+08  0.02000  1.369E-03    0   0.6985   age120_m62            0.0000     9.0417E-01     6.7368   2.0532    98.3161
 43      0.0000     0.0000E+00    0.0000E+00    2.861200E+08  0.02000  9.013E-04    0   0.6714   age125_m62            0.0000     9.4730E-01     6.6770   1.7895   101.7122
 44      0.0000     0.0000E+00    0.0000E+00    5.088000E+08  0.02000  5.028E-04    0   0.6449   age130_m62            0.0000     9.3515E-01     6.5156   1.3895   105.4294
 45      0.0000     0.0000E+00    0.0000E+00    9.047900E+08  0.02000  2.428E-04    0   0.6179   age135_m62            0.0000     7.3092E-01     5.9131   0.7859   105.6743
 46      0.0000     0.0000E+00    0.0000E+00    1.434000E+09  0.02000  1.263E-04    0   0.5908   age139_m62            0.0000     6.7122E-01     5.6881   0.3320   104.5582
 47      0.0000     0.0000E+00    0.0000E+00    2.500000E+09  0.02000  5.985E-05    0   0.5673   age150_m62            0.0000     7.3745E-01     5.9067  -0.0494   103.7856
 48      8.4064     5.2168E+00    5.5645E+00    4.250000E+09  0.02000  3.271E-05    0   0.5468   age158_m62            0.0000     8.8702E-01     6.4214  -0.3722   103.6855
 49     13.2149     1.9724E+01    1.9881E+01    1.000000E+10  0.02000  1.360E-05    0   0.5167   age181_m62            0.0000     1.2011E+00     7.4281  -0.7342   103.9287
 50     11.0834     3.1581E+01    3.0882E+01    1.800000E+10  0.02000  7.124E-06    0   0.5013   age213_m62            0.0000     1.4923E+00     8.3360  -0.9524   103.4985
 51      0.0000     0.0000E+00    0.0000E+00    1.000000E+06  0.05000  2.592E-02    0   0.9998   age020_m72            0.0000     1.0970E+00     7.5467   3.4546    85.7726
 52      0.0000     0.0000E+00    0.0000E+00    3.160000E+06  0.05000  4.845E-02    0   0.9577   age045_m72            0.0000     1.0214E+00     7.2966   3.2824    87.7804
 53      1.1668     7.7099E-04    1.3757E-03    5.010000E+06  0.05000  3.072E-02    0   0.9147   age055_m72            0.0000     9.8221E-01     7.2599   2.8352    91.0519
 54      3.8312     5.3450E-03    9.2556E-03    6.610000E+06  0.05000  1.455E-02    0   0.8877   age061_m72            0.0000     1.6563E+00    10.3532   2.1701    94.3004
 55      0.0000     0.0000E+00    0.0000E+00    1.000000E+07  0.05000  9.074E-03    0   0.8524   age070_m72            0.0000     1.0373E+00     7.5530   3.0451    90.2990
 56      0.0005     2.1694E-06    3.3440E-06    2.512000E+07  0.05000  4.250E-03    0   0.7902   age090_m72            0.0000     9.8308E-01     7.3257   2.7251    92.4492
 57      0.0000     0.0000E+00    0.0000E+00    4.000000E+07  0.05000  3.087E-03    0   0.7618   age104_m72            0.0000     9.8845E-01     7.4067   2.4967    94.0420
 58      0.0000     0.0000E+00    0.0000E+00    1.015200E+08  0.05000  1.700E-03    0   0.7096   age116_m72            0.0000     9.3528E-01     6.9105   2.2071    97.5444
 59      0.0000     0.0000E+00    0.0000E+00    2.861200E+08  0.05000  7.384E-04    0   0.6633   age125_m72            0.0000     9.4284E-01     6.5494   1.6458   103.6368
 60      0.0000     0.0000E+00    0.0000E+00    5.088000E+08  0.05000  3.819E-04    0   0.6372   age130_m72            0.0000     8.0361E-01     6.0682   1.1258   106.5083
 61      0.0000     0.0000E+00    0.0000E+00    9.047900E+08  0.05000  1.676E-04    0   0.6110   age135_m72            0.0000     7.5578E-01     5.9676   0.4037   105.8032
 62      0.0000     0.0000E+00    0.0000E+00    1.434000E+09  0.05000  8.837E-05    0   0.5874   age139_m72            0.0000     7.8708E-01     6.0027  -0.0537   105.5115
 63      0.0000     0.0000E+00    0.0000E+00    2.500000E+09  0.05000  4.233E-05    0   0.5598   age150_m72            0.0000     9.6520E-01     6.6809  -0.3777   104.8208
 64     13.4930     1.9087E+01    1.9543E+01    6.250000E+09  0.05000  1.435E-05    0   0.5249   age166_m72            0.0000     1.2562E+00     7.6627  -0.8364   103.7336
 65      5.7898     1.8045E+01    1.7727E+01    1.300000E+10  0.05000  6.513E-06    0   0.5036   age193_m72            0.0000     1.6945E+00     8.6344  -1.0000   100.5884
 66      0.0000     0.0000E+00    0.0000E+00    1.800000E+10  0.05000  4.527E-06    0   0.4945   age213_m72            0.0000     2.1690E+00     9.6427  -1.0000    94.6337


## Synthesis Results - Average & Chains ##

# j      x_j: min, <> & last-chain-values for 1 ...  7 chains
  1      3.8109      0.6043      0.0000      0.0000      2.4198      0.0000      2.1260      0.8003      0.0000
  2      0.0000      0.1989      0.0000      0.0000      0.5551      0.0000      0.0000      0.0000      0.0000
  3      0.0000      0.2196      1.4178      0.0000      0.5962      0.0000      0.0000      0.0000      1.4522
  4      0.0000      0.2681      0.0000      0.0000      0.0000      0.0000      0.0000      0.0000      0.0000
  5      0.0000      1.3968      0.0000      0.5898      1.7192      4.5004      3.2708      0.0000      3.4403
  6      0.0000      0.3305      0.0000      0.0000      0.0000      0.0000      0.3033      0.0000      0.0000
  7      0.0000      0.5300      1.0441      0.0000      0.0000      0.0000      0.3651      2.8043      0.0000
  8      0.0035      0.4885      1.2956      0.0000      0.0000      0.4182      0.4371      1.3463      0.0000
  9      0.0000      0.5956      0.1407      0.0000      1.6975      0.0000      0.3179      0.0000      0.0000
 10      0.0000      0.6857      0.1568      0.3151      2.1326      0.0000      0.0000      0.0000      0.0000
 11      0.0000      0.5084      0.0000      0.7026      0.0000      0.0000      0.0000      0.0000      0.0000
 12      0.0011      0.2360      0.0000      0.0000      0.0000      0.0000      0.0000      0.8038      0.1295
 13     11.8214      1.4476      0.0000      0.0000      0.0000      6.0356      4.3959      1.5973      0.0000
 14      0.0000      0.9082      0.0000      0.0000      0.0000      0.0000      0.0000      0.0000      0.0000
 15      0.0000      0.8043      1.2214      0.0000      0.0000      0.4156      0.0000      0.0000      0.0000
 16      0.0000      0.8077      0.6352      0.0000      0.0000      0.7883      0.0000      0.0000      1.3777
 17      0.0000      1.1321      0.0000      0.0000      0.0000      0.0000      0.7079      1.4484      0.0000
 18      3.5351      2.5716      3.4530      3.4202      3.5116      2.5565      4.8441      2.1553      2.3683
 19      0.7894      2.8825      1.3927      5.0338      4.4951      3.1802      0.1665      3.9227      3.4363
 20      0.0000      0.5131      0.0000      0.8702      0.0000      0.0000      0.6174      0.8333      0.4087
 21      0.0000      0.4469      0.0000      0.0000      0.0625      0.8441      0.0000      0.0000      0.4140
 22      0.0000      0.7290      0.8270      0.0000      0.0000      0.0000      0.4059      0.0000      1.5821
 23      0.0058      0.2430      0.0000      0.0000      0.0000      0.1822      0.0000      1.8649      0.0000
 24      0.0000      0.2611      0.0000      1.7381      2.4395      0.0000      0.3840      0.0000      0.0000
 25      0.0385      0.4705      0.2320      0.0000      0.2789      0.0000      0.4840      3.2404      3.4683
 26      0.0000      0.2677      0.3649      1.6011      0.0000      0.0000      0.0000      0.5564      0.0000
 27      0.0000      0.2767      0.0000      0.0000      0.0000      2.0125      1.2981      0.0000      0.0000
 28      0.0000      0.7443      1.3069      0.0000      0.0000      1.3267      1.7064      0.0697      1.9371
 29      0.0000      0.9882      0.0000      0.8026      0.0000      0.0000      0.0000      0.0000      0.0000
 30      0.0000      0.8465      0.0000      0.0000      0.0000      0.0000      0.0000      1.0915      0.0000
 31      0.0000      0.8127      0.0000      0.0000      0.0000      1.6923      0.7336      0.0000      0.0000
 32      0.0000      0.8178      1.3289      0.3688      0.0000      1.1063      0.0000      0.0000      0.0000
 33      0.0252      0.6750      0.0000      0.4501      0.0000      1.1105      0.0000      1.0260      0.1339
 34      2.4959      1.0556      0.9785      0.0000      4.2209      3.2305      0.0000      2.4743      0.8515
 35      0.0000      1.5013      3.3764      4.6030      0.0000      3.4100      1.4992      0.0000      1.9790
 36      1.7467      2.9051      3.0887      3.2342      5.2463      3.4338      3.4664      3.5667      3.0858
 37      0.0097      0.3841      0.0000      1.3080      0.0000      0.0000      0.0282      1.6816      0.0000
 38     21.1591      6.0618      7.4884      6.9116      5.6228      3.5478      7.3252      6.6085      6.6572
 39      0.0000      0.7573      1.7940      0.0000      1.3548      0.0000      0.5624      0.0000      1.0893
 40      0.0000      0.6484      0.0000      1.3168      0.0000      0.0000      0.0000      0.0844      0.0000
 41      0.0000      0.8591      4.0198      0.8269      0.0000      0.0000      0.0000      0.0000      0.0000
 42      0.0000      0.3310      0.1974      0.0000      2.1652      0.0000      0.0000      0.0000      0.0000
 43      0.0000      0.4525      0.2539      0.0000      0.0000      3.4020      0.0000      0.0000      0.5492
 44      0.0000      0.3740      0.4435      0.0000      0.9305      0.0000      0.0000      0.0000      0.0000
 45      0.0000      0.5764      0.0000      0.0000      0.0000      0.0000      0.0000      0.0000      1.4073
 46      0.0000      0.6946      0.0000      0.0000      0.0000      0.0000      0.0000      0.0000      0.0000
