###################################################################
## OUTPUT of StarlightChains_v04.for    [Cid@UFSC - 01/Apr/2007] ##
###################################################################

## Some input info
1981G.txt                                [arq_obs]
Base.CB07.vall.4m                        [arq_base]
Masks.EmLines.NEW.gm                     [arq_masks]
StCv04.C11.config                        [arq_config]
   66                                    [N_base]
    0                                    [N_YAV_components = # of components with extra extinction!]
    0                                    [i_FitPowerLaw (1/0 = Yes/No)]
-9.99                                    [alpha_PowerLaw]
CCM                                      [red_law_option]
 1.458241                                [q_norm = A(l_norm)/A(V)]

## (Re)Sampling Parameters
 3741.00                                 [l_ini (A)]
 7218.00                                 [l_fin (A)]
    1.00                                 [dl    (A)]     (OBS: dl_cushion =    50.00 A)

## Normalization info
 4020.00                                 [l_norm (A) - for base]
 4010.00                                 [llow_norm (A) - window for f_obs]
 4060.00                                 [lupp_norm (A) - window for f_obs]
1.842318E-17                             [fobs_norm (in input units)]

## S/N
 3691.00                                 [llow_SN (A) - window for S/N]
 7268.00                                 [lupp_SN (A) - window for S/N]
   4.035                                 [S/N in S/N window]
   3.005                                 [S/N in norm. window]
  17.557                                 [S/N_err in S/N window]
  13.072                                 [S/N_err in norm. window]
  1.0000                                 [fscale_chi2]

## etc...
    -2007209                             [idum_orig]
  2378                                   [NOl_eff]
  2374                                   [Nl_eff]
     4    NSIGMA                         [Ntot_cliped & clip_method]
  1010380                                [Nglobal_steps]
   7                                     [N_chains]
  16                                     [NEX0s_base = N_base in EX0s-fits]
 0   0   1        1   2.0   1.870E+01    [Clip-Bug, RC-Crash & Burn-In warning-flags, n_censored_weights, wei_nsig_threshold & wei_limit]
    15     14.948     14.402      0.546  [idt_all, wdt_TotTime, wdt_UsrTime & wdt_SysTime (sec)]

## Synthesis Results - Best model ##

 6.98346E-01                             [chi2/Nl_eff]
     4.34422                             [adev (%)]

   100.94090                             [sum-of-x (%)]
 1.59875E-17                             [Flux_tot (units of input spectrum!)]
 1.71340E-12                             [Mini_tot (???)]
 8.60758E-13                             [Mcor_tot (???)]

  10.87                                  [v0_min  (km/s)]
 274.55                                  [vd_min  (km/s)]
-0.1126                                  [AV_min  (mag)]
 0.0000                                  [YAV_min (mag)]

# j     x_j(%)      Mini_j(%)     Mcor_j(%)     age_j(yr)     Z_j      (L/M)_j    YAV?  Mstars   component_j        a/Fe...       SSP_chi2r SSP_adev(%)   SSP_AV   SSP_x(%)
  1      0.0000     0.0000E+00    0.0000E+00    1.000000E+06  0.00400  1.094E-02    0   1.0000   age020_m42            0.0000     2.9726E+00    11.4852   3.9032    91.0606
  2      0.0000     0.0000E+00    0.0000E+00    3.160000E+06  0.00400  4.007E-02    0   0.9999   age045_m42            0.0000     2.8815E+00    10.7736   3.1858    96.9764
  3      0.9851     3.5865E-04    6.7737E-04    5.010000E+06  0.00400  2.539E-02    0   0.9488   age055_m42            0.0000     2.9156E+00    11.1335   3.4989    94.8768
  4      0.0000     0.0000E+00    0.0000E+00    6.610000E+06  0.00400  2.620E-02    0   0.9220   age061_m42            0.0000     2.8979E+00    10.8423   3.1036    97.5808
  5      0.0000     0.0000E+00    0.0000E+00    1.000000E+07  0.00400  1.322E-02    0   0.8862   age070_m42            0.0000     3.3666E+00    12.3202   2.7708   101.9876
  6      0.0000     0.0000E+00    0.0000E+00    1.445000E+07  0.00400  7.883E-03    0   0.8571   age078_m42            0.0000     3.3500E+00    12.3646   3.1025    99.1783
  7      0.0000     0.0000E+00    0.0000E+00    2.512000E+07  0.00400  5.251E-03    0   0.8174   age090_m42            0.0000     3.5082E+00    12.5818   2.6328   102.9380
  8      0.0000     0.0000E+00    0.0000E+00    4.000000E+07  0.00400  3.649E-03    0   0.7851   age104_m42            0.0000     3.3788E+00    12.2314   2.4095   103.6198
  9      0.0000     0.0000E+00    0.0000E+00    5.500000E+07  0.00400  3.098E-03    0   0.7629   age110_m42            0.0000     3.1483E+00    11.4222   2.5876   102.4832
 10      0.0000     0.0000E+00    0.0000E+00    1.015200E+08  0.00400  2.228E-03    0   0.7207   age116_m42            0.0000     3.0005E+00    10.9003   2.6237   101.9578
 11      0.0000     0.0000E+00    0.0000E+00    2.861200E+08  0.00400  1.093E-03    0   0.6648   age125_m42            0.0000     3.2398E+00    11.3817   2.0349   106.0201
 12      0.0000     0.0000E+00    0.0000E+00    5.088000E+08  0.00400  6.597E-04    0   0.6365   age130_m42            0.0000     2.8523E+00    10.4850   2.0481   105.8135
 13      0.0000     0.0000E+00    0.0000E+00    1.434000E+09  0.00400  2.132E-04    0   0.5798   age139_m42            0.0000     2.1026E+00     8.8762   1.0834   107.7074
 14      0.0000     0.0000E+00    0.0000E+00    4.250000E+09  0.00400  5.895E-05    0   0.5377   age158_m42            0.0000     1.4693E+00     7.3474   0.6715   102.3194
 15      0.0000     0.0000E+00    0.0000E+00    7.500000E+09  0.00400  3.510E-05    0   0.5212   age171_m42            0.0000     1.2722E+00     6.7046   0.4965   101.1263
 16     13.7882     6.3569E+00    6.3700E+00    1.300000E+10  0.00400  2.005E-05    0   0.5034   age193_m42            0.0000     1.1292E+00     6.1744   0.3424   100.1604
 17      5.1872     3.1442E+00    3.1088E+00    1.800000E+10  0.00400  1.525E-05    0   0.4967   age213_m42            0.0000     1.1548E+00     6.3003   0.3157    99.8633
 18      0.0000     0.0000E+00    0.0000E+00    1.000000E+06  0.00800  1.238E-02    0   1.0000   age020_m52            0.0000     2.9667E+00    11.4763   3.8995    91.2381
 19      0.0000     0.0000E+00    0.0000E+00    3.160000E+06  0.00800  3.074E-02    0   0.9966   age045_m52            0.0000     2.9338E+00    11.3613   3.8255    91.9349
 20      0.0000     0.0000E+00    0.0000E+00    5.010000E+06  0.00800  2.668E-02    0   0.9443   age055_m52            0.0000     2.9029E+00    11.2228   3.5779    94.1739
 21      0.0000     0.0000E+00    0.0000E+00    6.610000E+06  0.00800  2.136E-02    0   0.9177   age061_m52            0.0000     2.9284E+00    11.7404   2.2706   103.2123
 22      0.0000     0.0000E+00    0.0000E+00    1.000000E+07  0.00800  1.215E-02    0   0.8827   age070_m52            0.0000     3.5794E+00    12.9173   2.9357   102.4255
 23      0.0000     0.0000E+00    0.0000E+00    1.445000E+07  0.00800  8.717E-03    0   0.8552   age078_m52            0.0000     3.3221E+00    12.3035   3.0663   100.6283
 24      0.0000     0.0000E+00    0.0000E+00    2.512000E+07  0.00800  5.592E-03    0   0.8162   age090_m52            0.0000     3.5226E+00    12.6173   2.6932   104.3281
 25      0.0000     0.0000E+00    0.0000E+00    4.000000E+07  0.00800  3.896E-03    0   0.7841   age104_m52            0.0000     3.3970E+00    12.1658   2.6164   104.6373
 26      0.0000     0.0000E+00    0.0000E+00    1.015200E+08  0.00800  2.148E-03    0   0.7226   age116_m52            0.0000     3.0810E+00    11.2179   2.5794   103.3335
 27      0.0000     0.0000E+00    0.0000E+00    2.861200E+08  0.00800  9.925E-04    0   0.6683   age125_m52            0.0000     2.8012E+00    10.4286   2.1108   106.9126
 28      0.0000     0.0000E+00    0.0000E+00    9.047900E+08  0.00800  3.141E-04    0   0.6138   age135_m52            0.0000     2.0786E+00     8.5189   1.3406   110.0800
 29      0.0000     0.0000E+00    0.0000E+00    1.434000E+09  0.00800  1.719E-04    0   0.5853   age139_m52            0.0000     1.7122E+00     7.8277   0.7599   107.9389
 30      0.0000     0.0000E+00    0.0000E+00    2.500000E+09  0.00800  7.872E-05    0   0.5600   age150_m52            0.0000     1.1871E+00     6.3379   0.5248   103.6021
 31      0.0000     0.0000E+00    0.0000E+00    4.250000E+09  0.00800  4.336E-05    0   0.5426   age158_m52            0.0000     1.1826E+00     6.2682   0.5110   102.5622
 32      0.0000     0.0000E+00    0.0000E+00    6.250000E+09  0.00800  3.159E-05    0   0.5319   age166_m52            0.0000     9.9952E-01     5.5092   0.3266   101.8313
 33      0.0033     2.2426E-03    2.2646E-03    1.300000E+10  0.00800  1.361E-05    0   0.5073   age193_m52            0.0000     8.0683E-01     4.7538  -0.1198   100.2969
 34      0.0000     0.0000E+00    0.0000E+00    1.800000E+10  0.00800  9.886E-06    0   0.4990   age213_m52            0.0000     7.5233E-01     4.4852  -0.2064    98.9327
 35      0.0000     0.0000E+00    0.0000E+00    1.000000E+06  0.02000  1.544E-02    0   1.0000   age020_m62            0.0000     2.9700E+00    11.4906   3.8958    91.4387
 36      0.0000     0.0000E+00    0.0000E+00    3.160000E+06  0.02000  3.762E-02    0   0.9858   age045_m62            0.0000     2.9539E+00    11.4358   3.8360    92.1929
 37      0.0000     0.0000E+00    0.0000E+00    5.010000E+06  0.02000  3.296E-02    0   0.9342   age055_m62            0.0000     2.8214E+00    10.7819   3.4642    95.8328
 38      0.0000     0.0000E+00    0.0000E+00    8.710000E+06  0.02000  1.154E-02    0   0.8861   age067_m62            0.0000     5.5595E+00    16.8427   2.2898   110.1016
 39      0.2466     2.9742E-04    5.0157E-04    1.445000E+07  0.02000  7.663E-03    0   0.8472   age078_m62            0.0000     4.0564E+00    14.0010   2.5506   106.3062
 40      0.0000     0.0000E+00    0.0000E+00    2.512000E+07  0.02000  4.532E-03    0   0.8099   age090_m62            0.0000     4.2417E+00    14.2306   2.5388   106.2234
 41      0.0000     0.0000E+00    0.0000E+00    5.500000E+07  0.02000  2.733E-03    0   0.7595   age110_m62            0.0000     3.3129E+00    12.1121   2.5972   103.9771
 42      0.0000     0.0000E+00    0.0000E+00    1.609000E+08  0.02000  1.369E-03    0   0.6985   age120_m62            0.0000     2.9917E+00    10.9463   2.4648   105.5021
 43      0.0000     0.0000E+00    0.0000E+00    2.861200E+08  0.02000  9.013E-04    0   0.6714   age125_m62            0.0000     2.7879E+00    10.4047   2.2263   107.9767
 44      0.3247     5.9703E-03    7.6642E-03    5.088000E+08  0.02000  5.028E-04    0   0.6449   age130_m62            0.0000     2.2903E+00     9.0707   1.8824   109.2611
 45      0.0000     0.0000E+00    0.0000E+00    9.047900E+08  0.02000  2.428E-04    0   0.6179   age135_m62            0.0000     1.6507E+00     7.5441   1.3096   108.1117
 46      0.0000     0.0000E+00    0.0000E+00    1.434000E+09  0.02000  1.263E-04    0   0.5908   age139_m62            0.0000     1.3161E+00     6.6654   0.8706   106.3520
 47      0.0000     0.0000E+00    0.0000E+00    2.500000E+09  0.02000  5.985E-05    0   0.5673   age150_m62            0.0000     1.0096E+00     5.5912   0.5293   103.8402
 48      0.0000     0.0000E+00    0.0000E+00    4.250000E+09  0.02000  3.271E-05    0   0.5468   age158_m62            0.0000     7.9018E-01     4.7166   0.2515   101.8357
 49      3.0828     2.0954E+00    2.1552E+00    1.000000E+10  0.02000  1.360E-05    0   0.5167   age181_m62            0.0000     7.1985E-01     4.3997  -0.0658   100.1765
 50      0.0000     0.0000E+00    0.0000E+00    1.800000E+10  0.02000  7.124E-06    0   0.5013   age213_m62            0.0000     7.6160E-01     4.7576  -0.2483    98.2846
 51      0.0000     0.0000E+00    0.0000E+00    1.000000E+06  0.05000  2.592E-02    0   0.9998   age020_m72            0.0000     3.0002E+00    11.6004   3.8841    91.5928
 52      0.0000     0.0000E+00    0.0000E+00    3.160000E+06  0.05000  4.845E-02    0   0.9577   age045_m72            0.0000     2.8816E+00    11.0930   3.7250    93.1684
 53      0.0000     0.0000E+00    0.0000E+00    5.010000E+06  0.05000  3.072E-02    0   0.9147   age055_m72            0.0000     3.6430E+00    13.1134   3.1752   100.5506
 54      0.0000     0.0000E+00    0.0000E+00    6.610000E+06  0.05000  1.455E-02    0   0.8877   age061_m72            0.0000     8.0643E+00    19.7879   2.3081   112.8353
 55      0.0000     0.0000E+00    0.0000E+00    1.000000E+07  0.05000  9.074E-03    0   0.8524   age070_m72            0.0000     4.1348E+00    13.6036   3.3687   100.0142
 56      0.0000     0.0000E+00    0.0000E+00    2.512000E+07  0.05000  4.250E-03    0   0.7902   age090_m72            0.0000     3.9351E+00    13.2125   3.0587   102.1820
 57      0.0000     0.0000E+00    0.0000E+00    4.000000E+07  0.05000  3.087E-03    0   0.7618   age104_m72            0.0000     4.1038E+00    13.3954   2.8219   104.2910
 58      0.0000     0.0000E+00    0.0000E+00    1.015200E+08  0.05000  1.700E-03    0   0.7096   age116_m72            0.0000     3.3077E+00    11.6049   2.5927   105.7355
 59      0.0000     0.0000E+00    0.0000E+00    2.861200E+08  0.05000  7.384E-04    0   0.6633   age125_m72            0.0000     2.5149E+00     9.7321   2.1116   108.6333
 60      0.0000     0.0000E+00    0.0000E+00    5.088000E+08  0.05000  3.819E-04    0   0.6372   age130_m72            0.0000     1.8322E+00     8.0750   1.6467   109.1569
 61      0.0000     0.0000E+00    0.0000E+00    9.047900E+08  0.05000  1.676E-04    0   0.6110   age135_m72            0.0000     1.1613E+00     6.0917   0.9875   105.6829
 62      0.0000     0.0000E+00    0.0000E+00    1.434000E+09  0.05000  8.837E-05    0   0.5874   age139_m72            0.0000     9.5879E-01     5.4315   0.5318   105.2415
 63     32.2001     7.0318E+00    7.8356E+00    2.500000E+09  0.05000  4.233E-05    0   0.5598   age150_m72            0.0000     7.5390E-01     4.5191   0.2599   102.3296
 64      0.7480     4.8181E-01    5.0342E-01    6.250000E+09  0.05000  1.435E-05    0   0.5249   age166_m72            0.0000     7.2380E-01     4.4892  -0.1531    99.3744
 65     15.6270     2.2179E+01    2.2234E+01    1.300000E+10  0.05000  6.513E-06    0   0.5036   age193_m72            0.0000     8.2132E-01     5.0531  -0.3987    98.9201
 66     28.7479     5.8702E+01    5.7782E+01    1.800000E+10  0.05000  4.527E-06    0   0.4945   age213_m72            0.0000     9.3792E-01     5.5823  -0.5367    97.7953


## Synthesis Results - Average & Chains ##

# j      x_j: min, <> & last-chain-values for 1 ...  7 chains
  1      0.0000      0.1028      0.0000      0.0000      0.3547      0.0000      0.0000      0.0000      0.0586
  2      0.0000      0.0985      0.0000      0.0000      0.0000      0.0000      0.0000      0.4970      0.0000
  3      0.9851      0.0281      0.4416      0.4312      0.0381      0.0000      0.0000      0.0000      0.0000
  4      0.0000      0.0533      0.0000      0.0000      0.0000      0.0540      0.0000      0.0000      0.0000
  5      0.0000      0.1143      0.3287      0.0000      0.1455      0.1880      0.0000      0.0000      0.0000
  6      0.0000      0.0512      0.0000      0.0000      0.0000      0.5244      0.0000      0.0000      0.0000
  7      0.0000      0.0635      0.0000      0.3657      0.4454      0.0000      0.0000      0.0000      0.0000
  8      0.0000      0.0178      0.0000      0.0000      0.0000      0.0000      0.0000      0.0000      0.2159
  9      0.0000      0.1304      0.0000      0.0000      0.0000      0.0000      0.0514      0.0000      0.0388
 10      0.0000      0.0357      0.0469      0.0000      0.3387      0.0000      0.0000      0.0000      0.4099
 11      0.0000      0.0721      0.0000      0.0000      0.0000      0.0000      0.0000      0.0000      0.0000
 12      0.0000      0.0782      0.3926      0.0000      0.0000      0.0000      0.0000      0.0000      0.1119
 13      0.0000      0.1605      0.0448      0.0000      0.2937      0.0000      0.0000      0.0000      0.1339
 14      0.0000      0.1759      0.0000      1.0500      0.0000      0.0575      0.0308      0.0000      0.0000
 15      0.0000      0.4059      0.0000      0.0000      1.1294      0.0000      0.0000      1.5047      0.0000
 16     13.7882      0.8820      0.7016      0.0000      0.0431      0.9734      0.0000      1.1961      2.5037
 17      5.1872      0.6371      0.5651      0.0000      0.0000      0.0000      3.1445      0.0000      0.0000
 18      0.0000      0.0391      0.0000      0.0000      0.0000      0.0000      0.0000      0.0000      0.0000
 19      0.0000      0.0926      0.0000      0.0000      0.0000      0.0000      0.0000      0.4991      0.0000
 20      0.0000      0.0383      0.0000      0.0000      0.0000      0.0000      0.0000      0.0000      0.0000
 21      0.0000      0.0510      0.0000      0.1528      0.0000      0.0000      0.1997      0.0000      0.0000
 22      0.0000      0.0360      0.0000      0.0000      0.0000      0.0000      0.0000      0.0000      0.0383
 23      0.0000      0.0419      0.0000      0.0000      0.0000      0.5152      0.0000      0.0154      0.0000
 24      0.0000      0.0343      0.0000      0.0000      0.0000      0.0000      0.0000      0.0000      0.0000
 25      0.0000      0.0368      0.0000      0.0000      0.0000      0.0000      0.0000      0.0000      0.0000
 26      0.0000      0.0514      0.0000      0.0000      0.0000      0.2906      0.0000      0.0000      0.4145
 27      0.0000      0.1127      0.0000      0.0000      0.0000      0.3408      0.0000      0.0000      0.0000
 28      0.0000      0.0789      0.6308      0.0000      0.0000      0.0000      0.0000      0.0000      0.0000
 29      0.0000      0.2016      0.0000      0.2843      0.0000      0.2003      0.1779      0.0000      0.0000
 30      0.0000      0.2781      0.0000      0.0000      0.0000      0.0000      0.0000      0.0000      0.0000
 31      0.0000      0.2899      0.0000      0.0000      0.0000      0.0000      0.0000      0.0000      0.0000
 32      0.0000      0.5418      0.8770      0.1127      0.0000      0.0000      0.0000      0.0000      0.0000
 33      0.0033      0.4973      0.6823      0.0000      0.0000      0.0000      0.0000      0.0000      0.0000
 34      0.0000      0.7051      0.0000      0.0000      0.2626      0.0000      0.2861      0.0000      0.0000
 35      0.0000      0.0426      0.0000      0.0000      0.0000      0.1999      0.0000      0.0000      0.0000
 36      0.0000      0.0467      0.2390      0.0000      0.0000      0.0000      0.0000      0.1179      0.0000
 37      0.0000      0.1335      0.0000      0.3781      0.1354      0.0000      0.7862      0.0000      0.1174
 38      0.0000      0.0367      0.0616      0.0000      0.0000      0.0000      0.0000      0.0000      0.0000
 39      0.2466      0.0581      0.7344      0.0000      0.0000      0.0000      0.0000      0.0000      0.0000
 40      0.0000      0.0591      0.0000      0.0000      0.7844      0.0000      0.0000      0.0000      0.0000
 41      0.0000      0.0658      0.0000      0.0000      0.4789      0.0000      0.0000      0.2180      0.0000
 42      0.0000      0.0642      0.0000      0.0000      0.0000      0.0000      0.0000      0.0000      0.0000
 43      0.0000      0.0990      0.0000      0.0000      0.0000      0.2934      0.0000      0.0000      0.0000
 44      0.3247      0.1367      0.9344      0.0000      0.0000      0.0000      0.0000      0.4229      0.0000
 45      0.0000      0.1321      0.0000      0.0000      0.0000      0.0000      0.0000      0.0000      0.0000
 46      0.0000      0.2347      0.0000      0.0000      0.0000      0.0000      0.7042      0.0000      0.0000
