###################################################################
## OUTPUT of StarlightChains_v04.for    [Cid@UFSC - 01/Apr/2007] ##
###################################################################

## Some input info
1984L.txt                                [arq_obs]
Base.CB07.vall.4m                        [arq_base]
Masks.EmLines.NEW.gm                     [arq_masks]
StCv04.C11.config                        [arq_config]
   66                                    [N_base]
    0                                    [N_YAV_components = # of components with extra extinction!]
    0                                    [i_FitPowerLaw (1/0 = Yes/No)]
-9.99                                    [alpha_PowerLaw]
CCM                                      [red_law_option]
 1.458241                                [q_norm = A(l_norm)/A(V)]

## (Re)Sampling Parameters
 3741.00                                 [l_ini (A)]
 7218.00                                 [l_fin (A)]
    1.00                                 [dl    (A)]     (OBS: dl_cushion =    50.00 A)

## Normalization info
 4020.00                                 [l_norm (A) - for base]
 4010.00                                 [llow_norm (A) - window for f_obs]
 4060.00                                 [lupp_norm (A) - window for f_obs]
7.795564E-16                             [fobs_norm (in input units)]

## S/N
 3691.00                                 [llow_SN (A) - window for S/N]
 7268.00                                 [lupp_SN (A) - window for S/N]
   3.846                                 [S/N in S/N window]
   5.685                                 [S/N in norm. window]
  10.000                                 [S/N_err in S/N window]
  14.780                                 [S/N_err in norm. window]
  1.0000                                 [fscale_chi2]

## etc...
    -2007210                             [idum_orig]
  2398                                   [NOl_eff]
  2396                                   [Nl_eff]
     2    NSIGMA                         [Ntot_cliped & clip_method]
  1146600                                [Nglobal_steps]
   7                                     [N_chains]
  18                                     [NEX0s_base = N_base in EX0s-fits]
 0   0   1       45   2.0   2.374E+01    [Clip-Bug, RC-Crash & Burn-In warning-flags, n_censored_weights, wei_nsig_threshold & wei_limit]
    12     12.039     11.502      0.537  [idt_all, wdt_TotTime, wdt_UsrTime & wdt_SysTime (sec)]

## Synthesis Results - Best model ##

 2.55232E-01                             [chi2/Nl_eff]
     3.60314                             [adev (%)]

   102.55087                             [sum-of-x (%)]
 1.06540E-15                             [Flux_tot (units of input spectrum!)]
 4.10032E-12                             [Mini_tot (???)]
 2.12768E-12                             [Mcor_tot (???)]

 -36.77                                  [v0_min  (km/s)]
 187.14                                  [vd_min  (km/s)]
 0.2138                                  [AV_min  (mag)]
 0.0000                                  [YAV_min (mag)]

# j     x_j(%)      Mini_j(%)     Mcor_j(%)     age_j(yr)     Z_j      (L/M)_j    YAV?  Mstars   component_j        a/Fe...       SSP_chi2r SSP_adev(%)   SSP_AV   SSP_x(%)
  1      2.3233     5.3807E-02    1.0369E-01    1.000000E+06  0.00400  1.094E-02    0   1.0000   age020_m42            0.0000     4.6402E-01     5.1619   1.8626    92.2710
  2      0.0017     1.0674E-05    2.0568E-05    3.160000E+06  0.00400  4.007E-02    0   0.9999   age045_m42            0.0000     4.6615E-01     4.8682   1.1264    99.0510
  3      0.0184     1.8403E-04    3.3650E-04    5.010000E+06  0.00400  2.539E-02    0   0.9488   age055_m42            0.0000     4.2764E-01     4.7728   1.4488    96.5336
  4      0.0000     0.0000E+00    0.0000E+00    6.610000E+06  0.00400  2.620E-02    0   0.9220   age061_m42            0.0000     4.6475E-01     4.7625   1.0518    99.3218
  5      0.0000     0.0000E+00    0.0000E+00    1.000000E+07  0.00400  1.322E-02    0   0.8862   age070_m42            0.0000     3.4328E-01     4.0495   0.7727   101.2860
  6      0.0163     5.2420E-04    8.6584E-04    1.445000E+07  0.00400  7.883E-03    0   0.8571   age078_m42            0.0000     3.3177E-01     4.0568   1.1016    98.6440
  7      0.0015     7.4010E-05    1.1658E-04    2.512000E+07  0.00400  5.251E-03    0   0.8174   age090_m42            0.0000     3.4604E-01     4.0757   0.6431   101.8307
  8      0.0000     0.0000E+00    0.0000E+00    4.000000E+07  0.00400  3.649E-03    0   0.7851   age104_m42            0.0000     3.6773E-01     4.1682   0.4129   102.8116
  9      0.0000     0.0000E+00    0.0000E+00    5.500000E+07  0.00400  3.098E-03    0   0.7629   age110_m42            0.0000     4.6299E-01     4.5456   0.5659   102.8584
 10      0.0000     0.0000E+00    0.0000E+00    1.015200E+08  0.00400  2.228E-03    0   0.7207   age116_m42            0.0000     5.6722E-01     4.9009   0.5858   103.0796
 11      0.0000     0.0000E+00    0.0000E+00    2.861200E+08  0.00400  1.093E-03    0   0.6648   age125_m42            0.0000     6.0040E-01     4.8987   0.0154   106.2345
 12      0.0000     0.0000E+00    0.0000E+00    5.088000E+08  0.00400  6.597E-04    0   0.6365   age130_m42            0.0000     7.6038E-01     5.3648   0.0051   107.1605
 13      0.0000     0.0000E+00    0.0000E+00    1.434000E+09  0.00400  2.132E-04    0   0.5798   age139_m42            0.0000     8.0703E-01     5.8426  -0.9694   109.4874
 14      0.0000     0.0000E+00    0.0000E+00    4.250000E+09  0.00400  5.895E-05    0   0.5377   age158_m42            0.0000     1.4840E+00     8.3082  -1.0000    90.1407
 15      0.0000     0.0000E+00    0.0000E+00    7.500000E+09  0.00400  3.510E-05    0   0.5212   age171_m42            0.0000     2.2965E+00    10.6940  -1.0000    82.8328
 16      6.7461     8.5250E+01    8.2703E+01    1.300000E+10  0.00400  2.005E-05    0   0.5034   age193_m42            0.0000     3.1849E+00    12.8729  -1.0000    76.7086
 17      0.0000     0.0000E+00    0.0000E+00    1.800000E+10  0.00400  1.525E-05    0   0.4967   age213_m42            0.0000     3.2838E+00    13.2046  -1.0000    75.5896
 18      0.0000     0.0000E+00    0.0000E+00    1.000000E+06  0.00800  1.238E-02    0   1.0000   age020_m52            0.0000     4.6417E-01     5.1674   1.8581    92.4812
 19      0.0000     0.0000E+00    0.0000E+00    3.160000E+06  0.00800  3.074E-02    0   0.9966   age045_m52            0.0000     4.5732E-01     5.1321   1.7796    93.3885
 20      0.0000     0.0000E+00    0.0000E+00    5.010000E+06  0.00800  2.668E-02    0   0.9443   age055_m52            0.0000     4.1867E-01     4.7701   1.5320    95.6400
 21     54.9541     6.5186E-01    1.1528E+00    6.610000E+06  0.00800  2.136E-02    0   0.9177   age061_m52            0.0000     2.8530E-01     3.7806   0.2709   102.5647
 22      0.0000     0.0000E+00    0.0000E+00    1.000000E+07  0.00800  1.215E-02    0   0.8827   age070_m52            0.0000     3.1064E-01     3.9125   0.9536   100.9719
 23      0.0000     0.0000E+00    0.0000E+00    1.445000E+07  0.00800  8.717E-03    0   0.8552   age078_m52            0.0000     3.2921E-01     4.0138   1.0660   100.0554
 24      0.0000     0.0000E+00    0.0000E+00    2.512000E+07  0.00800  5.592E-03    0   0.8162   age090_m52            0.0000     3.5008E-01     4.0822   0.7060   103.0712
 25      0.0000     0.0000E+00    0.0000E+00    4.000000E+07  0.00800  3.896E-03    0   0.7841   age104_m52            0.0000     3.9277E-01     4.2527   0.6167   103.9561
 26      0.0000     0.0000E+00    0.0000E+00    1.015200E+08  0.00800  2.148E-03    0   0.7226   age116_m52            0.0000     4.9618E-01     4.6092   0.5527   103.9250
 27      0.0000     0.0000E+00    0.0000E+00    2.861200E+08  0.00800  9.925E-04    0   0.6683   age125_m52            0.0000     7.7890E-01     5.4234   0.0693   108.1613
 28      0.0000     0.0000E+00    0.0000E+00    9.047900E+08  0.00800  3.141E-04    0   0.6138   age135_m52            0.0000     1.0109E+00     6.4514  -0.7302   112.7673
 29      0.0001     1.2504E-04    1.4104E-04    1.434000E+09  0.00800  1.719E-04    0   0.5853   age139_m52            0.0000     1.2749E+00     7.1622  -1.0000    98.4010
 30      0.0000     0.0000E+00    0.0000E+00    2.500000E+09  0.00800  7.872E-05    0   0.5600   age150_m52            0.0000     2.3207E+00    10.5213  -1.0000    85.8684
 31      0.7891     4.6110E+00    4.8215E+00    4.250000E+09  0.00800  4.336E-05    0   0.5426   age158_m52            0.0000     2.3904E+00    10.6952  -1.0000    84.5220
 32      0.0000     0.0000E+00    0.0000E+00    6.250000E+09  0.00800  3.159E-05    0   0.5319   age166_m52            0.0000     3.5501E+00    13.3395  -1.0000    77.4256
 33      0.0000     0.0000E+00    0.0000E+00    1.300000E+10  0.00800  1.361E-05    0   0.5073   age193_m52            0.0000     6.6910E+00    19.3912  -1.0000    61.9075
 34      0.0000     0.0000E+00    0.0000E+00    1.800000E+10  0.00800  9.886E-06    0   0.4990   age213_m52            0.0000     7.5833E+00    20.5689  -1.0000    58.5151
 35      4.4498     7.3022E-02    1.4072E-01    1.000000E+06  0.02000  1.544E-02    0   1.0000   age020_m62            0.0000     4.6498E-01     5.1882   1.8544    92.6902
 36      7.7425     5.2146E-02    9.9065E-02    3.160000E+06  0.02000  3.762E-02    0   0.9858   age045_m62            0.0000     4.6107E-01     5.1785   1.7909    93.6134
 37      0.0105     8.0597E-05    1.4510E-04    5.010000E+06  0.02000  3.296E-02    0   0.9342   age055_m62            0.0000     4.6075E-01     4.8739   1.4059    97.8618
 38      0.0006     1.2198E-05    2.0829E-05    8.710000E+06  0.02000  1.154E-02    0   0.8861   age067_m62            0.0000     4.7315E-01     5.1511   0.4124   103.2929
 39      0.0000     0.0000E+00    0.0000E+00    1.445000E+07  0.02000  7.663E-03    0   0.8472   age078_m62            0.0000     3.0235E-01     3.9399   0.6007   103.2235
 40      0.0000     0.0000E+00    0.0000E+00    2.512000E+07  0.02000  4.532E-03    0   0.8099   age090_m62            0.0000     3.3402E-01     4.1283   0.5923   102.9622
 41      0.0000     0.0000E+00    0.0000E+00    5.500000E+07  0.02000  2.733E-03    0   0.7595   age110_m62            0.0000     3.8117E-01     4.1420   0.5989   103.2406
 42      0.0000     0.0000E+00    0.0000E+00    1.609000E+08  0.02000  1.369E-03    0   0.6985   age120_m62            0.0000     6.5013E-01     4.9916   0.4349   106.2259
 43      0.0000     0.0000E+00    0.0000E+00    2.861200E+08  0.02000  9.013E-04    0   0.6714   age125_m62            0.0000     8.9671E-01     5.6629   0.1845   109.2745
 44      0.0000     0.0000E+00    0.0000E+00    5.088000E+08  0.02000  5.028E-04    0   0.6449   age130_m62            0.0000     1.1330E+00     6.5710  -0.1938   112.2509
 45      0.0000     0.0000E+00    0.0000E+00    9.047900E+08  0.02000  2.428E-04    0   0.6179   age135_m62            0.0000     1.0500E+00     6.7540  -0.7848   111.9009
 46      0.0000     0.0000E+00    0.0000E+00    1.434000E+09  0.02000  1.263E-04    0   0.5908   age139_m62            0.0000     1.2621E+00     7.1353  -1.0000   101.3555
 47      0.0000     0.0000E+00    0.0000E+00    2.500000E+09  0.02000  5.985E-05    0   0.5673   age150_m62            0.0000     2.5726E+00    10.9546  -1.0000    86.2519
 48      0.0000     0.0000E+00    0.0000E+00    4.250000E+09  0.02000  3.271E-05    0   0.5468   age158_m62            0.0000     4.3704E+00    14.7882  -1.0000    74.8409
 49      0.0000     0.0000E+00    0.0000E+00    1.000000E+10  0.02000  1.360E-05    0   0.5167   age181_m62            0.0000     6.8630E+00    19.0591  -1.0000    63.4002
 50      0.0000     0.0000E+00    0.0000E+00    1.800000E+10  0.02000  7.124E-06    0   0.5013   age213_m62            0.0000     8.5051E+00    21.4050  -1.0000    56.8660
 51     11.3180     1.1064E-01    2.1317E-01    1.000000E+06  0.05000  2.592E-02    0   0.9998   age020_m72            0.0000     4.7072E-01     5.2493   1.8471    92.6694
 52      3.7203     1.9455E-02    3.5907E-02    3.160000E+06  0.05000  4.845E-02    0   0.9577   age045_m72            0.0000     4.6044E-01     5.0803   1.6695    95.0459
 53      0.0000     0.0000E+00    0.0000E+00    5.010000E+06  0.05000  3.072E-02    0   0.9147   age055_m72            0.0000     3.1876E-01     4.0228   1.1899    99.2357
 54      5.3179     9.2605E-02    1.5842E-01    6.610000E+06  0.05000  1.455E-02    0   0.8877   age061_m72            0.0000     8.9152E-01     7.1821   0.4612   104.0838
 55      0.0000     0.0000E+00    0.0000E+00    1.000000E+07  0.05000  9.074E-03    0   0.8524   age070_m72            0.0000     4.3360E-01     4.6225   1.3734    98.9525
 56      0.0000     0.0000E+00    0.0000E+00    2.512000E+07  0.05000  4.250E-03    0   0.7902   age090_m72            0.0000     3.9633E-01     4.3639   1.0679   101.0192
 57      0.0000     0.0000E+00    0.0000E+00    4.000000E+07  0.05000  3.087E-03    0   0.7618   age104_m72            0.0000     4.3822E-01     4.5674   0.8381   102.7819
 58      0.0000     0.0000E+00    0.0000E+00    1.015200E+08  0.05000  1.700E-03    0   0.7096   age116_m72            0.0000     5.9566E-01     4.8512   0.5776   105.7509
 59      0.0000     0.0000E+00    0.0000E+00    2.861200E+08  0.05000  7.384E-04    0   0.6633   age125_m72            0.0000     1.0308E+00     6.0935   0.0516   110.8289
 60      0.0000     0.0000E+00    0.0000E+00    5.088000E+08  0.05000  3.819E-04    0   0.6372   age130_m72            0.0000     1.1007E+00     6.7460  -0.4449   112.8948
 61      4.1722     6.3074E+00    7.4268E+00    9.047900E+08  0.05000  1.676E-04    0   0.6110   age135_m72            0.0000     1.3417E+00     7.6029  -1.0000   105.4861
 62      0.9684     2.7766E+00    3.1432E+00    1.434000E+09  0.05000  8.837E-05    0   0.5874   age139_m72            0.0000     2.6812E+00    11.1483  -1.0000    87.4856
 63      0.0000     0.0000E+00    0.0000E+00    2.500000E+09  0.05000  4.233E-05    0   0.5598   age150_m72            0.0000     4.4803E+00    14.8675  -1.0000    75.4788
 64      0.0000     0.0000E+00    0.0000E+00    6.250000E+09  0.05000  1.435E-05    0   0.5249   age166_m72            0.0000     7.5696E+00    20.2325  -1.0000    60.2941
 65      0.0000     0.0000E+00    0.0000E+00    1.300000E+10  0.05000  6.513E-06    0   0.5036   age193_m72            0.0000     9.7886E+00    23.2320  -1.0000    53.0874
 66      0.0000     0.0000E+00    0.0000E+00    1.800000E+10  0.05000  4.527E-06    0   0.4945   age213_m72            0.0000     1.1080E+01    24.8338  -1.0000    48.9005


## Synthesis Results - Average & Chains ##

# j      x_j: min, <> & last-chain-values for 1 ...  7 chains
  1      2.3233      3.9344      2.8426      4.6766      8.4145      5.5457      7.8449      4.0603      4.9418
  2      0.0017      0.5085      0.0000      0.0000      0.6372      0.0000      0.0000      0.0000      0.9672
  3      0.0184      0.5649      3.2852      0.1882      0.5250      0.0000      0.0000      0.0000      0.6853
  4      0.0000      0.4645      0.2392      0.0000      0.3286      0.0000      0.0000      0.0000      1.0113
  5      0.0000      0.5067      0.0000      1.9954      0.0000      0.0000      0.0000      0.0000      0.3689
  6      0.0163      0.8317      3.0785      0.4249      0.9324      0.0000      1.5659      0.0000      0.0000
  7      0.0015      0.6915      0.0000      0.0000      2.7551      0.0000      0.0000      0.6257      0.0000
  8      0.0000      0.8256      0.0000      0.5319      0.0480      0.0000      0.0000      0.0000      0.0000
  9      0.0000      0.4730      0.0000      0.0000      0.2959      0.0000      0.0000      0.0000      0.0000
 10      0.0000      0.2973      0.0000      0.0000      0.0000      0.0000      0.0000      0.0000      0.1325
 11      0.0000      0.4834      0.0000      0.0000      0.0000      0.0000      0.0000      0.9891      0.0000
 12      0.0000      0.4536      0.0000      0.1271      0.0000      0.0000      0.0000      0.0000      0.0000
 13      0.0000      0.0883      0.0000      0.0000      0.0000      0.0000      0.0000      0.0000      0.0000
 14      0.0000      0.1688      0.0000      0.8652      0.0000      0.0000      1.2433      0.0000      0.0000
 15      0.0000      0.0717      0.0000      0.0000      0.0000      0.0000      0.0000      0.0599      0.0000
 16      6.7461      0.2147      0.0000      0.0000      1.5981      0.0000      0.8568      0.4716      0.0000
 17      0.0000      0.0283      0.4193      0.0000      0.4541      0.0000      0.0000      0.0000      0.0000
 18      0.0000      0.4351      0.8645      0.0000      0.0000      0.0000      0.0000      0.0000      0.0000
 19      0.0000      0.7400      0.2147      2.1411      0.0000      1.8258      5.2320      3.8942      0.0000
 20      0.0000      0.5330      2.8515      4.5435      0.0000      0.0000      0.0000      0.0000      0.7205
 21     54.9541     48.2326     41.5646     50.3805     49.4117     53.0988     41.3846     48.2385     57.5653
 22      0.0000      0.4779      5.8839      0.0000      0.0000      0.0000      0.0000      0.0000      0.0000
 23      0.0000      0.5060      0.0000      0.0000      0.0000      0.0000      0.0000      0.0000      0.0000
 24      0.0000      0.6369      0.0000      0.0000      0.0000      1.4593      0.0000      0.0000      0.0000
 25      0.0000      0.5926      0.0000      0.0000      0.0000      0.0000      0.0000      0.4694      0.0000
 26      0.0000      0.4607      0.0000      0.0000      0.0000      0.0000      0.5643      0.0000      0.0000
 27      0.0000      0.3023      0.4331      0.0000      0.0000      1.1750      0.0000      0.0000      0.0000
 28      0.0000      0.2566      0.0000      0.0000      0.0000      0.0000      0.0000      0.2798      0.0000
 29      0.0001      0.3037      2.3554      1.3925      0.9448      0.0000      2.1903      0.0000      0.7902
 30      0.0000      0.1589      1.2634      0.3434      0.0000      0.0000      0.5705      0.0293      0.0000
 31      0.7891      0.0582      0.0000      0.0000      1.0501      0.0000      0.0000      0.0000      0.0000
 32      0.0000      0.1821      0.1889      0.7608      0.3299      0.6222      0.0000      0.6339      0.8660
 33      0.0000      0.0456      0.0000      0.0000      0.0000      0.0000      0.0000      0.5553      0.0000
 34      0.0000      0.0295      0.0000      0.0000      0.0000      0.0832      0.0000      0.0000      0.0000
 35      4.4498      3.5177      2.6487      1.3151      3.4601      3.1980      6.5381      6.9162      2.6292
 36      7.7425      5.7900      7.7483      7.6686      5.1150      8.9406      7.3885      5.8110      2.1509
 37      0.0105      0.2742      0.0000      0.0000      0.9984      0.0000      0.0000      0.0000      1.2888
 38      0.0006      6.2556      4.2452      5.9785      3.8132      0.0000      0.0000      7.3494      6.2202
 39      0.0000      1.5797      1.1578      0.0000      0.0000      1.7034      3.4584      2.6681      0.0000
 40      0.0000      1.2711      0.0000      0.0000      0.0000      0.0000      0.0000      0.0000      1.0460
 41      0.0000      0.6494      0.0000      0.0000      0.0000      0.0000      0.0000      0.0000      0.0000
 42      0.0000      0.3523      0.0000      0.0000      0.0000      0.0000      0.0000      0.0000      0.0000
 43      0.0000      0.1834      0.0000      0.0000      0.0000      0.2410      0.0000      0.0000      0.0000
 44      0.0000      0.2918      0.0000      0.0000      0.1234      0.6685      0.0000      0.0000      0.0000
 45      0.0000      0.5629      0.0000      0.0000      0.0000      0.0000      0.0000      1.6247      1.3004
 46      0.0000      0.3443      1.0328      0.0000      0.1610      0.0000      0.0000      1.3412      1.2891
