###################################################################
## OUTPUT of StarlightChains_v04.for    [Cid@UFSC - 01/Apr/2007] ##
###################################################################

## Some input info
1986N.txt                                [arq_obs]
Base.CB07.vall.4m                        [arq_base]
Masks.EmLines.NEW.gm                     [arq_masks]
StCv04.C11.config                        [arq_config]
   66                                    [N_base]
    0                                    [N_YAV_components = # of components with extra extinction!]
    0                                    [i_FitPowerLaw (1/0 = Yes/No)]
-9.99                                    [alpha_PowerLaw]
CCM                                      [red_law_option]
 1.458241                                [q_norm = A(l_norm)/A(V)]

## (Re)Sampling Parameters
 3741.00                                 [l_ini (A)]
 7218.00                                 [l_fin (A)]
    1.00                                 [dl    (A)]     (OBS: dl_cushion =    50.00 A)

## Normalization info
 4020.00                                 [l_norm (A) - for base]
 4010.00                                 [llow_norm (A) - window for f_obs]
 4060.00                                 [lupp_norm (A) - window for f_obs]
2.547156E-16                             [fobs_norm (in input units)]

## S/N
 3691.00                                 [llow_SN (A) - window for S/N]
 7268.00                                 [lupp_SN (A) - window for S/N]
   4.579                                 [S/N in S/N window]
   6.316                                 [S/N in norm. window]
  22.358                                 [S/N_err in S/N window]
  30.840                                 [S/N_err in norm. window]
  1.0000                                 [fscale_chi2]

## etc...
    -2007211                             [idum_orig]
  2384                                   [NOl_eff]
  2384                                   [Nl_eff]
     0    NSIGMA                         [Ntot_cliped & clip_method]
   917910                                [Nglobal_steps]
   7                                     [N_chains]
  14                                     [NEX0s_base = N_base in EX0s-fits]
 0   0   1        2   2.0   4.926E+01    [Clip-Bug, RC-Crash & Burn-In warning-flags, n_censored_weights, wei_nsig_threshold & wei_limit]
    11     10.127      9.593      0.534  [idt_all, wdt_TotTime, wdt_UsrTime & wdt_SysTime (sec)]

## Synthesis Results - Best model ##

 4.00526E-01                             [chi2/Nl_eff]
     2.28433                             [adev (%)]

   108.46235                             [sum-of-x (%)]
 3.55721E-16                             [Flux_tot (units of input spectrum!)]
 5.50948E-13                             [Mini_tot (???)]
 3.50319E-13                             [Mcor_tot (???)]

  15.45                                  [v0_min  (km/s)]
 188.41                                  [vd_min  (km/s)]
 0.1882                                  [AV_min  (mag)]
 0.0000                                  [YAV_min (mag)]

# j     x_j(%)      Mini_j(%)     Mcor_j(%)     age_j(yr)     Z_j      (L/M)_j    YAV?  Mstars   component_j        a/Fe...       SSP_chi2r SSP_adev(%)   SSP_AV   SSP_x(%)
  1      4.4105     2.3999E-01    3.7743E-01    1.000000E+06  0.00400  1.094E-02    0   1.0000   age020_m42            0.0000     1.6668E+00     4.2338   2.0199    95.5727
  2      2.4910     3.7007E-02    5.8195E-02    3.160000E+06  0.00400  4.007E-02    0   0.9999   age045_m42            0.0000     8.7684E-01     3.0651   1.3251   100.7081
  3      0.6079     1.4253E-02    2.1267E-02    5.010000E+06  0.00400  2.539E-02    0   0.9488   age055_m42            0.0000     1.1540E+00     3.4267   1.6320    98.8471
  4      0.0320     7.2657E-04    1.0535E-03    6.610000E+06  0.00400  2.620E-02    0   0.9220   age061_m42            0.0000     8.6202E-01     2.9816   1.2551   100.8284
  5      0.0000     0.0000E+00    0.0000E+00    1.000000E+07  0.00400  1.322E-02    0   0.8862   age070_m42            0.0000     1.0122E+00     3.3077   0.9787   102.9808
  6      0.0000     0.0000E+00    0.0000E+00    1.445000E+07  0.00400  7.883E-03    0   0.8571   age078_m42            0.0000     1.1454E+00     3.4514   1.2977   100.7210
  7      0.0000     0.0000E+00    0.0000E+00    2.512000E+07  0.00400  5.251E-03    0   0.8174   age090_m42            0.0000     1.0764E+00     3.4583   0.8522   103.4253
  8      0.0000     0.0000E+00    0.0000E+00    4.000000E+07  0.00400  3.649E-03    0   0.7851   age104_m42            0.0000     9.3102E-01     3.2569   0.6272   104.1420
  9      0.0000     0.0000E+00    0.0000E+00    5.500000E+07  0.00400  3.098E-03    0   0.7629   age110_m42            0.0000     8.3397E-01     3.0589   0.7847   103.8595
 10      0.0000     0.0000E+00    0.0000E+00    1.015200E+08  0.00400  2.228E-03    0   0.7207   age116_m42            0.0000     8.5811E-01     3.1280   0.8088   103.8171
 11      0.0000     0.0000E+00    0.0000E+00    2.861200E+08  0.00400  1.093E-03    0   0.6648   age125_m42            0.0000     9.9990E-01     3.6971   0.2528   106.5161
 12      0.0000     0.0000E+00    0.0000E+00    5.088000E+08  0.00400  6.597E-04    0   0.6365   age130_m42            0.0000     1.0008E+00     3.6089   0.2447   107.1694
 13      0.0000     0.0000E+00    0.0000E+00    1.434000E+09  0.00400  2.132E-04    0   0.5798   age139_m42            0.0000     9.5630E-01     3.4534  -0.7295   109.2587
 14      0.0000     0.0000E+00    0.0000E+00    4.250000E+09  0.00400  5.895E-05    0   0.5377   age158_m42            0.0000     2.1727E+00     4.6969  -1.0000    99.2645
 15      0.0000     0.0000E+00    0.0000E+00    7.500000E+09  0.00400  3.510E-05    0   0.5212   age171_m42            0.0000     5.2120E+00     7.6595  -1.0000    92.1325
 16      0.0000     0.0000E+00    0.0000E+00    1.300000E+10  0.00400  2.005E-05    0   0.5034   age193_m42            0.0000     9.2241E+00    10.3411  -1.0000    86.0615
 17      0.0000     0.0000E+00    0.0000E+00    1.800000E+10  0.00400  1.525E-05    0   0.4967   age213_m42            0.0000     9.7635E+00    10.6748  -1.0000    84.9017
 18      3.8055     1.8298E-01    2.8777E-01    1.000000E+06  0.00800  1.238E-02    0   1.0000   age020_m52            0.0000     1.6701E+00     4.2414   2.0162    95.7623
 19      0.0000     0.0000E+00    0.0000E+00    3.160000E+06  0.00800  3.074E-02    0   0.9966   age045_m52            0.0000     1.6080E+00     4.1458   1.9408    96.5390
 20      0.0543     1.2104E-03    1.7976E-03    5.010000E+06  0.00800  2.668E-02    0   0.9443   age055_m52            0.0000     1.2453E+00     3.5749   1.7096    98.1850
 21     35.7861     9.9732E-01    1.4394E+00    6.610000E+06  0.00800  2.136E-02    0   0.9177   age061_m52            0.0000     7.4413E-01     3.0394   0.4658   104.7013
 22      0.0000     0.0000E+00    0.0000E+00    1.000000E+07  0.00800  1.215E-02    0   0.8827   age070_m52            0.0000     1.1949E+00     3.6843   1.1560   102.9428
 23      0.0000     0.0000E+00    0.0000E+00    1.445000E+07  0.00800  8.717E-03    0   0.8552   age078_m52            0.0000     1.0663E+00     3.3466   1.2652   102.0214
 24      0.0000     0.0000E+00    0.0000E+00    2.512000E+07  0.00800  5.592E-03    0   0.8162   age090_m52            0.0000     1.0552E+00     3.4715   0.9189   104.5455
 25      0.0000     0.0000E+00    0.0000E+00    4.000000E+07  0.00800  3.896E-03    0   0.7841   age104_m52            0.0000     9.1256E-01     3.2748   0.8373   105.0453
 26      0.0000     0.0000E+00    0.0000E+00    1.015200E+08  0.00800  2.148E-03    0   0.7226   age116_m52            0.0000     7.6354E-01     3.0757   0.7777   104.6651
 27      0.0000     0.0000E+00    0.0000E+00    2.861200E+08  0.00800  9.925E-04    0   0.6683   age125_m52            0.0000     9.5702E-01     3.5277   0.3100   108.1543
 28      0.0000     0.0000E+00    0.0000E+00    9.047900E+08  0.00800  3.141E-04    0   0.6138   age135_m52            0.0000     1.3003E+00     3.8765  -0.4817   112.1275
 29      0.0000     0.0000E+00    0.0000E+00    1.434000E+09  0.00800  1.719E-04    0   0.5853   age139_m52            0.0000     1.4443E+00     3.9793  -1.0000   107.7607
 30      0.0000     0.0000E+00    0.0000E+00    2.500000E+09  0.00800  7.872E-05    0   0.5600   age150_m52            0.0000     4.8914E+00     7.4742  -1.0000    95.3706
 31      0.0000     0.0000E+00    0.0000E+00    4.250000E+09  0.00800  4.336E-05    0   0.5426   age158_m52            0.0000     5.3463E+00     7.6974  -1.0000    93.9457
 32      0.0000     0.0000E+00    0.0000E+00    6.250000E+09  0.00800  3.159E-05    0   0.5319   age166_m52            0.0000     1.0384E+01    10.9288  -1.0000    86.9206
 33      0.0000     0.0000E+00    0.0000E+00    1.300000E+10  0.00800  1.361E-05    0   0.5073   age193_m52            0.0000     2.6897E+01    17.7732  -1.0000    71.0070
 34      0.0000     0.0000E+00    0.0000E+00    1.800000E+10  0.00800  9.886E-06    0   0.4990   age213_m52            0.0000     3.1860E+01    19.1758  -1.0000    67.3671
 35      0.0000     0.0000E+00    0.0000E+00    1.000000E+06  0.02000  1.544E-02    0   1.0000   age020_m62            0.0000     1.7064E+00     4.2926   2.0103    96.0618
 36      4.6483     7.3552E-02    1.1403E-01    3.160000E+06  0.02000  3.762E-02    0   0.9858   age045_m62            0.0000     1.7103E+00     4.2949   1.9490    96.9234
 37      0.0000     0.0000E+00    0.0000E+00    5.010000E+06  0.02000  3.296E-02    0   0.9342   age055_m62            0.0000     1.0361E+00     3.2444   1.5950    99.9127
 38      0.0000     0.0000E+00    0.0000E+00    8.710000E+06  0.02000  1.154E-02    0   0.8861   age067_m62            0.0000     3.3750E+00     7.0708   0.6069   106.3609
 39      0.0000     0.0000E+00    0.0000E+00    1.445000E+07  0.02000  7.663E-03    0   0.8472   age078_m62            0.0000     1.5361E+00     4.5223   0.8062   105.3210
 40      0.0000     0.0000E+00    0.0000E+00    2.512000E+07  0.02000  4.532E-03    0   0.8099   age090_m62            0.0000     1.7304E+00     4.7839   0.8039   104.8217
 41      0.0000     0.0000E+00    0.0000E+00    5.500000E+07  0.02000  2.733E-03    0   0.7595   age110_m62            0.0000     9.4373E-01     3.2713   0.8158   104.4865
 42      0.0000     0.0000E+00    0.0000E+00    1.609000E+08  0.02000  1.369E-03    0   0.6985   age120_m62            0.0000     9.2795E-01     3.3672   0.6662   106.6826
 43      0.0000     0.0000E+00    0.0000E+00    2.861200E+08  0.02000  9.013E-04    0   0.6714   age125_m62            0.0000     1.1463E+00     3.6828   0.4225   109.3175
 44      0.0000     0.0000E+00    0.0000E+00    5.088000E+08  0.02000  5.028E-04    0   0.6449   age130_m62            0.0000     1.3762E+00     3.8743   0.0500   111.8041
 45      0.0000     0.0000E+00    0.0000E+00    9.047900E+08  0.02000  2.428E-04    0   0.6179   age135_m62            0.0000     1.3846E+00     3.8044  -0.5440   111.4793
 46      0.0000     0.0000E+00    0.0000E+00    1.434000E+09  0.02000  1.263E-04    0   0.5908   age139_m62            0.0000     1.7818E+00     4.0332  -0.9969   110.2258
 47      0.0000     0.0000E+00    0.0000E+00    2.500000E+09  0.02000  5.985E-05    0   0.5673   age150_m62            0.0000     5.9280E+00     7.9304  -1.0000    95.7731
 48      0.0000     0.0000E+00    0.0000E+00    4.250000E+09  0.02000  3.271E-05    0   0.5468   age158_m62            0.0000     1.4202E+01    12.6236  -1.0000    84.3091
 49      0.0000     0.0000E+00    0.0000E+00    1.000000E+10  0.02000  1.360E-05    0   0.5167   age181_m62            0.0000     2.7404E+01    17.5672  -1.0000    72.5092
 50      0.0000     0.0000E+00    0.0000E+00    1.800000E+10  0.02000  7.124E-06    0   0.5013   age213_m62            0.0000     3.6850E+01    20.2430  -1.0000    65.5514
 51      2.1586     4.9574E-02    7.7949E-02    1.000000E+06  0.05000  2.592E-02    0   0.9998   age020_m72            0.0000     1.8315E+00     4.4286   1.9993    96.2006
 52      0.0000     0.0000E+00    0.0000E+00    3.160000E+06  0.05000  4.845E-02    0   0.9577   age045_m72            0.0000     1.4578E+00     3.8971   1.8403    97.8209
 53      0.0000     0.0000E+00    0.0000E+00    5.010000E+06  0.05000  3.072E-02    0   0.9147   age055_m72            0.0000     1.4360E+00     4.1815   1.3858   101.6092
 54      0.0000     0.0000E+00    0.0000E+00    6.610000E+06  0.05000  1.455E-02    0   0.8877   age061_m72            0.0000     5.6057E+00     9.5355   0.6760   107.0852
 55      0.0000     0.0000E+00    0.0000E+00    1.000000E+07  0.05000  9.074E-03    0   0.8524   age070_m72            0.0000     1.8249E+00     4.8792   1.5854   100.9682
 56      0.0000     0.0000E+00    0.0000E+00    2.512000E+07  0.05000  4.250E-03    0   0.7902   age090_m72            0.0000     1.4476E+00     4.2287   1.2890   102.4153
 57      0.0000     0.0000E+00    0.0000E+00    4.000000E+07  0.05000  3.087E-03    0   0.7618   age104_m72            0.0000     1.5240E+00     4.3788   1.0665   103.8631
 58      0.0000     0.0000E+00    0.0000E+00    1.015200E+08  0.05000  1.700E-03    0   0.7096   age116_m72            0.0000     1.0486E+00     3.6318   0.8107   106.2492
 59      0.0000     0.0000E+00    0.0000E+00    2.861200E+08  0.05000  7.384E-04    0   0.6633   age125_m72            0.0000     1.2183E+00     3.7271   0.2932   110.5833
 60     47.6936     7.4341E+01    7.4499E+01    5.088000E+08  0.05000  3.819E-04    0   0.6372   age130_m72            0.0000     1.2727E+00     3.7811  -0.2054   112.4918
 61      6.7747     2.4062E+01    2.3122E+01    9.047900E+08  0.05000  1.676E-04    0   0.6110   age135_m72            0.0000     2.2972E+00     4.7395  -0.9146   111.0552
 62      0.0000     0.0000E+00    0.0000E+00    1.434000E+09  0.05000  8.837E-05    0   0.5874   age139_m72            0.0000     6.2651E+00     8.1236  -1.0000    97.1072
 63      0.0000     0.0000E+00    0.0000E+00    2.500000E+09  0.05000  4.233E-05    0   0.5598   age150_m72            0.0000     1.4659E+01    12.7301  -1.0000    84.9925
 64      0.0000     0.0000E+00    0.0000E+00    6.250000E+09  0.05000  1.435E-05    0   0.5249   age166_m72            0.0000     3.1560E+01    18.8492  -1.0000    69.1952
 65      0.0000     0.0000E+00    0.0000E+00    1.300000E+10  0.05000  6.513E-06    0   0.5036   age193_m72            0.0000     4.4832E+01    22.2900  -1.0000    61.5394
 66      0.0000     0.0000E+00    0.0000E+00    1.800000E+10  0.05000  4.527E-06    0   0.4945   age213_m72            0.0000     5.2890E+01    24.1437  -1.0000    56.9759


## Synthesis Results - Average & Chains ##

# j      x_j: min, <> & last-chain-values for 1 ...  7 chains
  1      4.4105      3.0008      2.8850      2.8816      2.7970      2.6408      3.3532      3.2570      4.7946
  2      2.4910      3.5336      3.1960      3.9011      3.7104      4.7441      2.4745      4.0535      4.6325
  3      0.6079      0.5488      0.0000      0.0000      0.0171      0.0000      1.7395      0.0000      0.6232
  4      0.0320      2.8624      3.3162      4.9346      0.7558      2.7841      3.2419      3.0603      4.3269
  5      0.0000      0.1533      0.0000      0.0000      0.0000      0.0000      0.0431      0.0000      0.0000
  6      0.0000      0.1880      1.1030      0.0000      0.0000      0.5446      0.0617      0.0000      0.0000
  7      0.0000      0.2675      0.0000      0.0000      0.0000      0.0000      0.4723      0.0000      0.0000
  8      0.0000      0.3051      0.0000      0.0000      0.1149      0.0000      0.0000      0.0000      0.0000
  9      0.0000      0.2890      0.3696      0.0000      0.0000      0.0000      1.4186      0.0000      0.0000
 10      0.0000      0.2195      0.0000      0.0000      0.5428      0.0000      0.0000      0.0919      0.0000
 11      0.0000      0.1302      0.0000      0.0000      0.0000      0.0000      0.0000      0.0000      0.0000
 12      0.0000      0.2121      0.0000      0.0000      0.0000      0.0000      0.0000      0.0000      0.2483
 13      0.0000      0.0313      0.0000      0.0000      0.0000      0.0000      0.0000      0.0000      0.0000
 14      0.0000      0.0265      0.0000      0.2736      0.0000      0.0000      0.0000      0.0000      0.0000
 15      0.0000      0.0206      0.0000      0.0000      0.1290      0.0000      0.0000      0.0000      0.0000
 16      0.0000      0.0154      0.0000      0.0000      0.0000      0.0000      0.0000      0.0000      0.0000
 17      0.0000      0.0094      0.0000      0.0000      0.0000      0.0000      0.0000      0.0000      0.0000
 18      3.8055      3.2345      4.6432      3.5230      3.2442      3.2498      3.3649      3.5131      3.3266
 19      0.0000      1.1366      1.1755      0.9831      1.1541      0.0000      0.6567      1.4281      0.0000
 20      0.0543      0.8553      0.0000      0.7090      0.8340      0.3486      1.2596      2.1921      0.3079
 21     35.7861     36.0506     36.3045     38.3973     39.5274     36.6395     35.3732     37.7381     35.9038
 22      0.0000      0.1824      0.0000      0.1447      0.0000      0.0000      0.0000      0.0000      0.0000
 23      0.0000      0.2451      1.2904      1.0947      0.5435      0.9097      0.3613      0.0000      0.0000
 24      0.0000      0.2150      0.0000      0.0000      0.0000      0.0000      0.0156      0.0000      0.0000
 25      0.0000      0.1907      0.5253      0.0000      0.0000      0.0000      0.0000      0.0000      0.1984
 26      0.0000      0.2915      0.0000      0.0000      0.0000      0.0000      0.0000      0.0000      0.0000
 27      0.0000      0.1755      0.0000      0.0000      0.0000      0.0000      0.0000      0.0000      0.0000
 28      0.0000      0.1790      0.0000      0.0591      0.3131      0.0000      0.0000      0.0000      0.2729
 29      0.0000      0.0204      0.0000      0.0000      0.0000      0.0268      0.0000      0.0000      0.0000
 30      0.0000      0.0135      0.0000      0.0000      0.0000      0.0050      0.0000      0.0000      0.0000
 31      0.0000      0.0224      0.0000      0.0000      0.0000      0.0000      0.0000      0.0000      0.1567
 32      0.0000      0.0174      0.0000      0.0000      0.0000      0.0000      0.0000      0.0000      0.0000
 33      0.0000      0.0017      0.0000      0.0000      0.0000      0.0000      0.0000      0.0000      0.0000
 34      0.0000      0.0011      0.0000      0.0000      0.0000      0.0000      0.0000      0.0000      0.0000
 35      0.0000      0.3901      0.0000      0.4930      1.5383      0.0390      0.0000      0.0000      0.0000
 36      4.6483      1.4298      2.6964      1.6253      1.9875      3.5315      1.7802      1.9193      1.2258
 37      0.0000      0.2214      0.0000      0.0000      0.0000      0.0000      0.0000      0.5931      0.8054
 38      0.0000      0.0711      0.0000      0.0000      0.0000      0.0000      0.0000      0.0000      0.0000
 39      0.0000      0.1882      0.0000      0.0441      0.0000      0.0000      0.0000      0.0000      0.0000
 40      0.0000      0.1405      0.0000      0.0000      0.0000      0.0000      0.1306      0.0000      0.0000
 41      0.0000      0.2306      0.0000      0.0000      0.1539      0.0000      0.0000      0.0000      0.0000
 42      0.0000      0.1288      0.3018      0.0436      0.0000      0.0000      0.0000      0.0028      0.0000
 43      0.0000      0.1106      0.0000      0.0000      0.0000      0.0000      0.0000      0.0000      0.0000
 44      0.0000      0.4365      0.0000      0.1163      0.1187      0.1267      0.0000      0.0000      0.0000
 45      0.0000      3.3020      3.7272      2.0660      2.0096      4.3896      3.6368      3.1853      3.7003
 46      0.0000      0.0346      0.0925      0.0000      0.0000      0.0000      0.0000      0.0000      0.0000
