###################################################################
## OUTPUT of StarlightChains_v04.for    [Cid@UFSC - 01/Apr/2007] ##
###################################################################

## Some input info
1988L.txt                                [arq_obs]
Base.CB07.vall.4m                        [arq_base]
Masks.EmLines.NEW.gm                     [arq_masks]
StCv04.C11.config                        [arq_config]
   66                                    [N_base]
    0                                    [N_YAV_components = # of components with extra extinction!]
    0                                    [i_FitPowerLaw (1/0 = Yes/No)]
-9.99                                    [alpha_PowerLaw]
CCM                                      [red_law_option]
 1.458241                                [q_norm = A(l_norm)/A(V)]

## (Re)Sampling Parameters
 3741.00                                 [l_ini (A)]
 7218.00                                 [l_fin (A)]
    1.00                                 [dl    (A)]     (OBS: dl_cushion =    50.00 A)

## Normalization info
 4020.00                                 [l_norm (A) - for base]
 4010.00                                 [llow_norm (A) - window for f_obs]
 4060.00                                 [lupp_norm (A) - window for f_obs]
1.214434E-15                             [fobs_norm (in input units)]

## S/N
 3691.00                                 [llow_SN (A) - window for S/N]
 7268.00                                 [lupp_SN (A) - window for S/N]
   8.773                                 [S/N in S/N window]
  10.337                                 [S/N in norm. window]
  21.662                                 [S/N_err in S/N window]
  25.522                                 [S/N_err in norm. window]
  1.0000                                 [fscale_chi2]

## etc...
    -2007212                             [idum_orig]
  2393                                   [NOl_eff]
  2392                                   [Nl_eff]
     1    NSIGMA                         [Ntot_cliped & clip_method]
  1835750                                [Nglobal_steps]
   7                                     [N_chains]
  29                                     [NEX0s_base = N_base in EX0s-fits]
 0   0   1       10   2.0   4.381E+01    [Clip-Bug, RC-Crash & Burn-In warning-flags, n_censored_weights, wei_nsig_threshold & wei_limit]
    18     18.505     17.957      0.549  [idt_all, wdt_TotTime, wdt_UsrTime & wdt_SysTime (sec)]

## Synthesis Results - Best model ##

 2.05297E-01                             [chi2/Nl_eff]
     1.51125                             [adev (%)]

   106.78415                             [sum-of-x (%)]
 2.34863E-15                             [Flux_tot (units of input spectrum!)]
 7.27654E-12                             [Mini_tot (???)]
 4.35614E-12                             [Mcor_tot (???)]

  82.28                                  [v0_min  (km/s)]
 183.44                                  [vd_min  (km/s)]
 0.4422                                  [AV_min  (mag)]
 0.0000                                  [YAV_min (mag)]

# j     x_j(%)      Mini_j(%)     Mcor_j(%)     age_j(yr)     Z_j      (L/M)_j    YAV?  Mstars   component_j        a/Fe...       SSP_chi2r SSP_adev(%)   SSP_AV   SSP_x(%)
  1      0.0000     0.0000E+00    0.0000E+00    1.000000E+06  0.00400  1.094E-02    0   1.0000   age020_m42            0.0000     2.0187E+00     5.3169   2.6209    92.2653
  2      0.0000     0.0000E+00    0.0000E+00    3.160000E+06  0.00400  4.007E-02    0   0.9999   age045_m42            0.0000     1.1249E+00     3.5568   1.9276    97.0691
  3      0.0000     0.0000E+00    0.0000E+00    5.010000E+06  0.00400  2.539E-02    0   0.9488   age055_m42            0.0000     1.4383E+00     4.2443   2.2327    95.3657
  4      0.0000     0.0000E+00    0.0000E+00    6.610000E+06  0.00400  2.620E-02    0   0.9220   age061_m42            0.0000     1.0257E+00     3.3099   1.8544    97.2551
  5      0.3104     7.0970E-03    1.0506E-02    1.000000E+07  0.00400  1.322E-02    0   0.8862   age070_m42            0.0000     8.9376E-01     3.0565   1.5580    99.8900
  6      0.0000     0.0000E+00    0.0000E+00    1.445000E+07  0.00400  7.883E-03    0   0.8571   age078_m42            0.0000     1.0939E+00     3.4721   1.8796    97.6483
  7      0.0000     0.0000E+00    0.0000E+00    2.512000E+07  0.00400  5.251E-03    0   0.8174   age090_m42            0.0000     8.9420E-01     3.0436   1.4287   100.3833
  8      0.0000     0.0000E+00    0.0000E+00    4.000000E+07  0.00400  3.649E-03    0   0.7851   age104_m42            0.0000     7.4062E-01     2.7564   1.2054   101.0212
  9      0.4249     4.1453E-02    5.2825E-02    5.500000E+07  0.00400  3.098E-03    0   0.7629   age110_m42            0.0000     6.9545E-01     2.5320   1.3725   100.4364
 10      0.0000     0.0000E+00    0.0000E+00    1.015200E+08  0.00400  2.228E-03    0   0.7207   age116_m42            0.0000     7.1883E-01     2.6110   1.4019   100.2273
 11      0.0000     0.0000E+00    0.0000E+00    2.861200E+08  0.00400  1.093E-03    0   0.6648   age125_m42            0.0000     6.4026E-01     2.7016   0.8353   103.1396
 12      0.0028     1.2984E-03    1.3805E-03    5.088000E+08  0.00400  6.597E-04    0   0.6365   age130_m42            0.0000     6.1381E-01     2.8176   0.8367   103.4858
 13      0.0000     0.0000E+00    0.0000E+00    1.434000E+09  0.00400  2.132E-04    0   0.5798   age139_m42            0.0000     4.2502E-01     2.4136  -0.1292   105.2299
 14      0.0000     0.0000E+00    0.0000E+00    4.250000E+09  0.00400  5.895E-05    0   0.5377   age158_m42            0.0000     9.3115E-01     3.2272  -0.5769   101.6825
 15      2.9651     2.5534E+01    2.2230E+01    7.500000E+09  0.00400  3.510E-05    0   0.5212   age171_m42            0.0000     1.3543E+00     3.8243  -0.7605   100.8876
 16      0.0000     0.0000E+00    0.0000E+00    1.300000E+10  0.00400  2.005E-05    0   0.5034   age193_m42            0.0000     1.8435E+00     4.4017  -0.9218   100.2558
 17      0.0000     0.0000E+00    0.0000E+00    1.800000E+10  0.00400  1.525E-05    0   0.4967   age213_m42            0.0000     1.7832E+00     4.3374  -0.9474    99.9018
 18      0.1408     3.4368E-03    5.7408E-03    1.000000E+06  0.00800  1.238E-02    0   1.0000   age020_m52            0.0000     2.0222E+00     5.3310   2.6173    92.4464
 19      1.8070     1.7768E-02    2.9578E-02    3.160000E+06  0.00800  3.074E-02    0   0.9966   age045_m52            0.0000     1.9577E+00     5.2377   2.5424    93.1759
 20      0.0000     0.0000E+00    0.0000E+00    5.010000E+06  0.00800  2.668E-02    0   0.9443   age055_m52            0.0000     1.5216E+00     4.4472   2.3104    94.7315
 21      1.0523     1.4891E-02    2.2826E-02    6.610000E+06  0.00800  2.136E-02    0   0.9177   age061_m52            0.0000     6.5932E-01     2.9404   1.0490   101.4966
 22      0.0000     0.0000E+00    0.0000E+00    1.000000E+07  0.00800  1.215E-02    0   0.8827   age070_m52            0.0000     1.0206E+00     3.3585   1.7302   100.0006
 23      0.0000     0.0000E+00    0.0000E+00    1.445000E+07  0.00800  8.717E-03    0   0.8552   age078_m52            0.0000     9.9098E-01     3.2657   1.8463    98.9245
 24      1.3944     7.5373E-02    1.0276E-01    2.512000E+07  0.00800  5.592E-03    0   0.8162   age090_m52            0.0000     8.3418E-01     2.9376   1.4945   101.4685
 25      3.0687     2.3808E-01    3.1183E-01    4.000000E+07  0.00800  3.896E-03    0   0.7841   age104_m52            0.0000     6.9423E-01     2.6196   1.4169   101.8109
 26      0.2853     4.0144E-02    4.8455E-02    1.015200E+08  0.00800  2.148E-03    0   0.7226   age116_m52            0.0000     5.9241E-01     2.4031   1.3652   101.2322
 27      0.0000     0.0000E+00    0.0000E+00    2.861200E+08  0.00800  9.925E-04    0   0.6683   age125_m52            0.0000     5.2762E-01     2.6157   0.9030   104.3666
 28      5.9993     5.7732E+00    5.9192E+00    9.047900E+08  0.00800  3.141E-04    0   0.6138   age135_m52            0.0000     6.3243E-01     2.9475   0.1251   107.7341
 29      0.0000     0.0000E+00    0.0000E+00    1.434000E+09  0.00800  1.719E-04    0   0.5853   age139_m52            0.0000     7.3582E-01     3.0369  -0.4655   106.1279
 30      0.0000     0.0000E+00    0.0000E+00    2.500000E+09  0.00800  7.872E-05    0   0.5600   age150_m52            0.0000     1.3880E+00     4.0059  -0.7302   103.2346
 31      0.0000     0.0000E+00    0.0000E+00    4.250000E+09  0.00800  4.336E-05    0   0.5426   age158_m52            0.0000     1.5520E+00     4.1134  -0.7481   102.4027
 32      0.0000     0.0000E+00    0.0000E+00    6.250000E+09  0.00800  3.159E-05    0   0.5319   age166_m52            0.0000     2.2589E+00     4.9680  -0.9424   102.1021
 33      0.0000     0.0000E+00    0.0000E+00    1.300000E+10  0.00800  1.361E-05    0   0.5073   age193_m52            0.0000     6.9685E+00     8.7103  -1.0000    86.3036
 34      0.0000     0.0000E+00    0.0000E+00    1.800000E+10  0.00800  9.886E-06    0   0.4990   age213_m52            0.0000     9.6452E+00    10.2817  -1.0000    82.1120
 35      0.0613     1.2009E-03    2.0060E-03    1.000000E+06  0.02000  1.544E-02    0   1.0000   age020_m62            0.0000     2.0528E+00     5.3866   2.6119    92.7243
 36      1.0164     8.1667E-03    1.3448E-02    3.160000E+06  0.02000  3.762E-02    0   0.9858   age045_m62            0.0000     2.0356E+00     5.3822   2.5515    93.5263
 37      0.0000     0.0000E+00    0.0000E+00    5.010000E+06  0.02000  3.296E-02    0   0.9342   age055_m62            0.0000     1.3118E+00     3.9694   2.1989    96.2741
 38     21.8389     5.7201E-01    8.4667E-01    8.710000E+06  0.02000  1.154E-02    0   0.8861   age067_m62            0.0000     2.6133E+00     6.2775   1.1447   104.3870
 39      3.1229     1.2318E-01    1.7432E-01    1.445000E+07  0.02000  7.663E-03    0   0.8472   age078_m62            0.0000     1.1868E+00     3.8909   1.3689   102.6403
 40      0.0000     0.0000E+00    0.0000E+00    2.512000E+07  0.02000  4.532E-03    0   0.8099   age090_m62            0.0000     1.3367E+00     4.0878   1.3638   102.2197
 41      0.0000     2.8294E-06    3.5896E-06    5.500000E+07  0.02000  2.733E-03    0   0.7595   age110_m62            0.0000     7.2677E-01     2.6707   1.3945   101.3225
 42      0.0005     1.0720E-04    1.2508E-04    1.609000E+08  0.02000  1.369E-03    0   0.6985   age120_m62            0.0000     6.1718E-01     2.5193   1.2556   103.0730
 43      0.0004     1.4179E-04    1.5902E-04    2.861200E+08  0.02000  9.013E-04    0   0.6714   age125_m62            0.0000     6.4383E-01     2.8088   1.0177   105.4034
 44      0.0023     1.3992E-03    1.5072E-03    5.088000E+08  0.02000  5.028E-04    0   0.6449   age130_m62            0.0000     7.4942E-01     3.2303   0.6588   107.3601
 45     17.3967     2.1657E+01    2.2353E+01    9.047900E+08  0.02000  2.428E-04    0   0.6179   age135_m62            0.0000     8.0506E-01     3.2444   0.0716   106.8831
 46      0.0508     1.2156E-01    1.1996E-01    1.434000E+09  0.02000  1.263E-04    0   0.5908   age139_m62            0.0000     1.1804E+00     3.6654  -0.3780   105.6272
 47      0.0000     0.0000E+00    0.0000E+00    2.500000E+09  0.02000  5.985E-05    0   0.5673   age150_m62            0.0000     2.0851E+00     4.8379  -0.7395   104.1001
 48      0.0000     0.0000E+00    0.0000E+00    4.250000E+09  0.02000  3.271E-05    0   0.5468   age158_m62            0.0000     3.3887E+00     6.2879  -1.0000   101.4767
 49      0.0000     0.0000E+00    0.0000E+00    1.000000E+10  0.02000  1.360E-05    0   0.5167   age181_m62            0.0000     7.9680E+00     9.2984  -1.0000    88.1139
 50      0.0000     0.0000E+00    0.0000E+00    1.800000E+10  0.02000  7.124E-06    0   0.5013   age213_m62            0.0000     1.2936E+01    11.8833  -1.0000    80.0768
 51      0.0258     3.0051E-04    5.0188E-04    1.000000E+06  0.05000  2.592E-02    0   0.9998   age020_m72            0.0000     2.1596E+00     5.5426   2.5995    92.9135
 52      0.0162     1.0130E-04    1.6206E-04    3.160000E+06  0.05000  4.845E-02    0   0.9577   age045_m72            0.0000     1.8054E+00     4.9359   2.4451    94.2910
 53      0.0000     0.0000E+00    0.0000E+00    5.010000E+06  0.05000  3.072E-02    0   0.9147   age055_m72            0.0000     1.3115E+00     4.1079   1.9609    98.7349
 54      1.6075     3.3395E-02    4.9518E-02    6.610000E+06  0.05000  1.455E-02    0   0.8877   age061_m72            0.0000     5.0167E+00     8.8665   1.1958   105.6459
 55      0.0000     0.0000E+00    0.0000E+00    1.000000E+07  0.05000  9.074E-03    0   0.8524   age070_m72            0.0000     1.7819E+00     4.9308   2.1596    98.1317
 56      0.0000     0.0000E+00    0.0000E+00    2.512000E+07  0.05000  4.250E-03    0   0.7902   age090_m72            0.0000     1.2926E+00     3.8899   1.8618    99.5080
 57      0.0000     0.0000E+00    0.0000E+00    4.000000E+07  0.05000  3.087E-03    0   0.7618   age104_m72            0.0000     1.2974E+00     3.8078   1.6362   100.9737
 58      0.0000     0.0000E+00    0.0000E+00    1.015200E+08  0.05000  1.700E-03    0   0.7096   age116_m72            0.0000     7.2432E-01     2.6848   1.3931   102.8776
 59      0.0083     3.3916E-03    3.7578E-03    2.861200E+08  0.05000  7.384E-04    0   0.6633   age125_m72            0.0000     6.3685E-01     2.9319   0.8952   106.3776
 60     35.6738     2.8235E+01    3.0053E+01    5.088000E+08  0.05000  3.819E-04    0   0.6372   age130_m72            0.0000     7.3242E-01     3.2643   0.4107   107.7749
 61      7.6253     1.3752E+01    1.4035E+01    9.047900E+08  0.05000  1.676E-04    0   0.6110   age135_m72            0.0000     1.7284E+00     4.7263  -0.2838   106.0464
 62      0.6940     2.3739E+00    2.3293E+00    1.434000E+09  0.05000  8.837E-05    0   0.5874   age139_m72            0.0000     2.3449E+00     5.1265  -0.7369   105.4428
 63      0.1920     1.3712E+00    1.2822E+00    2.500000E+09  0.05000  4.233E-05    0   0.5598   age150_m72            0.0000     3.8111E+00     6.7073  -1.0000   102.3288
 64      0.0000     0.0000E+00    0.0000E+00    6.250000E+09  0.05000  1.435E-05    0   0.5249   age166_m72            0.0000     9.9790E+00    10.4608  -1.0000    84.3081
 65      0.0000     0.0000E+00    0.0000E+00    1.300000E+10  0.05000  6.513E-06    0   0.5036   age193_m72            0.0000     1.7659E+01    13.8652  -1.0000    75.4702
 66      0.0000     0.0000E+00    0.0000E+00    1.800000E+10  0.05000  4.527E-06    0   0.4945   age213_m72            0.0000     2.2958E+01    15.7655  -1.0000    70.1120


## Synthesis Results - Average & Chains ##

# j      x_j: min, <> & last-chain-values for 1 ...  7 chains
  1      0.0000      0.1999      0.0000      0.0000      0.1842      0.0000      0.0000      0.0000      0.0000
  2      0.0000      0.2408      0.5904      0.0000      0.0000      0.2541      0.0000      0.0000      0.3585
  3      0.0000      0.1740      0.0000      0.0000      0.4538      0.0000      0.0000      0.4838      0.6691
  4      0.0000      0.1586      0.0000      0.2858      0.0000      0.0000      0.4800      0.0000      0.4088
  5      0.3104      0.2766      0.2052      1.4685      0.0000      0.0000      0.0143      0.0000      0.0000
  6      0.0000      0.3144      0.0000      0.0228      0.5455      0.3251      0.2542      0.0000      0.7400
  7      0.0000      0.6269      1.3347      0.2571      0.0000      0.0000      0.0000      0.0000      0.0000
  8      0.0000      1.2895      1.4693      0.0000      1.7670      1.6897      0.0000      3.3817      1.0407
  9      0.4249      0.3485      0.0000      0.9092      1.1844      0.5447      0.0000      0.9937      0.0000
 10      0.0000      0.3962      0.0000      0.0656      0.7343      0.1864      0.0000      0.5159      0.5570
 11      0.0000      0.7742      2.2781      0.0000      0.0000      0.3341      0.4053      0.0000      0.0000
 12      0.0028      0.7970      0.0000      0.8645      0.0000      0.2570      0.0000      0.0000      0.2680
 13      0.0000      0.4202      0.0000      0.0000      0.0000      0.0000      0.6463      0.0000      0.5985
 14      0.0000      0.0404      0.0000      0.0000      0.0000      0.0000      0.0000      0.0000      0.1577
 15      2.9651      2.2333      2.0102      1.4980      2.3948      2.6347      2.6215      2.4741      3.1127
 16      0.0000      0.2323      0.0444      0.1548      0.1079      0.0000      0.0000      0.1726      0.0000
 17      0.0000      0.1196      0.0000      0.2294      0.8602      0.0000      0.0000      0.0000      0.0000
 18      0.1408      0.4644      0.7377      1.4722      0.0000      1.1117      0.0000      0.3995      0.8400
 19      1.8070      2.3758      2.7240      2.2214      2.4611      3.3263      1.5970      2.4694      2.7418
 20      0.0000      0.2314      0.3328      0.1423      0.0000      0.3878      0.0000      0.0000      0.0000
 21      1.0523      3.6243      2.0104      2.6213      4.2510      3.1464      5.4369      6.2103      3.2685
 22      0.0000      0.7772      0.0000      0.0000      1.2072      0.0016      1.1107      0.3526      2.6003
 23      0.0000      0.3065      0.0000      0.0000      1.1001      0.0000      0.5584      1.8063      1.0133
 24      1.3944      0.5372      0.9555      1.8427      1.8826      0.0000      1.2179      0.0000      0.0000
 25      3.0687      1.3103      0.0000      2.3118      1.3790      1.4258      2.2037      1.0696      0.0000
 26      0.2853      0.4669      0.1679      1.1858      0.0000      0.3990      0.0000      0.0000      0.0000
 27      0.0000      0.9398      0.6466      0.0000      0.0000      1.0661      0.6552      0.0000      0.9427
 28      5.9993      5.1591      6.0793      6.3994      5.5514      5.4539      5.0074      6.1942      4.8815
 29      0.0000      0.2886      0.0000      0.0000      0.2468      0.0000      0.0000      0.1902      0.7065
 30      0.0000      0.0539      0.0000      0.0000      0.0130      0.3324      0.0000      0.0000      0.0000
 31      0.0000      0.0678      0.0372      0.1965      0.0000      0.0000      0.0000      0.0821      0.0000
 32      0.0000      0.0557      0.0000      0.0000      0.0000      0.0000      0.0000      0.1574      0.0000
 33      0.0000      0.0139      0.0000      0.1220      0.0000      0.0000      0.0000      0.0000      0.0000
 34      0.0000      0.0103      0.0000      0.0000      0.0000      0.0000      0.0000      0.0000      0.0000
 35      0.0613      0.2848      0.0000      0.5077      0.0000      0.0000      0.0000      0.3386      0.0000
 36      1.0164      0.3415      1.9268      0.6152      0.0000      0.5685      0.0000      0.0000      0.0000
 37      0.0000      0.1808      0.0000      0.1756      0.0000      0.0000      0.5718      0.9912      0.0000
 38     21.8389     12.3487     13.8624     13.0778     12.4453     14.9521     14.6291     11.8950     15.3663
 39      3.1229      1.6915      1.1511      2.9621      1.7296      0.0000      2.0324      3.2038      0.0000
 40      0.0000      0.6245      0.0000      0.0000      0.6931      1.5044      0.0000      0.6223      0.9925
 41      0.0000      0.3878      0.2736      0.3429      0.1566      0.1629      0.0000      0.1565      1.3714
 42      0.0005      0.3126      0.3102      0.4117      0.2315      1.0231      0.1037      0.0000      0.0000
 43      0.0004      0.3582      0.0000      0.7436      0.0000      0.3024      1.3108      0.2994      0.0298
 44      0.0023      1.1401      0.0000      1.0853      0.2900      0.0710      0.5605      0.8466      1.3255
 45     17.3967     14.2019     13.5367     12.5055     15.9570     16.0645     14.3246     12.7700     13.0435
 46      0.0508      1.3570      1.5835      1.3472      0.5409      1.3934      1.3298      2.1398      1.3792
