###################################################################
## OUTPUT of StarlightChains_v04.for    [Cid@UFSC - 01/Apr/2007] ##
###################################################################

## Some input info
1989A.txt                                [arq_obs]
Base.CB07.vall.4m                        [arq_base]
Masks.EmLines.NEW.gm                     [arq_masks]
StCv04.C11.config                        [arq_config]
   66                                    [N_base]
    0                                    [N_YAV_components = # of components with extra extinction!]
    0                                    [i_FitPowerLaw (1/0 = Yes/No)]
-9.99                                    [alpha_PowerLaw]
CCM                                      [red_law_option]
 1.458241                                [q_norm = A(l_norm)/A(V)]

## (Re)Sampling Parameters
 3741.00                                 [l_ini (A)]
 7218.00                                 [l_fin (A)]
    1.00                                 [dl    (A)]     (OBS: dl_cushion =    50.00 A)

## Normalization info
 4020.00                                 [l_norm (A) - for base]
 4010.00                                 [llow_norm (A) - window for f_obs]
 4060.00                                 [lupp_norm (A) - window for f_obs]
1.092742E-16                             [fobs_norm (in input units)]

## S/N
 3691.00                                 [llow_SN (A) - window for S/N]
 7268.00                                 [lupp_SN (A) - window for S/N]
   6.678                                 [S/N in S/N window]
   7.923                                 [S/N in norm. window]
   6.314                                 [S/N_err in S/N window]
   7.491                                 [S/N_err in norm. window]
  1.0000                                 [fscale_chi2]

## etc...
    -2007213                             [idum_orig]
  2372                                   [NOl_eff]
  2372                                   [Nl_eff]
     0    NSIGMA                         [Ntot_cliped & clip_method]
  1123710                                [Nglobal_steps]
   7                                     [N_chains]
  24                                     [NEX0s_base = N_base in EX0s-fits]
 0   0   1       57   2.0   1.205E+01    [Clip-Bug, RC-Crash & Burn-In warning-flags, n_censored_weights, wei_nsig_threshold & wei_limit]
    12     11.142     10.612      0.529  [idt_all, wdt_TotTime, wdt_UsrTime & wdt_SysTime (sec)]

## Synthesis Results - Best model ##

 1.82113E-01                             [chi2/Nl_eff]
     9.88644                             [adev (%)]

   104.04084                             [sum-of-x (%)]
 1.43237E-16                             [Flux_tot (units of input spectrum!)]
 1.01668E-12                             [Mini_tot (???)]
 5.68898E-13                             [Mcor_tot (???)]

 -29.14                                  [v0_min  (km/s)]
 128.73                                  [vd_min  (km/s)]
 0.1720                                  [AV_min  (mag)]
 0.0000                                  [YAV_min (mag)]

# j     x_j(%)      Mini_j(%)     Mcor_j(%)     age_j(yr)     Z_j      (L/M)_j    YAV?  Mstars   component_j        a/Fe...       SSP_chi2r SSP_adev(%)   SSP_AV   SSP_x(%)
  1      0.0000     0.0000E+00    0.0000E+00    1.000000E+06  0.00400  1.094E-02    0   1.0000   age020_m42            0.0000     3.2846E-01    15.9505   2.6858    89.6606
  2      0.0000     0.0000E+00    0.0000E+00    3.160000E+06  0.00400  4.007E-02    0   0.9999   age045_m42            0.0000     2.6842E-01    13.2310   1.9897    94.5599
  3      0.0000     0.0000E+00    0.0000E+00    5.010000E+06  0.00400  2.539E-02    0   0.9488   age055_m42            0.0000     2.8758E-01    14.0949   2.2948    92.8747
  4      0.0000     0.0000E+00    0.0000E+00    6.610000E+06  0.00400  2.620E-02    0   0.9220   age061_m42            0.0000     2.5811E-01    12.7752   1.9143    94.8695
  5      0.0000     0.0000E+00    0.0000E+00    1.000000E+07  0.00400  1.322E-02    0   0.8862   age070_m42            0.0000     2.5040E-01    13.4315   1.6001    98.3557
  6      4.3807     7.5252E-02    1.1526E-01    1.445000E+07  0.00400  7.883E-03    0   0.8571   age078_m42            0.0000     2.6442E-01    14.0310   1.9230    96.0330
  7      0.0000     0.0000E+00    0.0000E+00    2.512000E+07  0.00400  5.251E-03    0   0.8174   age090_m42            0.0000     2.5338E-01    13.4227   1.4671    99.0484
  8      8.0992     3.0057E-01    4.2171E-01    4.000000E+07  0.00400  3.649E-03    0   0.7851   age104_m42            0.0000     2.4115E-01    12.9147   1.2469    99.5398
  9      2.9926     1.3081E-01    1.7834E-01    5.500000E+07  0.00400  3.098E-03    0   0.7629   age110_m42            0.0000     2.3398E-01    12.1267   1.4205    98.6228
 10      0.8880     5.3972E-02    6.9514E-02    1.015200E+08  0.00400  2.228E-03    0   0.7207   age116_m42            0.0000     2.3150E-01    11.4638   1.4538    98.2199
 11      0.4437     5.4976E-02    6.5315E-02    2.861200E+08  0.00400  1.093E-03    0   0.6648   age125_m42            0.0000     2.3203E-01    11.0755   0.8756   101.5496
 12      0.7684     1.5772E-01    1.7941E-01    5.088000E+08  0.00400  6.597E-04    0   0.6365   age130_m42            0.0000     2.1734E-01    10.1543   0.8856   101.4810
 13     24.3878     1.5490E+01    1.6050E+01    1.434000E+09  0.00400  2.132E-04    0   0.5798   age139_m42            0.0000     1.8697E-01     9.5691  -0.0738   102.9446
 14      1.6180     3.7167E+00    3.5714E+00    4.250000E+09  0.00400  5.895E-05    0   0.5377   age158_m42            0.0000     2.1095E-01    10.5778  -0.5063    98.6546
 15      0.0842     3.2501E-01    3.0272E-01    7.500000E+09  0.00400  3.510E-05    0   0.5212   age171_m42            0.0000     2.3092E-01    10.7340  -0.6855    97.6270
 16      0.9544     6.4459E+00    5.7989E+00    1.300000E+10  0.00400  2.005E-05    0   0.5034   age193_m42            0.0000     2.5614E-01    11.0044  -0.8429    96.7765
 17      0.0000     0.0000E+00    0.0000E+00    1.800000E+10  0.00400  1.525E-05    0   0.4967   age213_m42            0.0000     2.5276E-01    11.0665  -0.8692    96.4775
 18      0.0000     0.0000E+00    0.0000E+00    1.000000E+06  0.00800  1.238E-02    0   1.0000   age020_m52            0.0000     3.2844E-01    15.9422   2.6822    89.8335
 19      0.0000     0.0000E+00    0.0000E+00    3.160000E+06  0.00800  3.074E-02    0   0.9966   age045_m52            0.0000     3.2371E-01    15.4842   2.6091    90.5008
 20      0.0000     0.0000E+00    0.0000E+00    5.010000E+06  0.00800  2.668E-02    0   0.9443   age055_m52            0.0000     2.9174E-01    14.3564   2.3725    92.2498
 21      0.0000     0.0000E+00    0.0000E+00    6.610000E+06  0.00800  2.136E-02    0   0.9177   age061_m52            0.0000     2.2475E-01    13.6204   1.0967    99.6619
 22      1.2625     1.4071E-02    2.2197E-02    1.000000E+07  0.00800  1.215E-02    0   0.8827   age070_m52            0.0000     2.6512E-01    14.0763   1.7658    98.7302
 23      0.0000     0.0000E+00    0.0000E+00    1.445000E+07  0.00800  8.717E-03    0   0.8552   age078_m52            0.0000     2.5811E-01    13.7710   1.8892    97.3226
 24      0.0000     0.0000E+00    0.0000E+00    2.512000E+07  0.00800  5.592E-03    0   0.8162   age090_m52            0.0000     2.5286E-01    13.2854   1.5301   100.2321
 25      0.7673     2.6670E-02    3.7372E-02    4.000000E+07  0.00800  3.896E-03    0   0.7841   age104_m52            0.0000     2.4293E-01    12.6264   1.4544   100.4511
 26      0.0000     0.0000E+00    0.0000E+00    1.015200E+08  0.00800  2.148E-03    0   0.7226   age116_m52            0.0000     2.2840E-01    11.5968   1.4118    99.4399
 27      0.0000     0.0000E+00    0.0000E+00    2.861200E+08  0.00800  9.925E-04    0   0.6683   age125_m52            0.0000     2.1191E-01    10.0014   0.9496   102.4582
 28      0.0000     0.0000E+00    0.0000E+00    9.047900E+08  0.00800  3.141E-04    0   0.6138   age135_m52            0.0000     2.0053E-01     9.3353   0.1823   105.2130
 29      0.0000     0.0000E+00    0.0000E+00    1.434000E+09  0.00800  1.719E-04    0   0.5853   age139_m52            0.0000     2.0257E-01     9.8821  -0.4083   103.5446
 30      0.0000     0.0000E+00    0.0000E+00    2.500000E+09  0.00800  7.872E-05    0   0.5600   age150_m52            0.0000     2.3265E-01    10.2537  -0.6570    99.9501
 31      0.0000     0.0000E+00    0.0000E+00    4.250000E+09  0.00800  4.336E-05    0   0.5426   age158_m52            0.0000     2.4074E-01    10.5216  -0.6718    99.0067
 32      0.0000     0.0000E+00    0.0000E+00    6.250000E+09  0.00800  3.159E-05    0   0.5319   age166_m52            0.0000     2.7520E-01    10.5774  -0.8596    98.3750
 33      0.0000     0.0000E+00    0.0000E+00    1.300000E+10  0.00800  1.361E-05    0   0.5073   age193_m52            0.0000     4.7318E-01    11.3586  -1.0000    85.3452
 34      0.0000     0.0000E+00    0.0000E+00    1.800000E+10  0.00800  9.886E-06    0   0.4990   age213_m52            0.0000     6.0732E-01    12.0981  -1.0000    81.0741
 35      0.0000     0.0000E+00    0.0000E+00    1.000000E+06  0.02000  1.544E-02    0   1.0000   age020_m62            0.0000     3.3048E-01    15.9562   2.6771    90.0864
 36      0.2267     8.1616E-04    1.4378E-03    3.160000E+06  0.02000  3.762E-02    0   0.9858   age045_m62            0.0000     3.2857E-01    15.6125   2.6178    90.8258
 37      0.0000     0.0000E+00    0.0000E+00    5.010000E+06  0.02000  3.296E-02    0   0.9342   age055_m62            0.0000     2.7699E-01    13.3741   2.2632    93.6595
 38      0.0358     4.2041E-04    6.6573E-04    8.710000E+06  0.02000  1.154E-02    0   0.8861   age067_m62            0.0000     4.0807E-01    17.9082   1.1456   104.9251
 39      0.0000     0.0000E+00    0.0000E+00    1.445000E+07  0.02000  7.663E-03    0   0.8472   age078_m62            0.0000     2.8676E-01    14.8999   1.3917   101.9291
 40      0.0000     0.0000E+00    0.0000E+00    2.512000E+07  0.02000  4.532E-03    0   0.8099   age090_m62            0.0000     3.0142E-01    14.7824   1.3830   101.6879
 41      0.0000     0.0000E+00    0.0000E+00    5.500000E+07  0.02000  2.733E-03    0   0.7595   age110_m62            0.0000     2.3908E-01    12.5913   1.4329    99.9246
 42      0.0000     0.0000E+00    0.0000E+00    1.609000E+08  0.02000  1.369E-03    0   0.6985   age120_m62            0.0000     2.2041E-01    10.7270   1.3017   101.2754
 43      0.0000     0.0000E+00    0.0000E+00    2.861200E+08  0.02000  9.013E-04    0   0.6714   age125_m62            0.0000     2.0948E-01     9.6451   1.0679   103.3834
 44      3.2069     8.6369E-01    9.9540E-01    5.088000E+08  0.02000  5.028E-04    0   0.6449   age130_m62            0.0000     2.0236E-01     8.9539   0.7216   104.6402
 45      0.0000     0.0000E+00    0.0000E+00    9.047900E+08  0.02000  2.428E-04    0   0.6179   age135_m62            0.0000     2.0251E-01     9.4226   0.1396   103.8565
 46      0.0000     0.0000E+00    0.0000E+00    1.434000E+09  0.02000  1.263E-04    0   0.5908   age139_m62            0.0000     2.2130E-01     9.9921  -0.3062   102.4165
 47      0.0000     0.0000E+00    0.0000E+00    2.500000E+09  0.02000  5.985E-05    0   0.5673   age150_m62            0.0000     2.6824E-01    10.4762  -0.6575   100.3707
 48      3.9101     1.6187E+01    1.5818E+01    4.250000E+09  0.02000  3.271E-05    0   0.5468   age158_m62            0.0000     3.3410E-01    10.6697  -0.9419    98.6185
 49      0.0000     0.0000E+00    0.0000E+00    1.000000E+10  0.02000  1.360E-05    0   0.5167   age181_m62            0.0000     5.2680E-01    11.4721  -1.0000    87.1384
 50      0.0000     0.0000E+00    0.0000E+00    1.800000E+10  0.02000  7.124E-06    0   0.5013   age213_m62            0.0000     7.8047E-01    12.9698  -1.0000    78.9969
 51      0.0000     0.0000E+00    0.0000E+00    1.000000E+06  0.05000  2.592E-02    0   0.9998   age020_m72            0.0000     3.3801E-01    16.1447   2.6644    90.2873
 52      0.0000     0.0000E+00    0.0000E+00    3.160000E+06  0.05000  4.845E-02    0   0.9577   age045_m72            0.0000     3.1370E-01    14.6160   2.5122    91.5576
 53      0.0000     0.0000E+00    0.0000E+00    5.010000E+06  0.05000  3.072E-02    0   0.9147   age055_m72            0.0000     2.9456E-01    14.9763   1.9919    97.4208
 54      0.0000     0.0000E+00    0.0000E+00    6.610000E+06  0.05000  1.455E-02    0   0.8877   age061_m72            0.0000     6.5724E-01    20.8122   1.1642   107.2602
 55      0.0000     0.0000E+00    0.0000E+00    1.000000E+07  0.05000  9.074E-03    0   0.8524   age070_m72            0.0000     3.6238E-01    15.5776   2.1774    97.0872
 56      0.0000     0.0000E+00    0.0000E+00    2.512000E+07  0.05000  4.250E-03    0   0.7902   age090_m72            0.0000     3.0828E-01    14.0228   1.8855    98.4800
 57      0.0000     0.0000E+00    0.0000E+00    4.000000E+07  0.05000  3.087E-03    0   0.7618   age104_m72            0.0000     3.1010E-01    13.6299   1.6571   100.1243
 58      0.0000     0.0000E+00    0.0000E+00    1.015200E+08  0.05000  1.700E-03    0   0.7096   age116_m72            0.0000     2.3971E-01    11.2437   1.4315   101.4047
 59     11.1147     2.0383E+00    2.4162E+00    2.861200E+08  0.05000  7.384E-04    0   0.6633   age125_m72            0.0000     2.0131E-01     9.1231   0.9510   104.0650
 60     22.0821     7.8300E+00    8.9163E+00    5.088000E+08  0.05000  3.819E-04    0   0.6372   age130_m72            0.0000     1.9644E-01     9.0485   0.4785   104.8390
 61     13.0280     1.0526E+01    1.1494E+01    9.047900E+08  0.05000  1.676E-04    0   0.6110   age135_m72            0.0000     2.5274E-01    10.0584  -0.1987   102.1883
 62      0.0000     0.0000E+00    0.0000E+00    1.434000E+09  0.05000  8.837E-05    0   0.5874   age139_m72            0.0000     2.8297E-01    10.3982  -0.6551   101.6861
 63      0.0000     0.0000E+00    0.0000E+00    2.500000E+09  0.05000  4.233E-05    0   0.5598   age150_m72            0.0000     3.5875E-01    10.9394  -0.9359    99.1670
 64      3.7896     3.5761E+01    3.3546E+01    6.250000E+09  0.05000  1.435E-05    0   0.5249   age166_m72            0.0000     6.3291E-01    12.2479  -1.0000    83.2638
 65      0.0000     0.0000E+00    0.0000E+00    1.300000E+10  0.05000  6.513E-06    0   0.5036   age193_m72            0.0000     1.0387E+00    14.5700  -1.0000    74.3407
 66      0.0000     0.0000E+00    0.0000E+00    1.800000E+10  0.05000  4.527E-06    0   0.4945   age213_m72            0.0000     1.3335E+00    16.1475  -1.0000    68.9919


## Synthesis Results - Average & Chains ##

# j      x_j: min, <> & last-chain-values for 1 ...  7 chains
  1      0.0000      0.3797      0.0063      0.0000      0.0000      0.0000      2.1690      0.0000      0.0000
  2      0.0000      0.2727      0.0000      0.0000      0.0000      0.0000      0.3384      0.8103      0.4163
  3      0.0000      0.4397      0.0000      0.0000      0.0000      0.1175      0.0000      0.0000      0.0000
  4      0.0000      0.4695      0.1039      0.0000      0.0000      0.0000      0.5304      0.0000      5.5870
  5      0.0000      0.6871      0.0000      0.0000      0.0000      0.0000      0.0000      0.0000      0.0000
  6      4.3807      0.2741      0.0000      0.0000      1.1602      0.0000      0.0000      0.0000      0.0000
  7      0.0000      0.9432      1.9151      3.4596      0.0000      3.2625      0.0000      0.6661      0.0000
  8      8.0992      2.3753      3.6719      0.0000      2.0312      3.4037      1.9624      2.2097      4.3019
  9      2.9926      1.4607      0.0000      0.0000      1.9214      1.8670      5.3057      0.0000      4.3949
 10      0.8880      0.9785      0.0000      3.3810      3.2299      0.2699      0.0000      0.0000      0.1584
 11      0.4437      1.7565      0.0000      0.0000      0.8169      3.9801      0.0000      0.0000      0.0000
 12      0.7684      2.9706      3.8210      0.0000      7.4010      2.2056      0.0000      1.3134      0.0000
 13     24.3878      7.8243      8.4328      8.2297      8.6108      7.7254     19.1706     10.4006      8.3868
 14      1.6180      0.7139      0.0000      0.0000      2.9126      0.5720      0.5674      4.0205      0.0000
 15      0.0842      2.1937      0.0000      2.0832      1.5331      3.9935      0.0000      2.2881      5.3608
 16      0.9544      0.2231      0.0000      0.5519      1.0835      0.7107      1.0690      0.0000      0.0000
 17      0.0000      0.2100      0.0000      0.0000      0.0000      0.0000      0.1811      2.3091      0.0000
 18      0.0000      0.2652      0.0000      0.0000      0.0000      0.0000      0.0000      1.1496      0.3377
 19      0.0000      0.3907      0.0000      1.6585      0.0000      0.0000      0.0000      0.3938      0.0000
 20      0.0000      0.5232      0.0000      0.0000      0.0000      0.0000      0.0000      1.5882      0.0000
 21      0.0000      1.0472      5.3009      0.0000      0.0000      1.0977      0.7919      1.9866      0.1864
 22      1.2625      0.3765      0.5694      0.3658      1.5269      0.0000      0.0000      0.0000      0.0000
 23      0.0000      0.4971      0.0000      1.1087      0.0000      0.0000      0.0000      0.0000      0.0000
 24      0.0000      0.9445      1.7224      0.5457      0.0000      4.8782      0.2516      0.0000      0.0000
 25      0.7673      0.9386      0.0000      0.0000      4.5812      0.0000      0.0000      0.0000      0.0000
 26      0.0000      1.4385      0.6657      2.9650      0.0000      0.4013      5.7544      3.0373      0.0000
 27      0.0000      2.8788      4.8396      1.9446      0.0000      4.6278      7.0939      4.2195      0.0000
 28      0.0000      5.6821      3.2265      0.0000      1.4358      0.0000      0.0000      0.0000      0.0000
 29      0.0000      0.8421      0.0000      1.6107      0.0000      0.0000      2.8246      3.2398      0.0000
 30      0.0000      0.6971      1.2748      1.1200      0.7451      0.3733      0.0000      0.0000      0.0000
 31      0.0000      0.4825      0.0000      1.1049      0.1777      0.0000      1.0271      0.2323      0.4630
 32      0.0000      0.1916      0.0000      0.0000      0.0000      0.0000      0.0000      0.0000      0.0977
 33      0.0000      0.5384      0.0000      0.6453      0.0000      0.0000      1.7274      0.0000      0.0000
 34      0.0000      0.0642      0.0000      0.0000      0.0000      0.0000      0.3657      0.0000      0.0000
 35      0.0000      0.2381      0.0000      0.0000      0.0000      0.0000      0.0000      0.0000      0.0000
 36      0.2267      0.5004      0.1689      2.6224      1.3973      0.0000      0.0000      0.0000      0.0000
 37      0.0000      0.2508      0.0000      0.7268      0.2543      0.0000      0.0000      0.0000      0.0000
 38      0.0358      0.6113      0.0000      0.0000      2.7578      0.4271      0.0000      0.0000      1.8761
 39      0.0000      0.8476      0.5816      0.0000      0.0000      1.0603      0.0000      1.2421      0.0000
 40      0.0000      0.7125      1.9812      0.0000      0.2210      3.1316      0.0000      1.9684      0.0000
 41      0.0000      0.6995      0.0000      0.0000      0.0000      0.6383      2.4874      0.4070      0.0000
 42      0.0000      1.1769      3.6233      4.3966      0.0000      0.0000      1.4317      2.4801      0.0000
 43      0.0000      1.2241      0.0000      0.0000      0.0000      0.4470      0.0000      6.1748     14.2206
 44      3.2069      3.9602      4.5956      3.1881     12.5282      9.1000      0.0000      3.6529      7.6860
 45      0.0000      7.4299      9.1249      7.2138      0.9311      8.8408      1.8174      5.9207      8.3369
 46      0.0000      2.1679      1.3726      0.2719      1.4526      2.8445      1.0926      6.1936      0.0000
