###################################################################
## OUTPUT of StarlightChains_v04.for    [Cid@UFSC - 01/Apr/2007] ##
###################################################################

## Some input info
1989R.txt                                [arq_obs]
Base.CB07.vall.4m                        [arq_base]
Masks.EmLines.NEW.gm                     [arq_masks]
StCv04.C11.config                        [arq_config]
   66                                    [N_base]
    0                                    [N_YAV_components = # of components with extra extinction!]
    0                                    [i_FitPowerLaw (1/0 = Yes/No)]
-9.99                                    [alpha_PowerLaw]
CCM                                      [red_law_option]
 1.458241                                [q_norm = A(l_norm)/A(V)]

## (Re)Sampling Parameters
 3741.00                                 [l_ini (A)]
 7218.00                                 [l_fin (A)]
    1.00                                 [dl    (A)]     (OBS: dl_cushion =    50.00 A)

## Normalization info
 4020.00                                 [l_norm (A) - for base]
 4010.00                                 [llow_norm (A) - window for f_obs]
 4060.00                                 [lupp_norm (A) - window for f_obs]
5.044456E-17                             [fobs_norm (in input units)]

## S/N
 3691.00                                 [llow_SN (A) - window for S/N]
 7268.00                                 [lupp_SN (A) - window for S/N]
   3.767                                 [S/N in S/N window]
   3.574                                 [S/N in norm. window]
   3.534                                 [S/N_err in S/N window]
   3.353                                 [S/N_err in norm. window]
  1.0000                                 [fscale_chi2]

## etc...
    -2007214                             [idum_orig]
  2324                                   [NOl_eff]
  2147                                   [Nl_eff]
   177    NSIGMA                         [Ntot_cliped & clip_method]
   967470                                [Nglobal_steps]
   7                                     [N_chains]
  18                                     [NEX0s_base = N_base in EX0s-fits]
 0   0   1       36   2.0   2.073E+01    [Clip-Bug, RC-Crash & Burn-In warning-flags, n_censored_weights, wei_nsig_threshold & wei_limit]
    12     12.310     11.774      0.536  [idt_all, wdt_TotTime, wdt_UsrTime & wdt_SysTime (sec)]

## Synthesis Results - Best model ##

 3.74599E-01                             [chi2/Nl_eff]
    18.08578                             [adev (%)]

    93.90672                             [sum-of-x (%)]
 9.21806E-17                             [Flux_tot (units of input spectrum!)]
 8.04116E-13                             [Mini_tot (???)]
 4.63194E-13                             [Mcor_tot (???)]

 113.97                                  [v0_min  (km/s)]
 176.28                                  [vd_min  (km/s)]
 0.4957                                  [AV_min  (mag)]
 0.0000                                  [YAV_min (mag)]

# j     x_j(%)      Mini_j(%)     Mcor_j(%)     age_j(yr)     Z_j      (L/M)_j    YAV?  Mstars   component_j        a/Fe...       SSP_chi2r SSP_adev(%)   SSP_AV   SSP_x(%)
  1      2.7598     3.0796E-02    5.3462E-02    1.000000E+06  0.00400  1.094E-02    0   1.0000   age020_m42            0.0000     5.0123E-01    18.7040   3.5779    72.6723
  2      0.0000     0.0000E+00    0.0000E+00    3.160000E+06  0.00400  4.007E-02    0   0.9999   age045_m42            0.0000     4.8153E-01    18.7649   2.8027    79.6930
  3      0.0000     0.0000E+00    0.0000E+00    5.010000E+06  0.00400  2.539E-02    0   0.9488   age055_m42            0.0000     4.9233E-01    18.7174   3.1438    76.8327
  4      0.0000     0.0000E+00    0.0000E+00    6.610000E+06  0.00400  2.620E-02    0   0.9220   age061_m42            0.0000     4.9358E-01    18.7526   2.7251    79.8994
  5      0.0000     0.0000E+00    0.0000E+00    1.000000E+07  0.00400  1.322E-02    0   0.8862   age070_m42            0.0000     5.3134E-01    18.8823   2.4369    80.9611
  6      0.0000     0.0000E+00    0.0000E+00    1.445000E+07  0.00400  7.883E-03    0   0.8571   age078_m42            0.0000     5.3293E-01    18.9057   2.7753    78.5391
  7      0.0000     0.0000E+00    0.0000E+00    2.512000E+07  0.00400  5.251E-03    0   0.8174   age090_m42            0.0000     5.3971E-01    18.9604   2.3016    81.4786
  8      0.0000     0.0000E+00    0.0000E+00    4.000000E+07  0.00400  3.649E-03    0   0.7851   age104_m42            0.0000     5.2736E-01    18.8658   2.0650    82.6704
  9      0.0000     0.0000E+00    0.0000E+00    5.500000E+07  0.00400  3.098E-03    0   0.7629   age110_m42            0.0000     5.2115E-01    18.8262   2.2158    83.1781
 10      0.0000     0.0000E+00    0.0000E+00    1.015200E+08  0.00400  2.228E-03    0   0.7207   age116_m42            0.0000     5.2293E-01    18.8175   2.2350    83.6320
 11      0.0000     0.0000E+00    0.0000E+00    2.861200E+08  0.00400  1.093E-03    0   0.6648   age125_m42            0.0000     5.4782E-01    19.0499   1.6311    87.2891
 12      0.0000     0.0000E+00    0.0000E+00    5.088000E+08  0.00400  6.597E-04    0   0.6365   age130_m42            0.0000     5.2425E-01    18.8293   1.6114    88.9850
 13      0.0000     2.2050E-05    2.2195E-05    1.434000E+09  0.00400  2.132E-04    0   0.5798   age139_m42            0.0000     4.4111E-01    18.2363   0.6078    92.7757
 14     10.1779     2.1077E+01    1.9674E+01    4.250000E+09  0.00400  5.895E-05    0   0.5377   age158_m42            0.0000     3.8104E-01    17.9534   0.1561    90.5282
 15      0.0000     0.0000E+00    0.0000E+00    7.500000E+09  0.00400  3.510E-05    0   0.5212   age171_m42            0.0000     3.8588E-01    17.8519  -0.0385    90.5224
 16      0.0000     0.0000E+00    0.0000E+00    1.300000E+10  0.00400  2.005E-05    0   0.5034   age193_m42            0.0000     3.9973E-01    17.7716  -0.2067    90.4156
 17      0.0000     0.0000E+00    0.0000E+00    1.800000E+10  0.00400  1.525E-05    0   0.4967   age213_m42            0.0000     3.9812E-01    17.7896  -0.2287    89.9199
 18      0.0000     0.0000E+00    0.0000E+00    1.000000E+06  0.00800  1.238E-02    0   1.0000   age020_m52            0.0000     5.0105E-01    18.7087   3.5729    72.8722
 19      0.0000     0.0000E+00    0.0000E+00    3.160000E+06  0.00800  3.074E-02    0   0.9966   age045_m52            0.0000     4.9781E-01    18.6912   3.4930    73.6812
 20      0.0000     0.0000E+00    0.0000E+00    5.010000E+06  0.00800  2.668E-02    0   0.9443   age055_m52            0.0000     4.9466E-01    18.6926   3.2321    75.8921
 21      0.0000     0.0000E+00    0.0000E+00    6.610000E+06  0.00800  2.136E-02    0   0.9177   age061_m52            0.0000     4.7128E-01    18.3320   1.9262    82.5870
 22      0.0000     0.0000E+00    0.0000E+00    1.000000E+07  0.00800  1.215E-02    0   0.8827   age070_m52            0.0000     5.5104E-01    19.0791   2.6127    80.6531
 23      0.0000     0.0000E+00    0.0000E+00    1.445000E+07  0.00800  8.717E-03    0   0.8552   age078_m52            0.0000     5.2907E-01    18.9004   2.7347    79.8508
 24      0.0000     0.0000E+00    0.0000E+00    2.512000E+07  0.00800  5.592E-03    0   0.8162   age090_m52            0.0000     5.4632E-01    19.0507   2.3578    82.7006
 25      0.0000     0.0000E+00    0.0000E+00    4.000000E+07  0.00800  3.896E-03    0   0.7841   age104_m52            0.0000     5.3688E-01    19.0253   2.2564    84.1122
 26      0.0000     0.0000E+00    0.0000E+00    1.015200E+08  0.00800  2.148E-03    0   0.7226   age116_m52            0.0000     5.1405E-01    18.8706   2.1907    84.6136
 27      0.0000     0.0000E+00    0.0000E+00    2.861200E+08  0.00800  9.925E-04    0   0.6683   age125_m52            0.0000     5.2912E-01    18.7763   1.6805    89.5576
 28      0.0000     0.0000E+00    0.0000E+00    9.047900E+08  0.00800  3.141E-04    0   0.6138   age135_m52            0.0000     4.3794E-01    18.6015   0.8062    97.9222
 29      0.0000     0.0000E+00    0.0000E+00    1.434000E+09  0.00800  1.719E-04    0   0.5853   age139_m52            0.0000     4.0963E-01    18.3058   0.2357    95.6269
 30      0.0000     0.0000E+00    0.0000E+00    2.500000E+09  0.00800  7.872E-05    0   0.5600   age150_m52            0.0000     3.9204E-01    18.0572  -0.0303    93.7420
 31      0.0000     0.0000E+00    0.0000E+00    4.250000E+09  0.00800  4.336E-05    0   0.5426   age158_m52            0.0000     3.9105E-01    18.0110  -0.0469    92.9861
 32      0.0000     0.0000E+00    0.0000E+00    6.250000E+09  0.00800  3.159E-05    0   0.5319   age166_m52            0.0000     4.1104E-01    18.0261  -0.2566    93.7512
 33      0.0000     0.0000E+00    0.0000E+00    1.300000E+10  0.00800  1.361E-05    0   0.5073   age193_m52            0.0000     4.5415E-01    18.1089  -0.7302    93.8802
 34      0.0000     0.0000E+00    0.0000E+00    1.800000E+10  0.00800  9.886E-06    0   0.4990   age213_m52            0.0000     4.8917E-01    18.3062  -0.8414    93.9827
 35      0.0000     0.0000E+00    0.0000E+00    1.000000E+06  0.02000  1.544E-02    0   1.0000   age020_m62            0.0000     5.0168E-01    18.7071   3.5706    72.9839
 36      1.5150     4.9161E-03    8.4132E-03    3.160000E+06  0.02000  3.762E-02    0   0.9858   age045_m62            0.0000     5.0362E-01    18.6747   3.5085    73.6973
 37      0.0000     0.0000E+00    0.0000E+00    5.010000E+06  0.02000  3.296E-02    0   0.9342   age055_m62            0.0000     4.9328E-01    18.7144   3.0977    78.1113
 38      0.0000     0.0000E+00    0.0000E+00    8.710000E+06  0.02000  1.154E-02    0   0.8861   age067_m62            0.0000     7.3196E-01    20.4675   2.0628    81.1394
 39      0.0000     0.0000E+00    0.0000E+00    1.445000E+07  0.02000  7.663E-03    0   0.8472   age078_m62            0.0000     5.9270E-01    19.4010   2.2477    82.4296
 40      0.0000     0.0000E+00    0.0000E+00    2.512000E+07  0.02000  4.532E-03    0   0.8099   age090_m62            0.0000     6.1943E-01    19.5985   2.2364    82.2015
 41      0.0000     0.0000E+00    0.0000E+00    5.500000E+07  0.02000  2.733E-03    0   0.7595   age110_m62            0.0000     5.3715E-01    18.9405   2.2483    83.1173
 42      0.0000     0.0000E+00    0.0000E+00    1.609000E+08  0.02000  1.369E-03    0   0.6985   age120_m62            0.0000     5.4543E-01    18.8616   2.0732    86.4939
 43      0.0000     0.0000E+00    0.0000E+00    2.861200E+08  0.02000  9.013E-04    0   0.6714   age125_m62            0.0000     5.5222E-01    18.8065   1.8056    90.0523
 44      0.0000     0.0000E+00    0.0000E+00    5.088000E+08  0.02000  5.028E-04    0   0.6449   age130_m62            0.0000     4.9678E-01    18.7476   1.3830    95.4552
 45      0.0000     0.0000E+00    0.0000E+00    9.047900E+08  0.02000  2.428E-04    0   0.6179   age135_m62            0.0000     4.0644E-01    18.5622   0.7517    97.7056
 46      0.0000     0.0000E+00    0.0000E+00    1.434000E+09  0.02000  1.263E-04    0   0.5908   age139_m62            0.0000     3.8972E-01    18.3536   0.3051    96.6897
 47      3.9625     8.0822E+00    7.9598E+00    2.500000E+09  0.02000  5.985E-05    0   0.5673   age150_m62            0.0000     4.0445E-01    18.2152  -0.0568    95.7666
 48      4.5507     1.6983E+01    1.6122E+01    4.250000E+09  0.02000  3.271E-05    0   0.5468   age158_m62            0.0000     4.4187E-01    18.2252  -0.3653    95.7240
 49      0.0000     0.0000E+00    0.0000E+00    1.000000E+10  0.02000  1.360E-05    0   0.5167   age181_m62            0.0000     5.0795E-01    18.6001  -0.7283    96.6790
 50      0.0000     0.0000E+00    0.0000E+00    1.800000E+10  0.02000  7.124E-06    0   0.5013   age213_m62            0.0000     5.6400E-01    19.0399  -0.9435    96.6769
 51      9.5179     4.4826E-02    7.7804E-02    1.000000E+06  0.05000  2.592E-02    0   0.9998   age020_m72            0.0000     5.0406E-01    18.7193   3.5624    72.9652
 52      0.0000     0.0000E+00    0.0000E+00    3.160000E+06  0.05000  4.845E-02    0   0.9577   age045_m72            0.0000     4.9764E-01    18.7159   3.3792    75.2198
 53      0.0000     0.0000E+00    0.0000E+00    5.010000E+06  0.05000  3.072E-02    0   0.9147   age055_m72            0.0000     5.7894E-01    19.3212   2.8485    79.3231
 54      0.0000     0.0000E+00    0.0000E+00    6.610000E+06  0.05000  1.455E-02    0   0.8877   age061_m72            0.0000     1.0291E+00    22.4355   2.0842    81.9825
 55      0.0000     0.0000E+00    0.0000E+00    1.000000E+07  0.05000  9.074E-03    0   0.8524   age070_m72            0.0000     6.6142E-01    19.8339   3.0250    79.3561
 56      0.0000     0.0000E+00    0.0000E+00    2.512000E+07  0.05000  4.250E-03    0   0.7902   age090_m72            0.0000     6.1951E-01    19.6880   2.7110    81.3051
 57      0.0000     0.0000E+00    0.0000E+00    4.000000E+07  0.05000  3.087E-03    0   0.7618   age104_m72            0.0000     6.3926E-01    19.8221   2.4744    82.8417
 58      0.0000     0.0000E+00    0.0000E+00    1.015200E+08  0.05000  1.700E-03    0   0.7096   age116_m72            0.0000     5.7112E-01    19.1409   2.2167    85.7539
 59      0.0000     0.0000E+00    0.0000E+00    2.861200E+08  0.05000  7.384E-04    0   0.6633   age125_m72            0.0000     5.3427E-01    18.8283   1.6526    92.6652
 60      0.0000     0.0000E+00    0.0000E+00    5.088000E+08  0.05000  3.819E-04    0   0.6372   age130_m72            0.0000     4.4034E-01    18.6647   1.1150    97.2606
 61     52.6786     3.8369E+01    4.0699E+01    9.047900E+08  0.05000  1.676E-04    0   0.6110   age135_m72            0.0000     3.9556E-01    18.6541   0.3927    97.9266
 62      6.5286     9.0186E+00    9.1966E+00    1.434000E+09  0.05000  8.837E-05    0   0.5874   age139_m72            0.0000     4.1221E-01    18.4722  -0.0753    98.1680
 63      2.2155     6.3893E+00    6.2093E+00    2.500000E+09  0.05000  4.233E-05    0   0.5598   age150_m72            0.0000     4.5604E-01    18.4602  -0.3724    97.0576
 64      0.0000     0.0000E+00    0.0000E+00    6.250000E+09  0.05000  1.435E-05    0   0.5249   age166_m72            0.0000     5.1918E-01    18.8280  -0.8240    96.4188
 65      0.0000     0.0000E+00    0.0000E+00    1.300000E+10  0.05000  6.513E-06    0   0.5036   age193_m72            0.0000     6.0423E-01    18.7941  -1.0000    93.2319
 66      0.0000     0.0000E+00    0.0000E+00    1.800000E+10  0.05000  4.527E-06    0   0.4945   age213_m72            0.0000     7.0334E-01    18.5085  -1.0000    86.3683


## Synthesis Results - Average & Chains ##

# j      x_j: min, <> & last-chain-values for 1 ...  7 chains
  1      2.7598      0.5421      1.0764      1.0591      0.0000      0.3329      0.4683      1.2043      0.3818
  2      0.0000      0.2629      1.5972      0.0000      0.0000      0.0000      1.4336      0.0000      0.0000
  3      0.0000      0.3857      0.0000      0.0000      0.0000      0.0000      0.0000      1.1245      0.0000
  4      0.0000      0.1847      1.7615      0.0588      0.0000      1.2502      0.0000      0.0000      0.0000
  5      0.0000      0.6351      0.0000      0.2790      0.0000      0.3269      2.9342      0.0000      0.6119
  6      0.0000      0.5208      0.0000      0.0000      0.0000      2.8627      0.0000      0.0000      0.0623
  7      0.0000      0.2455      0.0000      0.0000      0.0000      0.0000      0.0000      0.0000      0.0000
  8      0.0000      0.6303      0.0000      1.7116      0.0000      1.5613      0.2392      0.0000      0.0000
  9      0.0000      0.3650      0.0000      0.0119      0.6081      0.0000      0.0000      0.0000      0.0000
 10      0.0000      0.3786      0.1827      0.0000      0.0000      0.0000      0.0000      0.0000      0.0000
 11      0.0000      0.6591      0.0000      0.0000      0.5492      0.0000      0.0000      0.0000      0.0000
 12      0.0000      0.3668      0.0000      0.0000      0.0000      0.0000      0.0000      1.9250      0.0000
 13      0.0000      1.7539      0.0000      1.0300      0.3507      0.0000      0.1525      0.0000      0.0000
 14     10.1779      6.1583      7.7397     10.0250     12.7679      1.2468      0.0000      4.9843     10.5058
 15      0.0000      3.2203      2.7880      0.0000      5.3054      9.0439      0.0000      5.0728      4.0596
 16      0.0000      0.6656      2.5931      0.0000      0.1154      2.6865      0.4716      0.5639      0.7372
 17      0.0000      0.9469      0.0000      0.0000      0.0000      0.0000      0.0000      0.2047      0.0000
 18      0.0000      0.4913      0.0000      0.0000      0.0000      1.9526      0.0000      0.0000      0.0000
 19      0.0000      0.2334      0.0000      0.0000      1.4408      0.0000      0.0000      0.0000      2.0422
 20      0.0000      0.3152      0.0000      1.0312      2.1756      0.0000      0.0000      0.1422      1.6837
 21      0.0000      0.8467      0.0000      0.3645      1.1129      3.1492      0.2024      1.7372      1.8445
 22      0.0000      0.1716      0.1274      0.0000      0.0000      0.0000      0.3527      0.2008      0.0000
 23      0.0000      0.7247      0.0000      0.7535      0.0000      0.0000      2.5766      0.0000      0.0000
 24      0.0000      0.3670      1.9469      0.0000      0.0000      2.4283      1.4424      0.0000      1.1914
 25      0.0000      0.2584      0.0000      0.0000      0.0000      0.0000      0.0000      0.0000      0.0000
 26      0.0000      0.2014      0.0000      1.0245      0.0000      0.0000      0.0000      0.0000      0.7194
 27      0.0000      0.1502      0.0000      0.0000      0.0000      0.0000      0.0000      0.0000      0.0000
 28      0.0000      0.6663      0.0000      0.0000      0.0000      0.0000      0.0000      0.0000      0.0000
 29      0.0000      1.1621      0.0000      0.0000      0.0000      0.0000      0.5005      3.6569      0.0000
 30      0.0000      1.2692      1.0635      0.0000      2.8217      0.0000      2.5379      0.4857      0.0000
 31      0.0000      2.1391      0.0000      0.0000      0.0200      3.4397      5.5408      0.0000      1.9652
 32      0.0000      1.4011      0.7853      0.9680      0.0000      3.5057      2.3982      2.4953      1.0913
 33      0.0000      0.1137      0.0000      0.0000      0.0000      0.0000      0.0000      0.0000      0.0000
 34      0.0000      0.0758      0.0000      0.0000      0.0000      0.0000      0.0000      0.0000      0.0000
 35      0.0000      0.8753      1.6510      0.0000      0.0000      1.8972      4.4428      1.1582      0.9696
 36      1.5150      0.4512      0.0000      3.9652      0.9685      0.0000      0.0000      2.3783      0.0000
 37      0.0000      0.2363      0.0000      1.3205      0.0000      0.0000      0.0000      0.0000      0.0000
 38      0.0000      0.5230      1.4927      0.0000      1.8333      0.0000      0.0000      0.0000      0.0000
 39      0.0000      0.2864      0.0000      0.0000      0.0000      1.2233      0.0000      0.0000      0.0000
 40      0.0000      0.2398      0.0000      0.0000      0.0000      0.0000      0.0000      0.0000      1.7888
 41      0.0000      0.7149      0.0000      0.3447      0.0000      0.0000      0.0000      0.0000      3.0566
 42      0.0000      0.3598      0.0000      0.2405      0.0000      0.0000      0.0000      0.0932      0.0000
 43      0.0000      0.4052      0.0000      0.0000      0.0000      0.0000      0.0000      0.0000      0.0000
 44      0.0000      0.3924      0.0000      0.0000      0.0000      2.0465      0.0000      0.0000      0.0000
 45      0.0000      1.8074      0.0000      0.0000      0.0000      1.0705      0.6516      2.0134      0.6273
 46      0.0000      6.2849      4.7933      2.6619      0.0000      0.2988      0.0000      0.0000      4.6298
