###################################################################
## OUTPUT of StarlightChains_v04.for    [Cid@UFSC - 01/Apr/2007] ##
###################################################################

## Some input info
1991ak.txt                               [arq_obs]
Base.CB07.vall.4m                        [arq_base]
Masks.EmLines.NEW.gm                     [arq_masks]
StCv04.C11.config                        [arq_config]
   66                                    [N_base]
    0                                    [N_YAV_components = # of components with extra extinction!]
    0                                    [i_FitPowerLaw (1/0 = Yes/No)]
-9.99                                    [alpha_PowerLaw]
CCM                                      [red_law_option]
 1.458241                                [q_norm = A(l_norm)/A(V)]

## (Re)Sampling Parameters
 3741.00                                 [l_ini (A)]
 7218.00                                 [l_fin (A)]
    1.00                                 [dl    (A)]     (OBS: dl_cushion =    50.00 A)

## Normalization info
 4020.00                                 [l_norm (A) - for base]
 4010.00                                 [llow_norm (A) - window for f_obs]
 4060.00                                 [lupp_norm (A) - window for f_obs]
3.064782E-17                             [fobs_norm (in input units)]

## S/N
 3691.00                                 [llow_SN (A) - window for S/N]
 7268.00                                 [lupp_SN (A) - window for S/N]
   6.177                                 [S/N in S/N window]
   5.925                                 [S/N in norm. window]
  10.000                                 [S/N_err in S/N window]
   9.591                                 [S/N_err in norm. window]
  1.0000                                 [fscale_chi2]

## etc...
    -2007215                             [idum_orig]
  2384                                   [NOl_eff]
  2318                                   [Nl_eff]
    66    NSIGMA                         [Ntot_cliped & clip_method]
   690830                                [Nglobal_steps]
   7                                     [N_chains]
  13                                     [NEX0s_base = N_base in EX0s-fits]
 0   0   1       34   2.0   1.883E+01    [Clip-Bug, RC-Crash & Burn-In warning-flags, n_censored_weights, wei_nsig_threshold & wei_limit]
    11     11.334     10.801      0.533  [idt_all, wdt_TotTime, wdt_UsrTime & wdt_SysTime (sec)]

## Synthesis Results - Best model ##

 8.96667E-01                             [chi2/Nl_eff]
     7.50787                             [adev (%)]

   110.19662                             [sum-of-x (%)]
 6.16881E-17                             [Flux_tot (units of input spectrum!)]
 2.79498E-13                             [Mini_tot (???)]
 1.71542E-13                             [Mcor_tot (???)]

-211.68                                  [v0_min  (km/s)]
 140.59                                  [vd_min  (km/s)]
 0.4485                                  [AV_min  (mag)]
 0.0000                                  [YAV_min (mag)]

# j     x_j(%)      Mini_j(%)     Mcor_j(%)     age_j(yr)     Z_j      (L/M)_j    YAV?  Mstars   component_j        a/Fe...       SSP_chi2r SSP_adev(%)   SSP_AV   SSP_x(%)
  1      0.0000     0.0000E+00    0.0000E+00    1.000000E+06  0.00400  1.094E-02    0   1.0000   age020_m42            0.0000     1.6735E+00     9.8041   3.2180    89.0314
  2      0.0000     0.0000E+00    0.0000E+00    3.160000E+06  0.00400  4.007E-02    0   0.9999   age045_m42            0.0000     1.3584E+00     9.0668   2.4679    96.1617
  3      0.0000     0.0000E+00    0.0000E+00    5.010000E+06  0.00400  2.539E-02    0   0.9488   age055_m42            0.0000     1.5026E+00     9.3932   2.8019    93.2142
  4      0.0000     0.0000E+00    0.0000E+00    6.610000E+06  0.00400  2.620E-02    0   0.9220   age061_m42            0.0000     1.3756E+00     9.1112   2.3962    96.2536
  5      0.0000     0.0000E+00    0.0000E+00    1.000000E+07  0.00400  1.322E-02    0   0.8862   age070_m42            0.0000     1.5597E+00     9.6853   2.1198    97.6906
  6      0.0000     0.0000E+00    0.0000E+00    1.445000E+07  0.00400  7.883E-03    0   0.8571   age078_m42            0.0000     1.6288E+00     9.8090   2.4524    95.0126
  7      0.0000     0.0000E+00    0.0000E+00    2.512000E+07  0.00400  5.251E-03    0   0.8174   age090_m42            0.0000     1.5918E+00     9.8095   1.9888    98.2103
  8      0.0000     0.0000E+00    0.0000E+00    4.000000E+07  0.00400  3.649E-03    0   0.7851   age104_m42            0.0000     1.5022E+00     9.5853   1.7545    99.3952
  9      0.0000     0.0000E+00    0.0000E+00    5.500000E+07  0.00400  3.098E-03    0   0.7629   age110_m42            0.0000     1.3967E+00     9.2366   1.9033    99.7727
 10      0.0000     0.0000E+00    0.0000E+00    1.015200E+08  0.00400  2.228E-03    0   0.7207   age116_m42            0.0000     1.3415E+00     9.0305   1.9202   100.2115
 11      0.0000     0.0000E+00    0.0000E+00    2.861200E+08  0.00400  1.093E-03    0   0.6648   age125_m42            0.0000     1.3385E+00     9.0648   1.3392   103.5835
 12     35.5483     1.0793E+01    1.1193E+01    5.088000E+08  0.00400  6.597E-04    0   0.6365   age130_m42            0.0000     1.2140E+00     8.6341   1.3209   105.0747
 13      0.0000     0.0000E+00    0.0000E+00    1.434000E+09  0.00400  2.132E-04    0   0.5798   age139_m42            0.0000     1.0041E+00     7.9564   0.3316   108.3175
 14      0.0000     0.0000E+00    0.0000E+00    4.250000E+09  0.00400  5.895E-05    0   0.5377   age158_m42            0.0000     9.9183E-01     7.7560  -0.1105   104.5535
 15      0.0000     0.0000E+00    0.0000E+00    7.500000E+09  0.00400  3.510E-05    0   0.5212   age171_m42            0.0000     1.0342E+00     7.7571  -0.3018   104.1361
 16      0.0000     0.0000E+00    0.0000E+00    1.300000E+10  0.00400  2.005E-05    0   0.5034   age193_m42            0.0000     1.1075E+00     7.8507  -0.4669   103.6755
 17      0.0000     0.0000E+00    0.0000E+00    1.800000E+10  0.00400  1.525E-05    0   0.4967   age213_m42            0.0000     1.1006E+00     7.8398  -0.4889   103.1430
 18      0.0000     0.0000E+00    0.0000E+00    1.000000E+06  0.00800  1.238E-02    0   1.0000   age020_m52            0.0000     1.6696E+00     9.8047   3.2143    89.2085
 19      0.0000     0.0000E+00    0.0000E+00    3.160000E+06  0.00800  3.074E-02    0   0.9966   age045_m52            0.0000     1.6400E+00     9.7352   3.1361    90.0789
 20      0.0000     0.0000E+00    0.0000E+00    5.010000E+06  0.00800  2.668E-02    0   0.9443   age055_m52            0.0000     1.5439E+00     9.4992   2.8877    92.2470
 21      0.0000     0.0000E+00    0.0000E+00    6.610000E+06  0.00800  2.136E-02    0   0.9177   age061_m52            0.0000     1.4338E+00     9.3053   1.6128    99.2802
 22      0.0000     0.0000E+00    0.0000E+00    1.000000E+07  0.00800  1.215E-02    0   0.8827   age070_m52            0.0000     1.6737E+00     9.9904   2.3016    97.2366
 23      0.0000     0.0000E+00    0.0000E+00    1.445000E+07  0.00800  8.717E-03    0   0.8552   age078_m52            0.0000     1.5945E+00     9.7436   2.4154    96.4324
 24      0.0000     0.0000E+00    0.0000E+00    2.512000E+07  0.00800  5.592E-03    0   0.8162   age090_m52            0.0000     1.5823E+00     9.7970   2.0495    99.4872
 25      0.0000     0.0000E+00    0.0000E+00    4.000000E+07  0.00800  3.896E-03    0   0.7841   age104_m52            0.0000     1.4817E+00     9.5232   1.9541   100.6840
 26      0.0000     0.0000E+00    0.0000E+00    1.015200E+08  0.00800  2.148E-03    0   0.7226   age116_m52            0.0000     1.3370E+00     9.0842   1.8855   101.0429
 27      0.0000     0.0000E+00    0.0000E+00    2.861200E+08  0.00800  9.925E-04    0   0.6683   age125_m52            0.0000     1.2156E+00     8.6485   1.3830   106.1670
 28      0.0000     0.0000E+00    0.0000E+00    9.047900E+08  0.00800  3.141E-04    0   0.6138   age135_m52            0.0000     1.0085E+00     7.9165   0.5541   112.4950
 29      0.0000     0.0000E+00    0.0000E+00    1.434000E+09  0.00800  1.719E-04    0   0.5853   age139_m52            0.0000     9.8149E-01     7.7740  -0.0222   110.1218
 30      0.0000     0.0000E+00    0.0000E+00    2.500000E+09  0.00800  7.872E-05    0   0.5600   age150_m52            0.0000     9.9321E-01     7.6528  -0.2909   107.5414
 31      0.0000     0.0000E+00    0.0000E+00    4.250000E+09  0.00800  4.336E-05    0   0.5426   age158_m52            0.0000     1.0332E+00     7.7139  -0.3055   106.5161
 32      0.0000     0.0000E+00    0.0000E+00    6.250000E+09  0.00800  3.159E-05    0   0.5319   age166_m52            0.0000     1.1099E+00     7.8283  -0.5131   106.9397
 33      0.0000     0.0000E+00    0.0000E+00    1.300000E+10  0.00800  1.361E-05    0   0.5073   age193_m52            0.0000     1.2738E+00     8.1841  -0.9849   106.6137
 34      0.0000     0.0000E+00    0.0000E+00    1.800000E+10  0.00800  9.886E-06    0   0.4990   age213_m52            0.0000     1.4541E+00     8.5576  -1.0000   102.6556
 35      0.0000     0.0000E+00    0.0000E+00    1.000000E+06  0.02000  1.544E-02    0   1.0000   age020_m62            0.0000     1.6757E+00     9.8279   3.2107    89.4046
 36      0.0000     0.0000E+00    0.0000E+00    3.160000E+06  0.02000  3.762E-02    0   0.9858   age045_m62            0.0000     1.6743E+00     9.8151   3.1515    90.1413
 37      0.0000     0.0000E+00    0.0000E+00    5.010000E+06  0.02000  3.296E-02    0   0.9342   age055_m62            0.0000     1.4335E+00     9.2390   2.7575    94.5995
 38      0.0000     0.0000E+00    0.0000E+00    8.710000E+06  0.02000  1.154E-02    0   0.8861   age067_m62            0.0000     2.5055E+00    12.3533   1.7627    98.6329
 39      0.0000     0.0000E+00    0.0000E+00    1.445000E+07  0.02000  7.663E-03    0   0.8472   age078_m62            0.0000     1.8327E+00    10.4756   1.9445    99.3518
 40      0.0000     0.0000E+00    0.0000E+00    2.512000E+07  0.02000  4.532E-03    0   0.8099   age090_m62            0.0000     1.8941E+00    10.6563   1.9380    98.9468
 41      0.0000     0.0000E+00    0.0000E+00    5.500000E+07  0.02000  2.733E-03    0   0.7595   age110_m62            0.0000     1.5039E+00     9.5499   1.9408    99.7869
 42      0.0000     0.0000E+00    0.0000E+00    1.609000E+08  0.02000  1.369E-03    0   0.6985   age120_m62            0.0000     1.3296E+00     8.9944   1.7635   103.4948
 43      0.0000     0.0000E+00    0.0000E+00    2.861200E+08  0.02000  9.013E-04    0   0.6714   age125_m62            0.0000     1.2444E+00     8.7036   1.4982   107.3242
 44      0.0000     0.0000E+00    0.0000E+00    5.088000E+08  0.02000  5.028E-04    0   0.6449   age130_m62            0.0000     1.0727E+00     8.0702   1.0967   111.7150
 45      0.0000     0.0000E+00    0.0000E+00    9.047900E+08  0.02000  2.428E-04    0   0.6179   age135_m62            0.0000     9.5131E-01     7.6641   0.4984   111.9134
 46      0.0000     0.0000E+00    0.0000E+00    1.434000E+09  0.02000  1.263E-04    0   0.5908   age139_m62            0.0000     9.7269E-01     7.6246   0.0546   110.3978
 47      0.0000     0.0000E+00    0.0000E+00    2.500000E+09  0.02000  5.985E-05    0   0.5673   age150_m62            0.0000     1.0634E+00     7.7480  -0.3131   109.2213
 48      0.0000     0.0000E+00    0.0000E+00    4.250000E+09  0.02000  3.271E-05    0   0.5468   age158_m62            0.0000     1.2199E+00     8.1277  -0.6231   108.7823
 49      0.0000     0.0000E+00    0.0000E+00    1.000000E+10  0.02000  1.360E-05    0   0.5167   age181_m62            0.0000     1.5136E+00     8.8292  -0.9794   108.9520
 50      0.0000     0.0000E+00    0.0000E+00    1.800000E+10  0.02000  7.124E-06    0   0.5013   age213_m62            0.0000     1.9092E+00     9.6507  -1.0000   100.7841
 51      0.0000     0.0000E+00    0.0000E+00    1.000000E+06  0.05000  2.592E-02    0   0.9998   age020_m72            0.0000     1.7059E+00     9.9177   3.2025    89.4015
 52      0.0000     0.0000E+00    0.0000E+00    3.160000E+06  0.05000  4.845E-02    0   0.9577   age045_m72            0.0000     1.5801E+00     9.5823   3.0298    91.5555
 53      0.0000     0.0000E+00    0.0000E+00    5.010000E+06  0.05000  3.072E-02    0   0.9147   age055_m72            0.0000     1.7825E+00    10.2019   2.5374    95.5396
 54      0.0000     0.0000E+00    0.0000E+00    6.610000E+06  0.05000  1.455E-02    0   0.8877   age061_m72            0.0000     3.3199E+00    14.4407   1.8028    99.1809
 55      0.0000     0.0000E+00    0.0000E+00    1.000000E+07  0.05000  9.074E-03    0   0.8524   age070_m72            0.0000     1.9705E+00    10.6799   2.7169    95.2964
 56      0.0000     0.0000E+00    0.0000E+00    2.512000E+07  0.05000  4.250E-03    0   0.7902   age090_m72            0.0000     1.7680E+00    10.2405   2.4095    97.4260
 57      0.0000     0.0000E+00    0.0000E+00    4.000000E+07  0.05000  3.087E-03    0   0.7618   age104_m72            0.0000     1.7656E+00    10.2822   2.1774    99.1754
 58      0.0000     0.0000E+00    0.0000E+00    1.015200E+08  0.05000  1.700E-03    0   0.7096   age116_m72            0.0000     1.4282E+00     9.3125   1.9084   102.7892
 59      0.0000     0.0000E+00    0.0000E+00    2.861200E+08  0.05000  7.384E-04    0   0.6633   age125_m72            0.0000     1.1413E+00     8.3359   1.3519   109.6687
 60      0.0000     0.0000E+00    0.0000E+00    5.088000E+08  0.05000  3.819E-04    0   0.6372   age130_m72            0.0000     9.5824E-01     7.7168   0.8404   112.8047
 61     74.6483     8.9207E+01    8.8807E+01    9.047900E+08  0.05000  1.676E-04    0   0.6110   age135_m72            0.0000     9.8336E-01     7.6210   0.1380   111.5973
 62      0.0000     0.0000E+00    0.0000E+00    1.434000E+09  0.05000  8.837E-05    0   0.5874   age139_m72            0.0000     1.0884E+00     7.7859  -0.3207   111.2101
 63      0.0000     0.0000E+00    0.0000E+00    2.500000E+09  0.05000  4.233E-05    0   0.5598   age150_m72            0.0000     1.2876E+00     8.2831  -0.6278   109.9942
 64      0.0000     0.0000E+00    0.0000E+00    6.250000E+09  0.05000  1.435E-05    0   0.5249   age166_m72            0.0000     1.5901E+00     9.0294  -1.0000   105.5617
 65      0.0000     0.0000E+00    0.0000E+00    1.300000E+10  0.05000  6.513E-06    0   0.5036   age193_m72            0.0000     2.4006E+00    10.7622  -1.0000    95.5990
 66      0.0000     0.0000E+00    0.0000E+00    1.800000E+10  0.05000  4.527E-06    0   0.4945   age213_m72            0.0000     3.1014E+00    12.2207  -1.0000    89.2813


## Synthesis Results - Average & Chains ##

# j      x_j: min, <> & last-chain-values for 1 ...  7 chains
  1      0.0000      0.2192      3.9272      0.0000      0.0000      0.0000      0.0000      0.0000      0.0000
  2      0.0000      0.3210      0.4255      0.0612      0.0000      0.0000      0.0000      0.0000      0.0000
  3      0.0000      0.1909      0.0000      0.4136      0.0000      1.2328      0.0000      0.0000      0.0000
  4      0.0000      0.3045      0.0000      0.0000      0.9677      0.0000      0.0000      0.0000      0.0000
  5      0.0000      0.3906      0.0000      0.0000      0.0000      0.0000      0.0000      1.9512      0.0000
  6      0.0000      0.0908      0.0000      0.0000      0.0000      0.0000      0.0000      0.0000      0.0000
  7      0.0000      0.1956      0.0000      0.0000      1.3647      0.1871      0.0000      1.6850      0.0000
  8      0.0000      0.3197      0.0000      0.0000      0.0000      0.5345      0.0000      0.0000      0.0000
  9      0.0000      0.3358      0.0000      0.0000      0.1598      0.0000      0.0000      0.0000      0.0000
 10      0.0000      1.1723      0.0000      1.1065      2.0183      4.1779      1.8790      0.0000      0.0000
 11      0.0000      1.0601      1.0168      0.0000      2.8703      0.0000      1.9620      0.0000      1.6244
 12     35.5483      6.7477     11.8099      7.0971      9.3463     13.2996      7.7081     10.2357      7.6279
 13      0.0000      3.5546      4.0981      3.5780      0.3822      0.0000      2.2383      1.2733      8.1540
 14      0.0000      0.3249      0.7634      0.0000      0.1038      0.0000      0.0000      0.0000      0.0000
 15      0.0000      0.4467      0.0000      0.0000      3.7521      0.0547      0.9954      0.0000      0.0000
 16      0.0000      0.2087      0.0000      0.0000      0.2506      0.0000      0.0000      0.0000      0.0000
 17      0.0000      0.3413      0.5977      0.0000      0.0000      1.1278      0.0000      0.0000      0.0000
 18      0.0000      0.0900      0.0000      0.1480      0.0000      0.0000      0.0000      0.0855      0.0000
 19      0.0000      0.1438      0.0000      0.0000      0.0000      0.0000      0.2503      0.0000      0.0000
 20      0.0000      0.1064      0.0000      0.0000      0.0000      0.1478      0.0000      0.0000      0.0000
 21      0.0000      0.3830      0.2411      0.0000      0.0000      0.0000      0.0000      0.2436      0.0000
 22      0.0000      0.2772      0.0000      0.0000      0.0000      0.0000      0.0000      0.0000      0.6127
 23      0.0000      0.2922      0.0000      0.0000      0.0000      0.2132      0.5903      0.0000      0.0000
 24      0.0000      0.3693      0.2735      0.0000      0.0000      0.0000      0.0000      1.5730      0.0000
 25      0.0000      0.3055      0.0000      0.0000      0.0000      0.0000      0.0000      0.0000      0.0000
 26      0.0000      0.2368      0.0000      0.1470      0.0000      0.0000      0.0000      0.0000      0.0000
 27      0.0000      0.5179      0.0000      0.0000      0.0000      0.0000      0.0000      2.9202      0.0000
 28      0.0000      0.8060      0.0000      0.0000      0.0000      0.0000      0.0000      0.0000      0.3797
 29      0.0000      0.6113      0.0000      0.0000      0.0000      0.0000      0.0000      0.0000      0.0000
 30      0.0000      0.5122      0.0000      0.1055      0.0000      0.0000      0.3402      0.0000      0.0000
 31      0.0000      0.4051      0.3707      0.0000      0.0000      0.4306      0.0000      0.0000      0.0000
 32      0.0000      0.1740      0.0000      0.0000      0.0000      0.0000      1.3831      0.0000      0.0000
 33      0.0000      0.1364      0.0000      0.0000      0.0000      0.0000      0.0000      0.0000      0.0000
 34      0.0000      0.0976      0.0000      0.0000      0.0000      0.0000      0.0000      1.1782      0.0000
 35      0.0000      0.1477      0.0000      1.6514      0.0000      0.0000      0.0000      0.0000      0.0000
 36      0.0000      0.2572      0.0000      0.0000      0.0000      0.0000      0.0000      0.0000      0.2158
 37      0.0000      0.1238      0.0000      0.0105      0.0000      0.0000      1.1602      0.0000      0.0000
 38      0.0000      0.1824      0.0000      0.0000      0.0000      0.0000      0.0000      0.0000      0.0000
 39      0.0000      0.2205      0.0000      1.1242      0.1509      0.0000      0.0000      0.0000      0.0000
 40      0.0000      0.1701      0.0000      0.5983      0.0000      0.0000      0.0000      0.0000      0.0000
 41      0.0000      0.2234      0.0000      0.0000      0.0000      0.0000      1.3380      0.0000      0.0000
 42      0.0000      0.4193      0.0000      2.1787      0.0000      0.0000      0.0000      1.1005      1.4887
 43      0.0000      0.6300      0.3856      2.2743      0.0000      1.1055      2.2072      0.0000      0.0000
 44      0.0000      6.1153      8.0294      4.8144      6.5725      4.8212      1.5600      7.0751      4.9853
 45      0.0000      1.8231      0.7093      0.0000      0.0000      1.8329      0.2429      0.0000      0.0000
 46      0.0000      1.8021      0.0000      0.0000      0.0000      0.0000      1.3036      1.4986      1.7404
