###################################################################
## OUTPUT of StarlightChains_v04.for    [Cid@UFSC - 01/Apr/2007] ##
###################################################################

## Some input info
1991N.txt                                [arq_obs]
Base.CB07.vall.4m                        [arq_base]
Masks.EmLines.NEW.gm                     [arq_masks]
StCv04.C11.config                        [arq_config]
   66                                    [N_base]
    0                                    [N_YAV_components = # of components with extra extinction!]
    0                                    [i_FitPowerLaw (1/0 = Yes/No)]
-9.99                                    [alpha_PowerLaw]
CCM                                      [red_law_option]
 1.458241                                [q_norm = A(l_norm)/A(V)]

## (Re)Sampling Parameters
 3741.00                                 [l_ini (A)]
 7218.00                                 [l_fin (A)]
    1.00                                 [dl    (A)]     (OBS: dl_cushion =    50.00 A)

## Normalization info
 4020.00                                 [l_norm (A) - for base]
 4010.00                                 [llow_norm (A) - window for f_obs]
 4060.00                                 [lupp_norm (A) - window for f_obs]
4.465069E-14                             [fobs_norm (in input units)]

## S/N
 3691.00                                 [llow_SN (A) - window for S/N]
 7268.00                                 [lupp_SN (A) - window for S/N]
   3.117                                 [S/N in S/N window]
   5.110                                 [S/N in norm. window]
  10.000                                 [S/N_err in S/N window]
  16.396                                 [S/N_err in norm. window]
  1.0000                                 [fscale_chi2]

## etc...
    -2007217                             [idum_orig]
  2404                                   [NOl_eff]
  2404                                   [Nl_eff]
     0    NSIGMA                         [Ntot_cliped & clip_method]
   719880                                [Nglobal_steps]
   7                                     [N_chains]
  12                                     [NEX0s_base = N_base in EX0s-fits]
 0   0   1       14   2.0   2.836E+01    [Clip-Bug, RC-Crash & Burn-In warning-flags, n_censored_weights, wei_nsig_threshold & wei_limit]
    11     10.489      9.952      0.536  [idt_all, wdt_TotTime, wdt_UsrTime & wdt_SysTime (sec)]

## Synthesis Results - Best model ##

 5.69026E-02                             [chi2/Nl_eff]
     1.40272                             [adev (%)]

   100.09290                             [sum-of-x (%)]
 6.33366E-14                             [Flux_tot (units of input spectrum!)]
 4.29261E-12                             [Mini_tot (???)]
 3.85857E-12                             [Mcor_tot (???)]

  16.71                                  [v0_min  (km/s)]
 437.33                                  [vd_min  (km/s)]
 0.2596                                  [AV_min  (mag)]
 0.0000                                  [YAV_min (mag)]

# j     x_j(%)      Mini_j(%)     Mcor_j(%)     age_j(yr)     Z_j      (L/M)_j    YAV?  Mstars   component_j        a/Fe...       SSP_chi2r SSP_adev(%)   SSP_AV   SSP_x(%)
  1      0.0000     0.0000E+00    0.0000E+00    1.000000E+06  0.00400  1.094E-02    0   1.0000   age020_m42            0.0000     4.0777E-01     5.3689   1.5973    90.0424
  2      0.0000     0.0000E+00    0.0000E+00    3.160000E+06  0.00400  4.007E-02    0   0.9999   age045_m42            0.0000     4.3860E-01     5.4102   0.8672    96.4290
  3      0.0000     0.0000E+00    0.0000E+00    5.010000E+06  0.00400  2.539E-02    0   0.9488   age055_m42            0.0000     3.8253E-01     5.1907   1.1871    94.0760
  4      0.0000     0.0000E+00    0.0000E+00    6.610000E+06  0.00400  2.620E-02    0   0.9220   age061_m42            0.0000     4.1947E-01     5.2004   0.7919    96.7426
  5      2.8197     3.1442E+00    3.0998E+00    1.000000E+07  0.00400  1.322E-02    0   0.8862   age070_m42            0.0000     2.0697E-01     3.4837   0.5096    98.9000
  6      0.0000     0.0000E+00    0.0000E+00    1.445000E+07  0.00400  7.883E-03    0   0.8571   age078_m42            0.0000     2.0124E-01     3.6127   0.8376    96.3347
  7      0.0000     0.0000E+00    0.0000E+00    2.512000E+07  0.00400  5.251E-03    0   0.8174   age090_m42            0.0000     1.9052E-01     3.2229   0.3794    99.4816
  8      0.0000     0.0000E+00    0.0000E+00    4.000000E+07  0.00400  3.649E-03    0   0.7851   age104_m42            0.0000     2.3030E-01     3.4698   0.1512   100.3500
  9      0.0000     0.0000E+00    0.0000E+00    5.500000E+07  0.00400  3.098E-03    0   0.7629   age110_m42            0.0000     3.6218E-01     4.3777   0.3048   100.3232
 10      0.0000     0.0000E+00    0.0000E+00    1.015200E+08  0.00400  2.228E-03    0   0.7207   age116_m42            0.0000     4.8215E-01     4.9538   0.3252   100.4913
 11      0.0000     0.0000E+00    0.0000E+00    2.861200E+08  0.00400  1.093E-03    0   0.6648   age125_m42            0.0000     4.8244E-01     4.4700  -0.2430   103.5242
 12      0.0000     0.0000E+00    0.0000E+00    5.088000E+08  0.00400  6.597E-04    0   0.6365   age130_m42            0.0000     6.8781E-01     5.3891  -0.2511   104.2746
 13      0.0000     0.0000E+00    0.0000E+00    1.434000E+09  0.00400  2.132E-04    0   0.5798   age139_m42            0.0000     1.0002E+00     5.8478  -1.0000    97.9114
 14      0.0000     0.0000E+00    0.0000E+00    4.250000E+09  0.00400  5.895E-05    0   0.5377   age158_m42            0.0000     2.4513E+00    10.9153  -1.0000    78.6607
 15      0.0000     0.0000E+00    0.0000E+00    7.500000E+09  0.00400  3.510E-05    0   0.5212   age171_m42            0.0000     3.4811E+00    13.2911  -1.0000    71.9456
 16      0.0000     0.0000E+00    0.0000E+00    1.300000E+10  0.00400  2.005E-05    0   0.5034   age193_m42            0.0000     4.5122E+00    15.4071  -1.0000    66.3892
 17      0.0000     0.0000E+00    0.0000E+00    1.800000E+10  0.00400  1.525E-05    0   0.4967   age213_m42            0.0000     4.6285E+00    15.7458  -1.0000    65.3974
 18      0.0000     0.0000E+00    0.0000E+00    1.000000E+06  0.00800  1.238E-02    0   1.0000   age020_m52            0.0000     4.0902E-01     5.3797   1.5936    90.2189
 19      0.0000     0.0000E+00    0.0000E+00    3.160000E+06  0.00800  3.074E-02    0   0.9966   age045_m52            0.0000     4.1036E-01     5.3977   1.5160    91.0627
 20      0.0000     0.0000E+00    0.0000E+00    5.010000E+06  0.00800  2.668E-02    0   0.9443   age055_m52            0.0000     3.6841E-01     5.1269   1.2698    93.2253
 21     26.9315     1.8586E+01    1.8975E+01    6.610000E+06  0.00800  2.136E-02    0   0.9177   age061_m52            0.0000     2.0676E-01     3.6388   0.0128    99.8882
 22      1.3150     1.5955E+00    1.5668E+00    1.000000E+07  0.00800  1.215E-02    0   0.8827   age070_m52            0.0000     1.4496E-01     2.8811   0.6900    98.6533
 23      0.0000     0.0000E+00    0.0000E+00    1.445000E+07  0.00800  8.717E-03    0   0.8552   age078_m52            0.0000     1.9652E-01     3.5024   0.8025    97.7038
 24      0.0000     0.0000E+00    0.0000E+00    2.512000E+07  0.00800  5.592E-03    0   0.8162   age090_m52            0.0000     1.8730E-01     3.0809   0.4435   100.6722
 25      0.0000     0.0000E+00    0.0000E+00    4.000000E+07  0.00800  3.896E-03    0   0.7841   age104_m52            0.0000     2.5347E-01     3.5122   0.3559   101.4401
 26      0.0000     0.0000E+00    0.0000E+00    1.015200E+08  0.00800  2.148E-03    0   0.7226   age116_m52            0.0000     3.9400E-01     4.4252   0.2938   101.2753
 27      0.0000     0.0000E+00    0.0000E+00    2.861200E+08  0.00800  9.925E-04    0   0.6683   age125_m52            0.0000     6.9918E-01     5.3278  -0.1861   105.2351
 28      0.0000     0.0000E+00    0.0000E+00    9.047900E+08  0.00800  3.141E-04    0   0.6138   age135_m52            0.0000     1.0444E+00     6.5603  -0.9718   108.9788
 29      0.0000     0.0000E+00    0.0000E+00    1.434000E+09  0.00800  1.719E-04    0   0.5853   age139_m52            0.0000     2.0686E+00     9.5645  -1.0000    86.1330
 30      0.0000     0.0000E+00    0.0000E+00    2.500000E+09  0.00800  7.872E-05    0   0.5600   age150_m52            0.0000     3.4684E+00    13.0320  -1.0000    74.6228
 31      0.0000     0.0000E+00    0.0000E+00    4.250000E+09  0.00800  4.336E-05    0   0.5426   age158_m52            0.0000     3.5561E+00    13.2052  -1.0000    73.4201
 32      0.0000     0.0000E+00    0.0000E+00    6.250000E+09  0.00800  3.159E-05    0   0.5319   age166_m52            0.0000     4.8687E+00    15.7040  -1.0000    66.9787
 33      0.0000     0.0000E+00    0.0000E+00    1.300000E+10  0.00800  1.361E-05    0   0.5073   age193_m52            0.0000     8.1892E+00    21.3525  -1.0000    53.1737
 34      0.0000     0.0000E+00    0.0000E+00    1.800000E+10  0.00800  9.886E-06    0   0.4990   age213_m52            0.0000     9.0682E+00    22.3849  -1.0000    50.2015
 35      0.0000     0.0000E+00    0.0000E+00    1.000000E+06  0.02000  1.544E-02    0   1.0000   age020_m62            0.0000     4.1005E-01     5.3844   1.5891    90.4475
 36      5.7121     2.2383E+00    2.4547E+00    3.160000E+06  0.02000  3.762E-02    0   0.9858   age045_m62            0.0000     4.1255E-01     5.4094   1.5270    91.2930
 37      0.0000     0.0000E+00    0.0000E+00    5.010000E+06  0.02000  3.296E-02    0   0.9342   age055_m62            0.0000     4.2595E-01     5.4042   1.1442    95.3616
 38     51.0331     6.5189E+01    6.4262E+01    8.710000E+06  0.02000  1.154E-02    0   0.8861   age067_m62            0.0000     1.0122E-01     2.2413   0.1450   101.3639
 39      0.0000     0.0000E+00    0.0000E+00    1.445000E+07  0.02000  7.663E-03    0   0.8472   age078_m62            0.0000     8.2711E-02     1.9147   0.3381   100.9007
 40      0.0000     0.0000E+00    0.0000E+00    2.512000E+07  0.02000  4.532E-03    0   0.8099   age090_m62            0.0000     9.0268E-02     1.9290   0.3290   100.7043
 41      0.0000     0.0000E+00    0.0000E+00    5.500000E+07  0.02000  2.733E-03    0   0.7595   age110_m62            0.0000     2.3569E-01     3.4248   0.3376   100.7624
 42      0.0000     0.0000E+00    0.0000E+00    1.609000E+08  0.02000  1.369E-03    0   0.6985   age120_m62            0.0000     5.3608E-01     4.7486   0.1749   103.5747
 43      0.0000     0.0000E+00    0.0000E+00    2.861200E+08  0.02000  9.013E-04    0   0.6714   age125_m62            0.0000     8.0654E-01     5.5976  -0.0734   106.4333
 44      0.0000     0.0000E+00    0.0000E+00    5.088000E+08  0.02000  5.028E-04    0   0.6449   age130_m62            0.0000     1.1494E+00     6.9272  -0.4411   108.7471
 45      0.0000     0.0000E+00    0.0000E+00    9.047900E+08  0.02000  2.428E-04    0   0.6179   age135_m62            0.0000     1.1408E+00     7.0923  -1.0000   107.0338
 46      0.0000     0.0000E+00    0.0000E+00    1.434000E+09  0.02000  1.263E-04    0   0.5908   age139_m62            0.0000     1.9597E+00     8.9970  -1.0000    88.8534
 47      0.0000     0.0000E+00    0.0000E+00    2.500000E+09  0.02000  5.985E-05    0   0.5673   age150_m62            0.0000     3.7237E+00    13.2982  -1.0000    74.9167
 48      0.0000     0.0000E+00    0.0000E+00    4.250000E+09  0.02000  3.271E-05    0   0.5468   age158_m62            0.0000     5.7208E+00    16.9496  -1.0000    64.6251
 49      0.0000     0.0000E+00    0.0000E+00    1.000000E+10  0.02000  1.360E-05    0   0.5167   age181_m62            0.0000     8.2890E+00    20.9423  -1.0000    54.4821
 50      0.0000     0.0000E+00    0.0000E+00    1.800000E+10  0.02000  7.124E-06    0   0.5013   age213_m62            0.0000     9.9131E+00    23.0493  -1.0000    48.7662
 51      7.1918     4.0901E+00    4.5493E+00    1.000000E+06  0.05000  2.592E-02    0   0.9998   age020_m72            0.0000     4.0938E-01     5.3808   1.5817    90.4282
 52      0.0000     0.0000E+00    0.0000E+00    3.160000E+06  0.05000  4.845E-02    0   0.9577   age045_m72            0.0000     4.2389E-01     5.5236   1.4073    92.6251
 53      0.0000     0.0000E+00    0.0000E+00    5.010000E+06  0.05000  3.072E-02    0   0.9147   age055_m72            0.0000     1.5164E-01     3.1482   0.9282    96.8768
 54      5.0896     5.1565E+00    5.0923E+00    6.610000E+06  0.05000  1.455E-02    0   0.8877   age061_m72            0.0000     3.7179E-01     4.4795   0.1962   102.2411
 55      0.0000     0.0000E+00    0.0000E+00    1.000000E+07  0.05000  9.074E-03    0   0.8524   age070_m72            0.0000     2.2043E-01     3.8009   1.1145    96.5582
 56      0.0000     0.0000E+00    0.0000E+00    2.512000E+07  0.05000  4.250E-03    0   0.7902   age090_m72            0.0000     1.9757E-01     3.4279   0.8071    98.6373
 57      0.0000     0.0000E+00    0.0000E+00    4.000000E+07  0.05000  3.087E-03    0   0.7618   age104_m72            0.0000     2.1698E-01     3.3611   0.5769   100.4069
 58      0.0000     0.0000E+00    0.0000E+00    1.015200E+08  0.05000  1.700E-03    0   0.7096   age116_m72            0.0000     4.3791E-01     4.1856   0.3164   103.2201
 59      0.0000     0.0000E+00    0.0000E+00    2.861200E+08  0.05000  7.384E-04    0   0.6633   age125_m72            0.0000     9.9789E-01     6.2860  -0.2007   107.6500
 60      0.0000     0.0000E+00    0.0000E+00    5.088000E+08  0.05000  3.819E-04    0   0.6372   age130_m72            0.0000     1.1734E+00     7.2769  -0.6869   109.0724
 61      0.0000     0.0000E+00    0.0000E+00    9.047900E+08  0.05000  1.676E-04    0   0.6110   age135_m72            0.0000     1.9422E+00     8.9598  -1.0000    92.6324
 62      0.0000     0.0000E+00    0.0000E+00    1.434000E+09  0.05000  8.837E-05    0   0.5874   age139_m72            0.0000     3.8178E+00    13.3964  -1.0000    75.9928
 63      0.0000     0.0000E+00    0.0000E+00    2.500000E+09  0.05000  4.233E-05    0   0.5598   age150_m72            0.0000     5.8138E+00    16.9443  -1.0000    65.1834
 64      0.0000     0.0000E+00    0.0000E+00    6.250000E+09  0.05000  1.435E-05    0   0.5249   age166_m72            0.0000     8.9933E+00    21.9969  -1.0000    51.7691
 65      0.0000     0.0000E+00    0.0000E+00    1.300000E+10  0.05000  6.513E-06    0   0.5036   age193_m72            0.0000     1.1164E+01    24.6866  -1.0000    45.4734
 66      0.0000     0.0000E+00    0.0000E+00    1.800000E+10  0.05000  4.527E-06    0   0.4945   age213_m72            0.0000     1.2405E+01    26.1040  -1.0000    41.8475


## Synthesis Results - Average & Chains ##

# j      x_j: min, <> & last-chain-values for 1 ...  7 chains
  1      0.0000      0.7323      0.4095      0.0000      4.1102      0.0000      0.0000      0.0000      0.0000
  2      0.0000      0.5533      0.0000      0.0000      1.8788      0.0000      0.0000      0.0000      0.0000
  3      0.0000      0.7394      0.0000      0.1820      0.0945      5.2015      4.0168      0.6397      0.0000
  4      0.0000      0.8990      0.0000      0.0000      0.0000      0.0000      0.0000      1.4543      0.0000
  5      2.8197      1.3354      0.0000      0.0000      0.0000      0.0000      0.0000      5.9665      7.4612
  6      0.0000      0.9559      0.0000      0.0000      1.2703      0.0000      0.0000      0.0000      0.0000
  7      0.0000      1.7118      6.8250      0.7142      0.0000      0.0000      0.0000      2.2018      0.0000
  8      0.0000      1.3781      0.0000      0.0000      0.0000      0.0000      0.0000      0.7630      0.1340
  9      0.0000      0.5070      0.0000      0.0000      0.0000      0.3541      1.7168      0.0000      0.0000
 10      0.0000      0.3689      0.0000      2.1285      1.2979      0.0000      0.0000      0.0000      0.0000
 11      0.0000      0.2733      0.0000      0.1012      0.0000      0.0000      0.0000      0.0000      0.0000
 12      0.0000      0.1709      0.0000      0.0000      0.0000      0.0000      0.0000      0.0000      0.7654
 13      0.0000      0.0348      0.0000      0.0000      0.0000      0.0000      0.0000      0.0000      0.0000
 14      0.0000      0.0308      0.0000      0.0000      0.0000      0.0055      0.6233      0.0000      0.0000
 15      0.0000      0.0335      0.0000      0.0000      0.0000      0.0000      0.0000      0.0000      0.5277
 16      0.0000      0.0181      0.0000      0.0000      0.0000      0.1175      0.0000      0.0000      0.0000
 17      0.0000      0.0106      0.0000      0.3393      0.0000      0.0000      0.0000      0.0000      0.0000
 18      0.0000      1.7158      0.0000      0.0000      4.8989      1.3626      8.6752      1.7879      2.9793
 19      0.0000      1.4536      0.0000      1.6482      5.1667      0.0000      0.8482      6.3658      0.3928
 20      0.0000      0.6663      0.0000      1.9491      0.3843      0.0000      0.0000      2.6342      0.0000
 21     26.9315     13.2174     19.6017     19.3869     15.0707     16.4571     15.8599     12.9388     16.8608
 22      1.3150      2.0693      6.0270      5.3146      1.6457      2.0158      3.7402      3.6050      5.2621
 23      0.0000      0.6516      0.8009      0.0000      0.0000      0.0000      0.0000      0.0000      0.1385
 24      0.0000      0.9089      1.0189      0.0000      0.0000      1.6431      0.0000      0.0000      0.0000
 25      0.0000      0.8229      0.0000      0.0000      0.0000      0.0000      0.1752      0.0000      0.0000
 26      0.0000      0.4963      0.0000      0.0000      0.0000      0.0000      0.0000      0.0000      0.0000
 27      0.0000      0.1674      0.0000      0.0000      0.0000      0.1585      0.0000      1.1869      0.0000
 28      0.0000      0.1512      0.0000      0.0000      0.0000      0.0000      0.0000      0.0000      0.0000
 29      0.0000      0.1177      0.0000      0.0000      0.0000      0.0000      0.0836      0.0000      0.0000
 30      0.0000      0.2064      0.0000      0.0000      1.8413      0.0000      0.0000      0.9313      0.0000
 31      0.0000      0.0222      0.0000      0.0000      0.4866      0.0000      0.0000      0.0000      0.0000
 32      0.0000      0.0113      0.0000      0.0000      0.0000      0.0000      0.0857      0.0000      0.0000
 33      0.0000      0.0130      0.1161      0.0000      0.0000      0.0000      0.0000      0.0000      0.0000
 34      0.0000      0.1381      0.0000      0.0000      0.5221      0.0000      0.0000      1.2312      0.0000
 35      0.0000      0.3078      0.0000      0.0000      0.0000      0.0000      0.5542      0.0000      0.0000
 36      5.7121      1.2060      0.0000      5.0541      0.0000      3.3419      1.9312      3.4350      2.3601
 37      0.0000      0.5564      0.0000      1.0980      0.0000      0.0000      0.0000      0.0000      0.0000
 38     51.0331     44.4042     53.6906     50.3167     45.6288     43.5980     46.6531     45.2204     47.0308
 39      0.0000      4.1968      0.0000      1.0173      0.0000      0.0000      3.4245      2.2150      0.0000
 40      0.0000      3.3227      0.0000      0.0000      4.1514      7.8082      2.7885      3.2404      0.0000
 41      0.0000      1.0755      0.0000      0.0000      1.2751      0.8628      1.4017      0.0000      0.0000
 42      0.0000      0.2778      0.0000      0.0000      0.0000      0.0000      0.0000      0.0000      0.0000
 43      0.0000      0.2312      0.0000      0.6962      0.0000      0.0000      0.0000      0.0000      0.0000
 44      0.0000      0.1005      0.0000      0.0000      0.0000      0.0000      0.0000      0.0000      0.0000
 45      0.0000      0.0405      0.0000      0.0000      0.2464      0.0000      0.0000      0.0000      0.0000
 46      0.0000      0.0881      0.0000      0.0000      0.0000      0.0000      0.0000      0.0000      1.1874
