###################################################################
## OUTPUT of StarlightChains_v04.for    [Cid@UFSC - 01/Apr/2007] ##
###################################################################

## Some input info
1991B.txt                                [arq_obs]
Base.CB07.vall.4m                        [arq_base]
Masks.EmLines.NEW.gm                     [arq_masks]
StCv04.C11.config                        [arq_config]
   66                                    [N_base]
    0                                    [N_YAV_components = # of components with extra extinction!]
    0                                    [i_FitPowerLaw (1/0 = Yes/No)]
-9.99                                    [alpha_PowerLaw]
CCM                                      [red_law_option]
 1.458241                                [q_norm = A(l_norm)/A(V)]

## (Re)Sampling Parameters
 3741.00                                 [l_ini (A)]
 7218.00                                 [l_fin (A)]
    1.00                                 [dl    (A)]     (OBS: dl_cushion =    50.00 A)

## Normalization info
 4020.00                                 [l_norm (A) - for base]
 4010.00                                 [llow_norm (A) - window for f_obs]
 4060.00                                 [lupp_norm (A) - window for f_obs]
3.516080E-16                             [fobs_norm (in input units)]

## S/N
 3691.00                                 [llow_SN (A) - window for S/N]
 7268.00                                 [lupp_SN (A) - window for S/N]
   9.380                                 [S/N in S/N window]
  11.694                                 [S/N in norm. window]
  11.742                                 [S/N_err in S/N window]
  14.639                                 [S/N_err in norm. window]
  1.0000                                 [fscale_chi2]

## etc...
    -2007216                             [idum_orig]
  2383                                   [NOl_eff]
  2360                                   [Nl_eff]
    23    NSIGMA                         [Ntot_cliped & clip_method]
  1652770                                [Nglobal_steps]
   7                                     [N_chains]
  25                                     [NEX0s_base = N_base in EX0s-fits]
 0   0   1        2   2.0   2.396E+01    [Clip-Bug, RC-Crash & Burn-In warning-flags, n_censored_weights, wei_nsig_threshold & wei_limit]
    17     17.520     16.975      0.545  [idt_all, wdt_TotTime, wdt_UsrTime & wdt_SysTime (sec)]

## Synthesis Results - Best model ##

 3.05690E-01                             [chi2/Nl_eff]
     3.43024                             [adev (%)]

    96.82019                             [sum-of-x (%)]
 6.61927E-16                             [Flux_tot (units of input spectrum!)]
 4.97648E-12                             [Mini_tot (???)]
 2.62883E-12                             [Mcor_tot (???)]

  -8.92                                  [v0_min  (km/s)]
 159.59                                  [vd_min  (km/s)]
 0.4951                                  [AV_min  (mag)]
 0.0000                                  [YAV_min (mag)]

# j     x_j(%)      Mini_j(%)     Mcor_j(%)     age_j(yr)     Z_j      (L/M)_j    YAV?  Mstars   component_j        a/Fe...       SSP_chi2r SSP_adev(%)   SSP_AV   SSP_x(%)
  1      3.2298     4.0559E-02    7.6780E-02    1.000000E+06  0.00400  1.094E-02    0   1.0000   age020_m42            0.0000     9.6682E-01     6.6893   2.7900    79.9572
  2      0.0000     0.0000E+00    0.0000E+00    3.160000E+06  0.00400  4.007E-02    0   0.9999   age045_m42            0.0000     7.8698E-01     5.7468   2.0391    86.6151
  3      0.0000     0.0000E+00    0.0000E+00    5.010000E+06  0.00400  2.539E-02    0   0.9488   age055_m42            0.0000     8.2938E-01     6.0577   2.3674    84.1205
  4      0.0001     6.3862E-07    1.1146E-06    6.610000E+06  0.00400  2.620E-02    0   0.9220   age061_m42            0.0000     7.5404E-01     5.5513   1.9600    87.0731
  5      0.0000     0.0000E+00    0.0000E+00    1.000000E+07  0.00400  1.322E-02    0   0.8862   age070_m42            0.0000     5.0039E-01     4.3832   1.6540    90.0521
  6      0.0000     0.0000E+00    0.0000E+00    1.445000E+07  0.00400  7.883E-03    0   0.8571   age078_m42            0.0000     5.6317E-01     4.7546   1.9911    87.3111
  7      0.0000     0.0000E+00    0.0000E+00    2.512000E+07  0.00400  5.251E-03    0   0.8174   age090_m42            0.0000     4.6981E-01     4.1821   1.5174    90.8780
  8      0.0018     6.7489E-05    1.0030E-04    4.000000E+07  0.00400  3.649E-03    0   0.7851   age104_m42            0.0000     4.6144E-01     4.1241   1.2876    91.7591
  9      0.0000     0.0000E+00    0.0000E+00    5.500000E+07  0.00400  3.098E-03    0   0.7629   age110_m42            0.0000     5.6915E-01     4.5342   1.4485    91.4313
 10      0.0000     0.0000E+00    0.0000E+00    1.015200E+08  0.00400  2.228E-03    0   0.7207   age116_m42            0.0000     6.7447E-01     4.8783   1.4744    91.3590
 11      0.0000     0.0000E+00    0.0000E+00    2.861200E+08  0.00400  1.093E-03    0   0.6648   age125_m42            0.0000     5.9664E-01     4.3765   0.8898    94.8806
 12      0.0000     0.0000E+00    0.0000E+00    5.088000E+08  0.00400  6.597E-04    0   0.6365   age130_m42            0.0000     7.4726E-01     4.8705   0.8892    95.2379
 13      0.0000     0.0000E+00    0.0000E+00    1.434000E+09  0.00400  2.132E-04    0   0.5798   age139_m42            0.0000     7.1473E-01     5.0004  -0.0859    97.3949
 14      0.0000     0.0000E+00    0.0000E+00    4.250000E+09  0.00400  5.895E-05    0   0.5377   age158_m42            0.0000     8.8411E-01     6.0871  -0.5004    92.4374
 15      3.4089     1.3342E+01    1.3164E+01    7.500000E+09  0.00400  3.510E-05    0   0.5212   age171_m42            0.0000     1.0437E+00     6.6241  -0.6761    91.3198
 16      3.5379     2.4241E+01    2.3101E+01    1.300000E+10  0.00400  2.005E-05    0   0.5034   age193_m42            0.0000     1.2087E+00     7.1262  -0.8290    90.3251
 17      0.0000     0.0000E+00    0.0000E+00    1.800000E+10  0.00400  1.525E-05    0   0.4967   age213_m42            0.0000     1.1706E+00     7.0316  -0.8553    90.0532
 18      2.4208     2.6863E-02    5.0853E-02    1.000000E+06  0.00800  1.238E-02    0   1.0000   age020_m52            0.0000     9.6803E-01     6.7042   2.7872    80.0820
 19      1.9904     8.8951E-03    1.6782E-02    3.160000E+06  0.00800  3.074E-02    0   0.9966   age045_m52            0.0000     9.5597E-01     6.6625   2.7082    80.9027
 20      0.0000     0.0000E+00    0.0000E+00    5.010000E+06  0.00800  2.668E-02    0   0.9443   age055_m52            0.0000     8.3245E-01     6.1204   2.4515    83.2978
 21      0.0000     0.0000E+00    0.0000E+00    6.610000E+06  0.00800  2.136E-02    0   0.9177   age061_m52            0.0000     4.4958E-01     4.3911   1.1588    90.8519
 22      0.0010     1.1756E-05    1.9645E-05    1.000000E+07  0.00800  1.215E-02    0   0.8827   age070_m52            0.0000     4.6900E-01     4.2393   1.8307    89.9790
 23      0.0000     0.0000E+00    0.0000E+00    1.445000E+07  0.00800  8.717E-03    0   0.8552   age078_m52            0.0000     5.2873E-01     4.5921   1.9527    88.7006
 24      0.0000     0.0000E+00    0.0000E+00    2.512000E+07  0.00800  5.592E-03    0   0.8162   age090_m52            0.0000     4.4411E-01     4.0161   1.5772    92.1688
 25      0.0000     0.0000E+00    0.0000E+00    4.000000E+07  0.00800  3.896E-03    0   0.7841   age104_m52            0.0000     4.6490E-01     4.0721   1.4894    92.9109
 26      0.0000     0.0000E+00    0.0000E+00    1.015200E+08  0.00800  2.148E-03    0   0.7226   age116_m52            0.0000     5.7246E-01     4.5222   1.4355    92.4084
 27      0.0000     0.0000E+00    0.0000E+00    2.861200E+08  0.00800  9.925E-04    0   0.6683   age125_m52            0.0000     7.3625E-01     4.8123   0.9519    96.2680
 28     19.6292     8.5853E+00    9.9757E+00    9.047900E+08  0.00800  3.141E-04    0   0.6138   age135_m52            0.0000     8.8350E-01     5.5614   0.1564   100.2331
 29      0.0000     0.0000E+00    0.0000E+00    1.434000E+09  0.00800  1.719E-04    0   0.5853   age139_m52            0.0000     8.3395E-01     5.7056  -0.4171    97.8785
 30      0.0000     0.0000E+00    0.0000E+00    2.500000E+09  0.00800  7.872E-05    0   0.5600   age150_m52            0.0000     1.1381E+00     6.8686  -0.6587    94.0371
 31      0.0000     0.0000E+00    0.0000E+00    4.250000E+09  0.00800  4.336E-05    0   0.5426   age158_m52            0.0000     1.1701E+00     6.9705  -0.6707    92.9957
 32      0.0000     0.0000E+00    0.0000E+00    6.250000E+09  0.00800  3.159E-05    0   0.5319   age166_m52            0.0000     1.4482E+00     7.7559  -0.8584    92.3949
 33      4.4504     4.4923E+01    4.3141E+01    1.300000E+10  0.00800  1.361E-05    0   0.5073   age193_m52            0.0000     2.2437E+00     9.2303  -1.0000    79.8150
 34      0.0000     0.0000E+00    0.0000E+00    1.800000E+10  0.00800  9.886E-06    0   0.4990   age213_m52            0.0000     2.8163E+00    10.2254  -1.0000    75.7016
 35      0.0000     0.0000E+00    0.0000E+00    1.000000E+06  0.02000  1.544E-02    0   1.0000   age020_m62            0.0000     9.7372E-01     6.7379   2.7841    80.2334
 36      0.0000     0.0000E+00    0.0000E+00    3.160000E+06  0.02000  3.762E-02    0   0.9858   age045_m62            0.0000     9.7287E-01     6.7437   2.7228    80.9712
 37      0.0000     0.0000E+00    0.0000E+00    5.010000E+06  0.02000  3.296E-02    0   0.9342   age055_m62            0.0000     8.3898E-01     6.0384   2.3259    85.2475
 38     36.6183     4.3593E-01    7.3123E-01    8.710000E+06  0.02000  1.154E-02    0   0.8861   age067_m62            0.0000     6.2399E-01     4.5245   1.2483    94.1387
 39      0.0000     0.0000E+00    0.0000E+00    1.445000E+07  0.02000  7.663E-03    0   0.8472   age078_m62            0.0000     4.0526E-01     3.8277   1.4626    92.7503
 40      0.0000     0.0000E+00    0.0000E+00    2.512000E+07  0.02000  4.532E-03    0   0.8099   age090_m62            0.0000     4.3091E-01     3.8701   1.4507    92.7177
 41      0.0000     0.0000E+00    0.0000E+00    5.500000E+07  0.02000  2.733E-03    0   0.7595   age110_m62            0.0000     4.7358E-01     4.1228   1.4744    92.1186
 42      0.0000     0.0000E+00    0.0000E+00    1.609000E+08  0.02000  1.369E-03    0   0.6985   age120_m62            0.0000     6.7125E-01     4.6412   1.3164    94.5478
 43      0.0012     1.8436E-04    2.3432E-04    2.861200E+08  0.02000  9.013E-04    0   0.6714   age125_m62            0.0000     8.2696E-01     4.9790   1.0637    97.3900
 44      5.6643     1.5476E+00    1.8894E+00    5.088000E+08  0.02000  5.028E-04    0   0.6449   age130_m62            0.0000     1.0314E+00     5.7925   0.6952    99.5786
 45      5.5752     3.1545E+00    3.6899E+00    9.047900E+08  0.02000  2.428E-04    0   0.6179   age135_m62            0.0000     1.0168E+00     6.2783   0.1154    98.7560
 46      3.3478     3.6415E+00    4.0727E+00    1.434000E+09  0.02000  1.263E-04    0   0.5908   age139_m62            0.0000     1.0865E+00     6.6889  -0.3193    96.8848
 47      0.0000     0.0000E+00    0.0000E+00    2.500000E+09  0.02000  5.985E-05    0   0.5673   age150_m62            0.0000     1.4248E+00     7.7564  -0.6625    94.5387
 48      0.0000     0.0000E+00    0.0000E+00    4.250000E+09  0.02000  3.271E-05    0   0.5468   age158_m62            0.0000     1.8936E+00     9.0326  -0.9435    92.7262
 49      0.0000     0.0000E+00    0.0000E+00    1.000000E+10  0.02000  1.360E-05    0   0.5167   age181_m62            0.0000     2.7855E+00    10.4200  -1.0000    81.5273
 50      0.0000     0.0000E+00    0.0000E+00    1.800000E+10  0.02000  7.124E-06    0   0.5013   age213_m62            0.0000     3.7400E+00    11.7613  -1.0000    73.6992
 51      4.7904     2.5390E-02    4.8055E-02    1.000000E+06  0.05000  2.592E-02    0   0.9998   age020_m72            0.0000     9.8772E-01     6.8013   2.7776    80.1718
 52      0.0000     0.0000E+00    0.0000E+00    3.160000E+06  0.05000  4.845E-02    0   0.9577   age045_m72            0.0000     9.4335E-01     6.5870   2.5995    82.3336
 53      0.0000     0.0000E+00    0.0000E+00    5.010000E+06  0.05000  3.072E-02    0   0.9147   age055_m72            0.0000     5.6430E-01     4.8182   2.0792    87.8911
 54      2.1323     2.0133E-02    3.3833E-02    6.610000E+06  0.05000  1.455E-02    0   0.8877   age061_m72            0.0000     1.2429E+00     6.5626   1.2912    95.4122
 55      0.0000     0.0000E+00    0.0000E+00    1.000000E+07  0.05000  9.074E-03    0   0.8524   age070_m72            0.0000     7.4520E-01     5.5661   2.2706    87.4566
 56      0.0000     0.0000E+00    0.0000E+00    2.512000E+07  0.05000  4.250E-03    0   0.7902   age090_m72            0.0000     5.7956E-01     4.7321   1.9490    89.9673
 57      0.0000     0.0000E+00    0.0000E+00    4.000000E+07  0.05000  3.087E-03    0   0.7618   age104_m72            0.0000     5.6022E-01     4.5342   1.7096    92.0040
 58      0.0000     0.0000E+00    0.0000E+00    1.015200E+08  0.05000  1.700E-03    0   0.7096   age116_m72            0.0000     6.0741E-01     4.3747   1.4524    94.4624
 59      0.0000     0.0000E+00    0.0000E+00    2.861200E+08  0.05000  7.384E-04    0   0.6633   age125_m72            0.0000     9.3317E-01     5.3999   0.9344    98.6274
 60      0.0203     7.3026E-03    8.8088E-03    5.088000E+08  0.05000  3.819E-04    0   0.6372   age130_m72            0.0000     1.0462E+00     6.2553   0.4494    99.9056
 61      0.0000     0.0000E+00    0.0000E+00    9.047900E+08  0.05000  1.676E-04    0   0.6110   age135_m72            0.0000     1.4006E+00     7.7551  -0.2164    96.7955
 62      0.0000     0.0000E+00    0.0000E+00    1.434000E+09  0.05000  8.837E-05    0   0.5874   age139_m72            0.0000     1.5263E+00     8.0164  -0.6656    96.0656
 63      0.0000     0.0000E+00    0.0000E+00    2.500000E+09  0.05000  4.233E-05    0   0.5598   age150_m72            0.0000     2.0660E+00     9.4378  -0.9400    93.3644
 64      0.0000     0.0000E+00    0.0000E+00    6.250000E+09  0.05000  1.435E-05    0   0.5249   age166_m72            0.0000     3.1454E+00    11.0181  -1.0000    77.8142
 65      0.0000     0.0000E+00    0.0000E+00    1.300000E+10  0.05000  6.513E-06    0   0.5036   age193_m72            0.0000     4.5483E+00    12.9478  -1.0000    69.2366
 66      0.0000     0.0000E+00    0.0000E+00    1.800000E+10  0.05000  4.527E-06    0   0.4945   age213_m72            0.0000     5.4852E+00    14.2599  -1.0000    64.1645


## Synthesis Results - Average & Chains ##

# j      x_j: min, <> & last-chain-values for 1 ...  7 chains
  1      3.2298      1.0371      1.3443      2.4966      0.8706      2.1085      1.0123      1.0910      0.9734
  2      0.0000      0.2645      0.0000      0.0000      0.0000      0.0000      2.4733      0.6205      0.0000
  3      0.0000      0.2898      0.0000      1.9221      0.0000      0.0000      0.0000      0.0000      0.0000
  4      0.0001      0.5382      0.0000      0.0000      0.0000      0.2980      0.9151      0.1058      1.0858
  5      0.0000      0.4590      0.7632      0.0000      0.0000      0.5186      0.0000      0.0000      0.0000
  6      0.0000      0.4380      0.0000      0.0000      0.2856      0.4948      0.0000      0.0000      0.2128
  7      0.0000      0.5767      3.1538      0.0000      2.3075      0.4123      0.0000      1.4810      0.0000
  8      0.0018      0.9952      0.0464      0.4488      1.4122      0.5106      0.5770      0.6156      2.0282
  9      0.0000      0.3904      0.0000      0.0000      0.0000      0.0000      0.0000      0.0000      0.0000
 10      0.0000      0.5272      0.0000      3.2353      0.0000      0.0000      0.0000      0.0000      0.0000
 11      0.0000      0.7207      0.3249      0.2111      0.0000      0.2486      0.6138      0.3920      0.0000
 12      0.0000      0.4882      0.0000      0.0000      0.0000      0.0000      0.3985      0.0000      0.0000
 13      0.0000      2.5967      2.3699      1.9987      5.2216      2.0797      1.4019      2.5141      4.0865
 14      0.0000      0.2645      0.0000      0.0000      0.8845      0.0000      0.0000      0.2808      0.2102
 15      3.4089      2.7617      2.0451      2.9784      2.4879      2.0453      2.9618      3.6093      2.8578
 16      3.5379      2.2704      1.9707      2.5801      2.2952      1.8650      2.7100      1.7028      2.6165
 17      0.0000      0.1881      1.1962      0.0000      0.0121      0.0000      0.0000      0.0000      0.0000
 18      2.4208      1.7186      2.1348      0.9516      2.1104      2.8305      2.4102      1.6793      2.2278
 19      1.9904      3.8116      4.6373      4.0380      4.1603      2.2486      3.9884      5.3416      2.0768
 20      0.0000      0.4863      0.0000      0.0000      1.0837      0.0000      1.2661      0.0000      0.0000
 21      0.0000      0.7678      0.0000      0.0000      0.0000      0.0000      0.0000      0.0000      0.7234
 22      0.0010      0.8494      0.0000      1.1207      0.0000      3.5624      1.1248      0.0000      1.4612
 23      0.0000      0.5543      0.0000      0.1464      0.0000      0.0000      2.1556      1.5517      0.0000
 24      0.0000      0.5232      1.0451      0.0000      0.0000      0.5285      0.0000      2.6467      1.1042
 25      0.0000      0.4340      0.0000      0.0987      1.3010      0.0000      0.0000      0.0000      0.0000
 26      0.0000      0.4661      0.0925      0.2294      0.1312      0.7940      0.0000      0.8472      0.0000
 27      0.0000      0.6256      0.0000      0.2162      0.2064      0.0000      0.0000      0.5604      0.0000
 28     19.6292      8.1802      8.8082      7.0939      9.8695     10.1590      9.8054     12.4461     10.4991
 29      0.0000      2.2189      3.3575      2.0894      0.0000      2.3571      2.7756      2.5726      0.0000
 30      0.0000      0.1334      0.0000      0.6977      0.0000      0.0000      0.0000      0.0000      0.1411
 31      0.0000      1.2296      1.0590      2.0141      1.7561      1.8605      1.5610      0.0000      1.6935
 32      0.0000      1.7568      1.1740      1.5321      1.8976      1.7059      1.9208      1.9924      1.3872
 33      4.4504      1.4320      1.8127      1.2628      1.5312      1.7993      0.8996      1.5934      2.1532
 34      0.0000      0.4062      0.0000      0.3298      0.1832      1.0014      0.8495      0.2132      0.0000
 35      0.0000      0.5962      1.3055      2.3309      0.7279      0.4937      0.6218      0.4675      0.0000
 36      0.0000      0.4663      0.7019      0.0000      0.0000      0.2291      0.0000      0.0000      0.0000
 37      0.0000      0.2961      0.7225      1.3707      0.0000      0.0000      0.0000      1.0666      0.0000
 38     36.6183     16.0044     17.5995     17.1597     18.9981     16.3092     18.3030     16.9319     20.5639
 39      0.0000      2.6017      2.8589      1.9998      3.4818      2.7141      3.5585      2.5023      2.6370
 40      0.0000      0.7078      0.0000      0.0657      0.0000      0.2576      0.0000      1.1819      0.0000
 41      0.0000      0.5446      0.0000      0.1250      0.0383      0.0000      0.0000      0.0000      0.0000
 42      0.0000      0.4306      0.0000      0.0000      0.0000      0.0606      0.0000      0.0000      0.0000
 43      0.0012      0.5648      0.0000      0.0000      0.0000      0.1026      0.9472      0.7724      1.1476
 44      5.6643      1.4339      0.0000      2.1129      1.2666      1.0171      1.8913      0.0000      2.1076
 45      5.5752      6.3109      6.7214      9.3637      7.5633      6.6788      7.0490      7.3047      6.4702
 46      3.3478      5.1140      4.9318      4.8633      6.1208      4.8083      6.4407      4.9560      5.3818
