###################################################################
## OUTPUT of StarlightChains_v04.for    [Cid@UFSC - 01/Apr/2007] ##
###################################################################

## Some input info
1992I.txt                                [arq_obs]
Base.CB07.vall.4m                        [arq_base]
Masks.EmLines.NEW.gm                     [arq_masks]
StCv04.C11.config                        [arq_config]
   66                                    [N_base]
    0                                    [N_YAV_components = # of components with extra extinction!]
    0                                    [i_FitPowerLaw (1/0 = Yes/No)]
-9.99                                    [alpha_PowerLaw]
CCM                                      [red_law_option]
 1.458241                                [q_norm = A(l_norm)/A(V)]

## (Re)Sampling Parameters
 3741.00                                 [l_ini (A)]
 7218.00                                 [l_fin (A)]
    1.00                                 [dl    (A)]     (OBS: dl_cushion =    50.00 A)

## Normalization info
 4020.00                                 [l_norm (A) - for base]
 4010.00                                 [llow_norm (A) - window for f_obs]
 4060.00                                 [lupp_norm (A) - window for f_obs]
6.429623E-17                             [fobs_norm (in input units)]

## S/N
 3691.00                                 [llow_SN (A) - window for S/N]
 7268.00                                 [lupp_SN (A) - window for S/N]
   5.696                                 [S/N in S/N window]
   7.171                                 [S/N in norm. window]
  10.000                                 [S/N_err in S/N window]
  12.590                                 [S/N_err in norm. window]
  1.0000                                 [fscale_chi2]

## etc...
    -2007219                             [idum_orig]
  2370                                   [NOl_eff]
  2269                                   [Nl_eff]
   101    NSIGMA                         [Ntot_cliped & clip_method]
   458920                                [Nglobal_steps]
   7                                     [N_chains]
   7                                     [NEX0s_base = N_base in EX0s-fits]
 0   0   1       19   2.0   4.226E+01    [Clip-Bug, RC-Crash & Burn-In warning-flags, n_censored_weights, wei_nsig_threshold & wei_limit]
    11     11.430     10.896      0.534  [idt_all, wdt_TotTime, wdt_UsrTime & wdt_SysTime (sec)]

## Synthesis Results - Best model ##

 6.32643E-01                             [chi2/Nl_eff]
     5.86786                             [adev (%)]

    94.95684                             [sum-of-x (%)]
 1.11988E-16                             [Flux_tot (units of input spectrum!)]
 5.59990E-13                             [Mini_tot (???)]
 3.25168E-13                             [Mcor_tot (???)]

 -98.86                                  [v0_min  (km/s)]
 124.21                                  [vd_min  (km/s)]
 0.4517                                  [AV_min  (mag)]
 0.0000                                  [YAV_min (mag)]

# j     x_j(%)      Mini_j(%)     Mcor_j(%)     age_j(yr)     Z_j      (L/M)_j    YAV?  Mstars   component_j        a/Fe...       SSP_chi2r SSP_adev(%)   SSP_AV   SSP_x(%)
  1      0.0000     0.0000E+00    0.0000E+00    1.000000E+06  0.00400  1.094E-02    0   1.0000   age020_m42            0.0000     1.8700E+00     8.6609   2.9667    73.7023
  2      0.0000     0.0000E+00    0.0000E+00    3.160000E+06  0.00400  4.007E-02    0   0.9999   age045_m42            0.0000     1.3206E+00     7.6979   2.1980    80.3750
  3      0.0000     0.0000E+00    0.0000E+00    5.010000E+06  0.00400  2.539E-02    0   0.9488   age055_m42            0.0000     1.5419E+00     8.1214   2.5360    77.7320
  4      0.0000     0.0000E+00    0.0000E+00    6.610000E+06  0.00400  2.620E-02    0   0.9220   age061_m42            0.0000     1.2948E+00     7.6564   2.1212    80.6471
  5      0.0000     0.0000E+00    0.0000E+00    1.000000E+07  0.00400  1.322E-02    0   0.8862   age070_m42            0.0000     1.4888E+00     8.1517   1.8381    82.1283
  6      0.0000     0.0000E+00    0.0000E+00    1.445000E+07  0.00400  7.883E-03    0   0.8571   age078_m42            0.0000     1.6132E+00     8.3801   2.1774    79.6079
  7      0.0000     0.0000E+00    0.0000E+00    2.512000E+07  0.00400  5.251E-03    0   0.8174   age090_m42            0.0000     1.4979E+00     8.2234   1.7060    82.6341
  8      0.0000     0.0000E+00    0.0000E+00    4.000000E+07  0.00400  3.649E-03    0   0.7851   age104_m42            0.0000     1.3805E+00     7.9379   1.4708    83.6699
  9      0.0000     0.0000E+00    0.0000E+00    5.500000E+07  0.00400  3.098E-03    0   0.7629   age110_m42            0.0000     1.2208E+00     7.5154   1.6170    84.0806
 10      0.0000     0.0000E+00    0.0000E+00    1.015200E+08  0.00400  2.228E-03    0   0.7207   age116_m42            0.0000     1.1150E+00     7.2480   1.6320    84.5389
 11      0.0000     0.0000E+00    0.0000E+00    2.861200E+08  0.00400  1.093E-03    0   0.6648   age125_m42            0.0000     1.0785E+00     7.3133   1.0431    87.7117
 12      0.0000     0.0000E+00    0.0000E+00    5.088000E+08  0.00400  6.597E-04    0   0.6365   age130_m42            0.0000     9.1499E-01     6.8009   1.0259    88.9204
 13      0.0000     0.0000E+00    0.0000E+00    1.434000E+09  0.00400  2.132E-04    0   0.5798   age139_m42            0.0000     7.1889E-01     6.0979   0.0460    91.2454
 14      0.0000     0.0000E+00    0.0000E+00    4.250000E+09  0.00400  5.895E-05    0   0.5377   age158_m42            0.0000     8.4677E-01     6.3561  -0.3780    87.2455
 15      0.0000     0.0000E+00    0.0000E+00    7.500000E+09  0.00400  3.510E-05    0   0.5212   age171_m42            0.0000     9.0158E-01     6.5207  -0.5650    86.6869
 16      0.0000     0.0000E+00    0.0000E+00    1.300000E+10  0.00400  2.005E-05    0   0.5034   age193_m42            0.0000     9.6870E-01     6.7265  -0.7299    86.2606
 17      0.0000     0.0000E+00    0.0000E+00    1.800000E+10  0.00400  1.525E-05    0   0.4967   age213_m42            0.0000     9.7439E-01     6.7143  -0.7508    85.7880
 18      0.0000     0.0000E+00    0.0000E+00    1.000000E+06  0.00800  1.238E-02    0   1.0000   age020_m52            0.0000     1.8734E+00     8.6625   2.9645    73.8021
 19      0.0000     0.0000E+00    0.0000E+00    3.160000E+06  0.00800  3.074E-02    0   0.9966   age045_m52            0.0000     1.8127E+00     8.5668   2.8840    74.6038
 20      0.0000     0.0000E+00    0.0000E+00    5.010000E+06  0.00800  2.668E-02    0   0.9443   age055_m52            0.0000     1.6124E+00     8.2271   2.6246    76.8105
 21      0.0000     0.0000E+00    0.0000E+00    6.610000E+06  0.00800  2.136E-02    0   0.9177   age061_m52            0.0000     1.4551E+00     7.8814   1.3415    83.0227
 22      0.0000     0.0000E+00    0.0000E+00    1.000000E+07  0.00800  1.215E-02    0   0.8827   age070_m52            0.0000     1.6462E+00     8.5618   2.0230    81.6226
 23      0.0000     0.0000E+00    0.0000E+00    1.445000E+07  0.00800  8.717E-03    0   0.8552   age078_m52            0.0000     1.5637E+00     8.2669   2.1382    80.8803
 24      0.0000     0.0000E+00    0.0000E+00    2.512000E+07  0.00800  5.592E-03    0   0.8162   age090_m52            0.0000     1.4790E+00     8.1984   1.7658    83.7404
 25      0.0000     0.0000E+00    0.0000E+00    4.000000E+07  0.00800  3.896E-03    0   0.7841   age104_m52            0.0000     1.3396E+00     7.8616   1.6690    84.8033
 26      0.0000     0.0000E+00    0.0000E+00    1.015200E+08  0.00800  2.148E-03    0   0.7226   age116_m52            0.0000     1.1446E+00     7.3395   1.5995    85.1368
 27      0.0000     0.0000E+00    0.0000E+00    2.861200E+08  0.00800  9.925E-04    0   0.6683   age125_m52            0.0000     8.8978E-01     6.6685   1.0894    89.8056
 28      0.0000     0.0000E+00    0.0000E+00    9.047900E+08  0.00800  3.141E-04    0   0.6138   age135_m52            0.0000     6.6660E-01     6.0018   0.2700    94.6892
 29      0.0000     0.0000E+00    0.0000E+00    1.434000E+09  0.00800  1.719E-04    0   0.5853   age139_m52            0.0000     7.5467E-01     6.2213  -0.2976    92.2521
 30      0.0000     0.0000E+00    0.0000E+00    2.500000E+09  0.00800  7.872E-05    0   0.5600   age150_m52            0.0000     8.2674E-01     6.4417  -0.5564    89.6089
 31      0.0000     0.0000E+00    0.0000E+00    4.250000E+09  0.00800  4.336E-05    0   0.5426   age158_m52            0.0000     8.8244E-01     6.5448  -0.5681    88.6277
 32      0.0000     0.0000E+00    0.0000E+00    6.250000E+09  0.00800  3.159E-05    0   0.5319   age166_m52            0.0000     9.3776E-01     6.7747  -0.7737    88.8679
 33      0.0000     0.0000E+00    0.0000E+00    1.300000E+10  0.00800  1.361E-05    0   0.5073   age193_m52            0.0000     1.2849E+00     7.8494  -1.0000    80.4497
 34      0.0000     0.0000E+00    0.0000E+00    1.800000E+10  0.00800  9.886E-06    0   0.4990   age213_m52            0.0000     1.6245E+00     8.7694  -1.0000    76.6728
 35      0.0000     0.0000E+00    0.0000E+00    1.000000E+06  0.02000  1.544E-02    0   1.0000   age020_m62            0.0000     1.8884E+00     8.6926   2.9617    73.9326
 36      0.0000     0.0000E+00    0.0000E+00    3.160000E+06  0.02000  3.762E-02    0   0.9858   age045_m62            0.0000     1.8566E+00     8.6731   2.8987    74.6641
 37      0.0000     0.0000E+00    0.0000E+00    5.010000E+06  0.02000  3.296E-02    0   0.9342   age055_m62            0.0000     1.4180E+00     7.8780   2.4871    79.0551
 38      0.0000     0.0000E+00    0.0000E+00    8.710000E+06  0.02000  1.154E-02    0   0.8861   age067_m62            0.0000     2.5672E+00    11.2369   1.4818    82.9497
 39      0.0000     0.0000E+00    0.0000E+00    1.445000E+07  0.02000  7.663E-03    0   0.8472   age078_m62            0.0000     1.8278E+00     9.1770   1.6658    83.4264
 40      0.0000     0.0000E+00    0.0000E+00    2.512000E+07  0.02000  4.532E-03    0   0.8099   age090_m62            0.0000     1.8487E+00     9.3295   1.6548    83.2730
 41      0.0000     0.0000E+00    0.0000E+00    5.500000E+07  0.02000  2.733E-03    0   0.7595   age110_m62            0.0000     1.3694E+00     7.8900   1.6548    84.0751
 42      0.0000     0.0000E+00    0.0000E+00    1.609000E+08  0.02000  1.369E-03    0   0.6985   age120_m62            0.0000     1.0447E+00     7.0578   1.4694    87.5580
 43      0.0000     0.0000E+00    0.0000E+00    2.861200E+08  0.02000  9.013E-04    0   0.6714   age125_m62            0.0000     8.7127E-01     6.5699   1.1995    90.9927
 44     18.6991     7.8323E+00    8.6987E+00    5.088000E+08  0.02000  5.028E-04    0   0.6449   age130_m62            0.0000     6.7408E-01     6.0447   0.8048    94.3780
 45      0.0013     1.1128E-03    1.1841E-03    9.047900E+08  0.02000  2.428E-04    0   0.6179   age135_m62            0.0000     6.7102E-01     5.9850   0.2221    93.8085
 46      0.0000     0.0000E+00    0.0000E+00    1.434000E+09  0.02000  1.263E-04    0   0.5908   age139_m62            0.0000     7.8409E-01     6.2606  -0.2123    92.0801
 47      0.0000     0.0000E+00    0.0000E+00    2.500000E+09  0.02000  5.985E-05    0   0.5673   age150_m62            0.0000     9.0532E-01     6.6886  -0.5731    90.7436
 48      0.0000     0.0000E+00    0.0000E+00    4.250000E+09  0.02000  3.271E-05    0   0.5468   age158_m62            0.0000     1.0186E+00     7.1652  -0.8809    90.2502
 49      0.0000     0.0000E+00    0.0000E+00    1.000000E+10  0.02000  1.360E-05    0   0.5167   age181_m62            0.0000     1.4434E+00     8.2796  -1.0000    82.3486
 50      0.0000     0.0000E+00    0.0000E+00    1.800000E+10  0.02000  7.124E-06    0   0.5013   age213_m62            0.0000     2.1337E+00     9.9621  -1.0000    74.9860
 51      0.0000     0.0000E+00    0.0000E+00    1.000000E+06  0.05000  2.592E-02    0   0.9998   age020_m72            0.0000     1.9585E+00     8.8025   2.9585    73.7535
 52      0.0000     0.0000E+00    0.0000E+00    3.160000E+06  0.05000  4.845E-02    0   0.9577   age045_m72            0.0000     1.6717E+00     8.3724   2.7685    76.1475
 53      0.0000     0.0000E+00    0.0000E+00    5.010000E+06  0.05000  3.072E-02    0   0.9147   age055_m72            0.0000     1.8376E+00     8.9872   2.2669    79.8717
 54      0.0000     0.0000E+00    0.0000E+00    6.610000E+06  0.05000  1.455E-02    0   0.8877   age061_m72            0.0000     3.3992E+00    13.6191   1.5224    83.4494
 55      0.0000     0.0000E+00    0.0000E+00    1.000000E+07  0.05000  9.074E-03    0   0.8524   age070_m72            0.0000     1.9799E+00     9.5084   2.4487    79.6621
 56      0.0000     0.0000E+00    0.0000E+00    2.512000E+07  0.05000  4.250E-03    0   0.7902   age090_m72            0.0000     1.6844E+00     8.8778   2.1294    81.8755
 57      0.0000     0.0000E+00    0.0000E+00    4.000000E+07  0.05000  3.087E-03    0   0.7618   age104_m72            0.0000     1.6294E+00     8.8443   1.8906    83.6199
 58      0.0000     0.0000E+00    0.0000E+00    1.015200E+08  0.05000  1.700E-03    0   0.7096   age116_m72            0.0000     1.1630E+00     7.4553   1.6142    86.9647
 59      0.0000     0.0000E+00    0.0000E+00    2.861200E+08  0.05000  7.384E-04    0   0.6633   age125_m72            0.0000     7.5343E-01     6.2395   1.0566    92.8084
 60     70.1284     3.8673E+01    4.2438E+01    5.088000E+08  0.05000  3.819E-04    0   0.6372   age130_m72            0.0000     6.3510E-01     5.8789   0.5600    94.7478
 61      2.7157     3.4125E+00    3.5907E+00    9.047900E+08  0.05000  1.676E-04    0   0.6110   age135_m72            0.0000     8.0546E-01     6.4520  -0.1238    92.8153
 62      0.0000     0.0000E+00    0.0000E+00    1.434000E+09  0.05000  8.837E-05    0   0.5874   age139_m72            0.0000     9.3101E-01     6.7868  -0.5781    92.2836
 63      0.0000     0.0000E+00    0.0000E+00    2.500000E+09  0.05000  4.233E-05    0   0.5598   age150_m72            0.0000     1.0739E+00     7.3904  -0.8866    91.2743
 64      3.4124     5.0081E+01    4.5271E+01    6.250000E+09  0.05000  1.435E-05    0   0.5249   age166_m72            0.0000     1.6992E+00     9.0102  -1.0000    78.8769
 65      0.0000     0.0000E+00    0.0000E+00    1.300000E+10  0.05000  6.513E-06    0   0.5036   age193_m72            0.0000     2.8283E+00    11.5775  -1.0000    70.7355
 66      0.0000     0.0000E+00    0.0000E+00    1.800000E+10  0.05000  4.527E-06    0   0.4945   age213_m72            0.0000     3.6576E+00    13.2023  -1.0000    65.7426


## Synthesis Results - Average & Chains ##

# j      x_j: min, <> & last-chain-values for 1 ...  7 chains
  1      0.0000      0.0112      0.0000      0.0000      0.0000      0.0000      0.0000      0.0000      0.0000
  2      0.0000      0.0644      0.0000      0.3094      0.0000      0.0000      0.0000      0.0781      0.0000
  3      0.0000      0.0247      0.0000      0.0000      0.0000      0.0000      0.0000      0.0000      0.2684
  4      0.0000      0.1354      0.0000      0.0000      0.0000      0.0255      0.0000      0.0000      0.0000
  5      0.0000      0.0214      0.0000      0.0691      0.0000      0.0000      0.0000      0.0000      0.0000
  6      0.0000      0.0371      0.0000      0.0000      0.0000      0.0380      0.0000      0.0000      0.0000
  7      0.0000      0.0491      0.0000      0.0000      0.0000      0.0000      0.0000      0.0000      0.1145
  8      0.0000      0.0368      0.0000      0.0000      0.0000      0.0000      0.0000      0.0000      0.0000
  9      0.0000      0.0805      0.2420      0.0000      0.0000      0.0000      0.0000      0.0000      0.0000
 10      0.0000      0.1157      0.0000      0.0585      0.0000      0.0000      0.0000      0.0000      0.1907
 11      0.0000      0.1324      0.0000      0.0000      0.2485      0.0000      0.0000      0.0000      0.0000
 12      0.0000      0.3517      0.0000      0.0000      0.0000      0.0000      0.0000      0.4204      1.5769
 13      0.0000      0.1205      0.0000      0.0000      0.0000      0.0000      0.0000      0.0000      0.0000
 14      0.0000      0.1322      0.0000      0.0000      0.0000      0.0000      0.0000      0.0000      0.0000
 15      0.0000      0.0528      0.0000      0.0000      0.0000      0.0000      0.0000      0.6565      0.0000
 16      0.0000      0.0213      0.0000      0.0000      0.0000      0.0000      0.5107      0.0000      0.0000
 17      0.0000      0.0516      0.0000      0.0000      0.0000      0.0000      0.0000      0.0000      0.0000
 18      0.0000      0.0226      0.0000      0.0000      0.0000      0.0000      0.0000      0.0000      0.0000
 19      0.0000      0.0078      0.0000      0.0000      0.0000      0.0000      0.0000      0.0000      0.0000
 20      0.0000      0.0161      0.0000      0.0080      0.0000      0.0000      0.0000      0.0000      0.0000
 21      0.0000      0.0594      0.0000      0.0000      0.0000      0.1422      0.0000      0.0000      0.0000
 22      0.0000      0.0308      0.0000      0.0000      0.0000      0.0000      0.0000      0.0000      0.0000
 23      0.0000      0.0785      0.0000      0.0000      0.0000      0.0000      0.0000      0.0000      0.0000
 24      0.0000      0.0575      0.0000      0.0000      0.0000      0.0000      0.0304      0.0000      0.0000
 25      0.0000      0.0895      0.0000      0.0000      0.0000      0.0000      0.0000      0.0000      0.0000
 26      0.0000      0.1698      0.0000      0.7467      0.0000      0.0000      0.0000      0.0000      0.0000
 27      0.0000      0.5805      0.0000      0.0000      0.0000      0.0000      0.0000      0.0278      0.0000
 28      0.0000      1.0193      2.1973      0.5888      0.0000      4.0014      1.1055      0.0000      0.9836
 29      0.0000      0.0646      0.0000      0.0000      0.0000      0.0000      0.0000      0.0000      0.0000
 30      0.0000      0.0373      0.0000      0.0000      0.0000      0.0000      0.0000      0.0000      0.0000
 31      0.0000      0.0756      0.0000      0.0000      0.0000      0.0000      0.0000      0.0000      0.1735
 32      0.0000      0.0280      0.2134      0.0000      0.0000      0.0000      0.0000      0.0000      0.0000
 33      0.0000      0.0235      0.0000      0.0000      0.0000      0.0000      0.0000      0.0000      0.0000
 34      0.0000      0.0229      0.0000      0.0000      0.0000      0.0000      0.0000      0.0000      0.0000
 35      0.0000      0.0050      0.0000      0.0000      0.0000      0.0000      0.0000      0.0000      0.0000
 36      0.0000      0.0095      0.0000      0.0000      0.0000      0.0000      0.0000      0.0000      0.0000
 37      0.0000      0.0391      0.0000      0.0000      0.0000      0.0000      0.0000      0.0000      0.0000
 38      0.0000      0.0065      0.0000      0.0000      0.0000      0.0000      0.0000      0.0000      0.0000
 39      0.0000      0.0313      0.0000      0.0000      0.0000      0.0000      0.0000      0.0000      0.0000
 40      0.0000      0.0140      0.0000      0.0000      0.0000      0.0888      0.0000      0.0000      0.0000
 41      0.0000      0.0248      0.0000      0.0000      0.0000      0.0000      0.0000      0.0911      0.0000
 42      0.0000      0.1019      0.0046      0.0000      0.1935      0.0000      0.0000      0.0000      0.0000
 43      0.0000      0.3833      0.0000      0.0000      0.0000      1.7258      0.0000      0.0000      0.0000
 44     18.6991     33.1530     32.6147     31.5027     34.4936     32.6524     33.3912     35.2281     33.5959
 45      0.0013      1.7361      1.5913      2.9009      3.6095      1.1408      2.6414      0.9396      2.1490
 46      0.0000      0.1155      0.0000      0.0000      0.0000      0.0000      0.0000      0.0000      0.0000
