###################################################################
## OUTPUT of StarlightChains_v04.for    [Cid@UFSC - 01/Apr/2007] ##
###################################################################

## Some input info
1992bf.txt                               [arq_obs]
Base.CB07.vall.4m                        [arq_base]
Masks.EmLines.NEW.gm                     [arq_masks]
StCv04.C11.config                        [arq_config]
   66                                    [N_base]
    0                                    [N_YAV_components = # of components with extra extinction!]
    0                                    [i_FitPowerLaw (1/0 = Yes/No)]
-9.99                                    [alpha_PowerLaw]
CCM                                      [red_law_option]
 1.458241                                [q_norm = A(l_norm)/A(V)]

## (Re)Sampling Parameters
 3741.00                                 [l_ini (A)]
 7218.00                                 [l_fin (A)]
    1.00                                 [dl    (A)]     (OBS: dl_cushion =    50.00 A)

## Normalization info
 4020.00                                 [l_norm (A) - for base]
 4010.00                                 [llow_norm (A) - window for f_obs]
 4060.00                                 [lupp_norm (A) - window for f_obs]
1.225693E-16                             [fobs_norm (in input units)]

## S/N
 3691.00                                 [llow_SN (A) - window for S/N]
 7268.00                                 [lupp_SN (A) - window for S/N]
   4.321                                 [S/N in S/N window]
   3.220                                 [S/N in norm. window]
  10.000                                 [S/N_err in S/N window]
   7.452                                 [S/N_err in norm. window]
  1.0000                                 [fscale_chi2]

## etc...
    -2007218                             [idum_orig]
  2384                                   [NOl_eff]
  2380                                   [Nl_eff]
     4    NSIGMA                         [Ntot_cliped & clip_method]
   822360                                [Nglobal_steps]
   7                                     [N_chains]
  15                                     [NEX0s_base = N_base in EX0s-fits]
 0   0   1       86   2.0   1.757E+01    [Clip-Bug, RC-Crash & Burn-In warning-flags, n_censored_weights, wei_nsig_threshold & wei_limit]
    11     10.781     10.247      0.533  [idt_all, wdt_TotTime, wdt_UsrTime & wdt_SysTime (sec)]

## Synthesis Results - Best model ##

 2.72651E-01                             [chi2/Nl_eff]
     3.72599                             [adev (%)]

   102.53281                             [sum-of-x (%)]
 1.24631E-16                             [Flux_tot (units of input spectrum!)]
 1.06674E-11                             [Mini_tot (???)]
 5.37093E-12                             [Mcor_tot (???)]

   7.82                                  [v0_min  (km/s)]
 179.12                                  [vd_min  (km/s)]
-0.0062                                  [AV_min  (mag)]
 0.0000                                  [YAV_min (mag)]

# j     x_j(%)      Mini_j(%)     Mcor_j(%)     age_j(yr)     Z_j      (L/M)_j    YAV?  Mstars   component_j        a/Fe...       SSP_chi2r SSP_adev(%)   SSP_AV   SSP_x(%)
  1      0.0000     0.0000E+00    0.0000E+00    1.000000E+06  0.00400  1.094E-02    0   1.0000   age020_m42            0.0000     2.3148E+00    10.4894   4.0000    83.8981
  2      0.0000     0.0000E+00    0.0000E+00    3.160000E+06  0.00400  4.007E-02    0   0.9999   age045_m42            0.0000     1.7398E+00     9.5606   3.4199    85.6222
  3      0.0000     0.0000E+00    0.0000E+00    5.010000E+06  0.00400  2.539E-02    0   0.9488   age055_m42            0.0000     1.9402E+00    10.1101   3.7620    82.6200
  4      0.0000     0.0000E+00    0.0000E+00    6.610000E+06  0.00400  2.620E-02    0   0.9220   age061_m42            0.0000     1.7857E+00     9.6866   3.3459    85.7720
  5      0.0000     0.0000E+00    0.0000E+00    1.000000E+07  0.00400  1.322E-02    0   0.8862   age070_m42            0.0000     2.0532E+00    10.9497   3.0747    86.7626
  6      0.0000     0.0000E+00    0.0000E+00    1.445000E+07  0.00400  7.883E-03    0   0.8571   age078_m42            0.0000     2.1358E+00    11.1324   3.4139    84.1021
  7      0.0000     0.0000E+00    0.0000E+00    2.512000E+07  0.00400  5.251E-03    0   0.8174   age090_m42            0.0000     2.0922E+00    11.1590   2.9430    87.2461
  8      0.0000     0.0000E+00    0.0000E+00    4.000000E+07  0.00400  3.649E-03    0   0.7851   age104_m42            0.0000     1.9539E+00    10.7393   2.7050    88.5042
  9      0.0000     0.0000E+00    0.0000E+00    5.500000E+07  0.00400  3.098E-03    0   0.7629   age110_m42            0.0000     1.8185E+00    10.0321   2.8462    89.1917
 10      0.0000     0.0000E+00    0.0000E+00    1.015200E+08  0.00400  2.228E-03    0   0.7207   age116_m42            0.0000     1.7548E+00     9.6142   2.8603    89.7547
 11      0.0000     0.0000E+00    0.0000E+00    2.861200E+08  0.00400  1.093E-03    0   0.6648   age125_m42            0.0000     1.7231E+00     9.8568   2.2734    93.0745
 12      0.0000     0.0000E+00    0.0000E+00    5.088000E+08  0.00400  6.597E-04    0   0.6365   age130_m42            0.0000     1.5275E+00     9.0165   2.2477    94.8222
 13      0.0000     0.0000E+00    0.0000E+00    1.434000E+09  0.00400  2.132E-04    0   0.5798   age139_m42            0.0000     9.5785E-01     7.2908   1.2419    98.7151
 14      0.0000     0.0000E+00    0.0000E+00    4.250000E+09  0.00400  5.895E-05    0   0.5377   age158_m42            0.0000     5.9034E-01     5.7156   0.7938    95.6585
 15      0.0000     0.0000E+00    0.0000E+00    7.500000E+09  0.00400  3.510E-05    0   0.5212   age171_m42            0.0000     4.8596E-01     5.1261   0.5953    95.6601
 16      4.5788     2.6022E+00    2.6018E+00    1.300000E+10  0.00400  2.005E-05    0   0.5034   age193_m42            0.0000     4.2348E-01     4.7173   0.4206    95.7070
 17      5.5083     4.1158E+00    4.0603E+00    1.800000E+10  0.00400  1.525E-05    0   0.4967   age213_m42            0.0000     4.4267E-01     4.8206   0.4017    95.0815
 18      0.0000     0.0000E+00    0.0000E+00    1.000000E+06  0.00800  1.238E-02    0   1.0000   age020_m52            0.0000     2.3057E+00    10.4641   4.0000    83.9613
 19      0.0000     0.0000E+00    0.0000E+00    3.160000E+06  0.00800  3.074E-02    0   0.9966   age045_m52            0.0000     2.1527E+00    10.1973   4.0000    82.5378
 20      0.0000     0.0000E+00    0.0000E+00    5.010000E+06  0.00800  2.668E-02    0   0.9443   age055_m52            0.0000     1.9852E+00    10.2440   3.8507    81.6414
 21      0.0000     0.0000E+00    0.0000E+00    6.610000E+06  0.00800  2.136E-02    0   0.9177   age061_m52            0.0000     1.7684E+00    10.2416   2.5661    88.3088
 22      0.0000     0.0000E+00    0.0000E+00    1.000000E+07  0.00800  1.215E-02    0   0.8827   age070_m52            0.0000     2.1999E+00    11.5185   3.2623    86.0854
 23      0.0000     0.0000E+00    0.0000E+00    1.445000E+07  0.00800  8.717E-03    0   0.8552   age078_m52            0.0000     2.0944E+00    11.0275   3.3747    85.4532
 24      0.0000     0.0000E+00    0.0000E+00    2.512000E+07  0.00800  5.592E-03    0   0.8162   age090_m52            0.0000     2.0765E+00    11.1452   3.0042    88.3795
 25      0.0000     0.0000E+00    0.0000E+00    4.000000E+07  0.00800  3.896E-03    0   0.7841   age104_m52            0.0000     1.9309E+00    10.6444   2.9032    89.7166
 26      0.0000     0.0000E+00    0.0000E+00    1.015200E+08  0.00800  2.148E-03    0   0.7226   age116_m52            0.0000     1.7344E+00     9.7982   2.8279    90.3799
 27      0.0000     0.0000E+00    0.0000E+00    2.861200E+08  0.00800  9.925E-04    0   0.6683   age125_m52            0.0000     1.5021E+00     8.8967   2.3104    95.8021
 28      4.3830     1.5900E-01    1.9384E-01    9.047900E+08  0.00800  3.141E-04    0   0.6138   age135_m52            0.0000     7.9928E-01     6.6838   1.4538   103.0858
 29      0.0000     0.0000E+00    0.0000E+00    1.434000E+09  0.00800  1.719E-04    0   0.5853   age139_m52            0.0000     6.3218E-01     5.9887   0.8807   100.8544
 30      0.0000     0.0000E+00    0.0000E+00    2.500000E+09  0.00800  7.872E-05    0   0.5600   age150_m52            0.0000     4.2071E-01     4.7440   0.5987    99.1728
 31      4.3913     1.1540E+00    1.2437E+00    4.250000E+09  0.00800  4.336E-05    0   0.5426   age158_m52            0.0000     4.1100E-01     4.6890   0.5841    98.2348
 32      0.0000     0.0000E+00    0.0000E+00    6.250000E+09  0.00800  3.159E-05    0   0.5319   age166_m52            0.0000     3.3060E-01     4.1410   0.3630    99.3271
 33     15.7560     1.3191E+01    1.3291E+01    1.300000E+10  0.00800  1.361E-05    0   0.5073   age193_m52            0.0000     2.8544E-01     3.7535  -0.1290   100.0754
 34     15.4058     1.7757E+01    1.7599E+01    1.800000E+10  0.00800  9.886E-06    0   0.4990   age213_m52            0.0000     3.0958E-01     3.8947  -0.2541   100.5787
 35      0.0000     0.0000E+00    0.0000E+00    1.000000E+06  0.02000  1.544E-02    0   1.0000   age020_m62            0.0000     2.3134E+00    10.4784   4.0000    84.0322
 36      0.0000     0.0000E+00    0.0000E+00    3.160000E+06  0.02000  3.762E-02    0   0.9858   age045_m62            0.0000     2.2105E+00    10.3050   4.0000    83.0263
 37      0.0000     0.0000E+00    0.0000E+00    5.010000E+06  0.02000  3.296E-02    0   0.9342   age055_m62            0.0000     1.8542E+00     9.7844   3.7132    84.0526
 38      0.0000     0.0000E+00    0.0000E+00    8.710000E+06  0.02000  1.154E-02    0   0.8861   age067_m62            0.0000     3.2077E+00    14.9412   2.7392    86.5168
 39      0.0000     0.0000E+00    0.0000E+00    1.445000E+07  0.02000  7.663E-03    0   0.8472   age078_m62            0.0000     2.3575E+00    12.3270   2.9092    87.8046
 40      0.0000     0.0000E+00    0.0000E+00    2.512000E+07  0.02000  4.532E-03    0   0.8099   age090_m62            0.0000     2.4447E+00    12.5738   2.9010    87.5067
 41      0.0000     0.0000E+00    0.0000E+00    5.500000E+07  0.02000  2.733E-03    0   0.7595   age110_m62            0.0000     1.9650E+00    10.7213   2.8914    88.8644
 42      0.0000     0.0000E+00    0.0000E+00    1.609000E+08  0.02000  1.369E-03    0   0.6985   age120_m62            0.0000     1.7426E+00     9.5968   2.7000    92.8853
 43      0.0000     0.0000E+00    0.0000E+00    2.861200E+08  0.02000  9.013E-04    0   0.6714   age125_m62            0.0000     1.5840E+00     8.9464   2.4227    96.9455
 44      0.0000     0.0000E+00    0.0000E+00    5.088000E+08  0.02000  5.028E-04    0   0.6449   age130_m62            0.0000     1.1247E+00     7.4595   2.0029   101.9425
 45      0.0000     0.0000E+00    0.0000E+00    9.047900E+08  0.02000  2.428E-04    0   0.6179   age135_m62            0.0000     6.2849E-01     5.7807   1.3945   102.7709
 46     21.2880     1.9206E+00    2.2536E+00    1.434000E+09  0.02000  1.263E-04    0   0.5908   age139_m62            0.0000     4.6801E-01     4.9653   0.9474   101.6212
 47      1.3201     2.5133E-01    2.8318E-01    2.500000E+09  0.02000  5.985E-05    0   0.5673   age150_m62            0.0000     3.4509E-01     4.2157   0.5663   101.2571
 48      0.0000     0.0000E+00    0.0000E+00    4.250000E+09  0.02000  3.271E-05    0   0.5468   age158_m62            0.0000     2.9055E-01     3.8355   0.2365   101.9098
 49      0.0000     0.0000E+00    0.0000E+00    1.000000E+10  0.02000  1.360E-05    0   0.5167   age181_m62            0.0000     3.5458E-01     4.1728  -0.1453   103.4178
 50      0.0000     0.0000E+00    0.0000E+00    1.800000E+10  0.02000  7.124E-06    0   0.5013   age213_m62            0.0000     4.8557E-01     4.9038  -0.3767   103.8611
 51      0.0000     0.0000E+00    0.0000E+00    1.000000E+06  0.05000  2.592E-02    0   0.9998   age020_m72            0.0000     2.3514E+00    10.5781   4.0000    83.7557
 52      0.0000     0.0000E+00    0.0000E+00    3.160000E+06  0.05000  4.845E-02    0   0.9577   age045_m72            0.0000     2.0175E+00    10.2362   3.9923    81.0355
 53      0.0000     0.0000E+00    0.0000E+00    5.010000E+06  0.05000  3.072E-02    0   0.9147   age055_m72            0.0000     2.2839E+00    11.7810   3.5062    84.3027
 54      0.0000     0.0000E+00    0.0000E+00    6.610000E+06  0.05000  1.455E-02    0   0.8877   age061_m72            0.0000     4.0495E+00    17.3273   2.7909    86.5530
 55      0.0000     0.0000E+00    0.0000E+00    1.000000E+07  0.05000  9.074E-03    0   0.8524   age070_m72            0.0000     2.4303E+00    12.1345   3.6890    84.0549
 56      0.0000     0.0000E+00    0.0000E+00    2.512000E+07  0.05000  4.250E-03    0   0.7902   age090_m72            0.0000     2.2565E+00    11.7046   3.3710    86.3183
 57      0.0000     0.0000E+00    0.0000E+00    4.000000E+07  0.05000  3.087E-03    0   0.7618   age104_m72            0.0000     2.2697E+00    11.7909   3.1361    87.9963
 58      0.0000     0.0000E+00    0.0000E+00    1.015200E+08  0.05000  1.700E-03    0   0.7096   age116_m72            0.0000     1.8852E+00    10.1950   2.8499    91.9886
 59      0.0000     0.0000E+00    0.0000E+00    2.861200E+08  0.05000  7.384E-04    0   0.6633   age125_m72            0.0000     1.3632E+00     8.1419   2.2683    99.5207
 60      0.0000     0.0000E+00    0.0000E+00    5.088000E+08  0.05000  3.819E-04    0   0.6372   age130_m72            0.0000     8.4109E-01     6.4094   1.7435   103.1664
 61      0.0000     0.0000E+00    0.0000E+00    9.047900E+08  0.05000  1.676E-04    0   0.6110   age135_m72            0.0000     4.3737E-01     4.6903   1.0245   103.0450
 62      0.0000     0.0000E+00    0.0000E+00    1.434000E+09  0.05000  8.837E-05    0   0.5874   age139_m72            0.0000     3.3520E-01     4.0873   0.5567   103.2508
 63      0.0000     0.0000E+00    0.0000E+00    2.500000E+09  0.05000  4.233E-05    0   0.5598   age150_m72            0.0000     2.9384E-01     3.8577   0.2254   103.3855
 64      0.0000     0.0000E+00    0.0000E+00    6.250000E+09  0.05000  1.435E-05    0   0.5249   age166_m72            0.0000     3.8707E-01     4.4683  -0.2475   103.3666
 65     21.3873     3.7418E+01    3.7426E+01    1.300000E+10  0.05000  6.513E-06    0   0.5036   age193_m72            0.0000     5.8388E-01     5.4846  -0.5521   105.8240
 66      8.5141     2.1431E+01    2.1048E+01    1.800000E+10  0.05000  4.527E-06    0   0.4945   age213_m72            0.0000     7.4724E-01     6.2497  -0.7257   106.3857


## Synthesis Results - Average & Chains ##

# j      x_j: min, <> & last-chain-values for 1 ...  7 chains
  1      0.0000      0.0704      0.0000      0.0000      0.0000      0.1129      0.7948      0.0000      0.0000
  2      0.0000      0.0857      0.0000      0.0000      0.0000      0.0000      0.0000      0.0000      0.0000
  3      0.0000      0.0604      0.0000      0.0000      0.0000      0.0000      0.0000      0.0000      0.0000
  4      0.0000      0.0218      0.0000      0.0000      0.0000      0.0000      0.0000      0.0000      0.0000
  5      0.0000      0.0562      0.0000      0.0000      0.0000      0.0000      0.0000      0.0000      0.0000
  6      0.0000      0.0571      0.0000      0.0000      0.0000      0.0000      0.0000      1.3658      0.0000
  7      0.0000      0.0743      0.0000      0.0000      0.5797      0.0000      0.0000      0.0000      0.0000
  8      0.0000      0.1382      0.0000      0.0000      0.0000      0.0000      0.0000      0.0000      0.0000
  9      0.0000      0.0477      0.0000      0.0000      0.0000      0.1008      0.0000      0.0000      0.0000
 10      0.0000      0.0918      0.0000      0.0000      0.0000      0.0000      0.0000      0.0000      0.0000
 11      0.0000      0.1960      0.0000      0.0000      0.0000      0.3819      0.0000      0.0000      0.0000
 12      0.0000      0.0768      0.0000      0.0000      0.0000      0.0000      0.0000      0.0000      0.0000
 13      0.0000      0.4415      0.0000      0.0000      0.0000      0.0000      0.0000      0.0000      0.0000
 14      0.0000      0.6928      0.0000      0.0000      1.0530      0.0000      0.0000      0.0000      0.0000
 15      0.0000      1.0483      0.0000      0.0000      5.5720      2.7427      0.0000      0.4904      0.0000
 16      4.5788      3.7541      7.8734      6.0110      6.2460      2.9969      1.5167      5.5231      3.2542
 17      5.5083      3.1932      2.0333      6.9021      6.3261      7.2398      2.2228      2.8613      9.0213
 18      0.0000      0.0322      0.0000      0.0000      0.0000      0.0000      0.0000      0.0000      0.0000
 19      0.0000      0.0363      0.1163      0.0000      0.0000      0.0000      0.0000      0.0000      0.0000
 20      0.0000      0.0717      0.0000      0.0000      0.0000      0.0000      0.0000      0.3384      0.0000
 21      0.0000      0.1021      0.0000      0.0000      0.0000      0.1015      0.0000      0.0000      0.0000
 22      0.0000      0.0968      0.0000      0.0000      0.0000      0.0000      0.0000      0.0000      0.0000
 23      0.0000      0.1264      0.0000      0.0000      0.0000      0.0000      0.0000      0.0000      0.0000
 24      0.0000      0.0232      0.0000      0.0000      0.0000      0.0000      0.0000      0.0000      0.0000
 25      0.0000      0.0761      0.0000      0.0000      0.0000      0.4455      0.0000      0.0000      0.0000
 26      0.0000      0.1758      0.0000      0.0000      0.0000      0.0000      0.0000      0.0000      0.0000
 27      0.0000      0.2120      0.0000      0.0000      0.0000      0.0000      0.0000      0.0000      0.0000
 28      4.3830      0.8609      1.5007      0.9571      1.1007      3.9993      0.7198      1.2688      3.0124
 29      0.0000      0.9032      0.4480      0.0000      0.2570      0.0000      1.5953      1.6912      0.0000
 30      0.0000      3.7979      8.7783      6.8818      0.0000      4.7441     10.6225      3.6331      4.2201
 31      4.3913      3.4877      7.6538      6.8199      0.0000      6.0380      0.0000      4.9379      4.1381
 32      0.0000      6.0147      4.0917      0.0000     13.6392      4.1204     10.1569     10.3541      9.7763
 33     15.7560      5.0108      5.9375      5.4072      0.0000      1.8214      4.2351      3.7628      6.5283
 34     15.4058      3.1300      0.0000      9.1153      0.5634      2.8877      4.7460      3.8172      0.7996
 35      0.0000      0.0380      0.0000      0.0000      0.0000      0.0000      0.0000      0.2232      0.0000
 36      0.0000      0.0233      0.0000      0.0000      0.0000      0.0000      0.0000      0.0000      0.0000
 37      0.0000      0.0453      0.0000      0.0000      0.0000      0.0000      0.0000      0.0000      0.0000
 38      0.0000      0.0480      0.0000      0.0000      0.0000      0.0000      0.0000      0.0000      0.7775
 39      0.0000      0.0633      0.0000      0.3954      0.2856      0.0000      0.0000      0.0000      0.0000
 40      0.0000      0.0646      0.0000      0.0000      0.0000      0.0000      0.0000      0.0000      0.0000
 41      0.0000      0.1905      0.0000      0.0000      0.0000      0.0000      0.0000      0.0000      0.0327
 42      0.0000      0.1012      0.0000      0.7540      0.7902      0.0000      0.0000      0.0000      0.0000
 43      0.0000      0.1028      0.3125      0.0000      0.0000      0.0000      0.0000      1.1957      0.0000
 44      0.0000      0.2500      0.0000      0.0000      0.0000      0.0817      1.0960      0.0000      1.2402
 45      0.0000      0.7807      2.5991      0.1217      0.0000      1.6445      1.9531      0.0000      1.0886
 46     21.2880      1.2716      0.0000      3.4018      2.2174      0.4846      4.2723      0.7316      2.6543
