###################################################################
## OUTPUT of StarlightChains_v04.for    [Cid@UFSC - 01/Apr/2007] ##
###################################################################

## Some input info
1993N.txt                                [arq_obs]
Base.CB07.vall.4m                        [arq_base]
Masks.EmLines.NEW.gm                     [arq_masks]
StCv04.C11.config                        [arq_config]
   66                                    [N_base]
    0                                    [N_YAV_components = # of components with extra extinction!]
    0                                    [i_FitPowerLaw (1/0 = Yes/No)]
-9.99                                    [alpha_PowerLaw]
CCM                                      [red_law_option]
 1.458241                                [q_norm = A(l_norm)/A(V)]

## (Re)Sampling Parameters
 3741.00                                 [l_ini (A)]
 7218.00                                 [l_fin (A)]
    1.00                                 [dl    (A)]     (OBS: dl_cushion =    50.00 A)

## Normalization info
 4020.00                                 [l_norm (A) - for base]
 4010.00                                 [llow_norm (A) - window for f_obs]
 4060.00                                 [lupp_norm (A) - window for f_obs]
1.991265E-16                             [fobs_norm (in input units)]

## S/N
 3691.00                                 [llow_SN (A) - window for S/N]
 7268.00                                 [lupp_SN (A) - window for S/N]
   4.731                                 [S/N in S/N window]
   6.698                                 [S/N in norm. window]
   9.248                                 [S/N_err in S/N window]
  13.095                                 [S/N_err in norm. window]
  1.0000                                 [fscale_chi2]

## etc...
    -2007220                             [idum_orig]
  2384                                   [NOl_eff]
  2377                                   [Nl_eff]
     7    NSIGMA                         [Ntot_cliped & clip_method]
  1396920                                [Nglobal_steps]
   7                                     [N_chains]
  24                                     [NEX0s_base = N_base in EX0s-fits]
 0   0   1        1   2.0   2.175E+01    [Clip-Bug, RC-Crash & Burn-In warning-flags, n_censored_weights, wei_nsig_threshold & wei_limit]
    13     12.451     11.913      0.537  [idt_all, wdt_TotTime, wdt_UsrTime & wdt_SysTime (sec)]

## Synthesis Results - Best model ##

 2.92519E-01                             [chi2/Nl_eff]
     4.14235                             [adev (%)]

   102.56784                             [sum-of-x (%)]
 2.10144E-16                             [Flux_tot (units of input spectrum!)]
 9.71601E-13                             [Mini_tot (???)]
 5.42693E-13                             [Mcor_tot (???)]

 -88.48                                  [v0_min  (km/s)]
 179.75                                  [vd_min  (km/s)]
 0.0212                                  [AV_min  (mag)]
 0.0000                                  [YAV_min (mag)]

# j     x_j(%)      Mini_j(%)     Mcor_j(%)     age_j(yr)     Z_j      (L/M)_j    YAV?  Mstars   component_j        a/Fe...       SSP_chi2r SSP_adev(%)   SSP_AV   SSP_x(%)
  1     14.9409     2.8799E-01    5.1560E-01    1.000000E+06  0.00400  1.094E-02    0   1.0000   age020_m42            0.0000     6.1348E-01     6.1635   2.2039    85.7213
  2      0.0000     0.0000E+00    0.0000E+00    3.160000E+06  0.00400  4.007E-02    0   0.9999   age045_m42            0.0000     4.5022E-01     5.2899   1.4329    93.7011
  3      0.0000     0.0000E+00    0.0000E+00    5.010000E+06  0.00400  2.539E-02    0   0.9488   age055_m42            0.0000     4.9798E-01     5.5426   1.7723    90.5498
  4      0.0000     0.0000E+00    0.0000E+00    6.610000E+06  0.00400  2.620E-02    0   0.9220   age061_m42            0.0000     4.4728E-01     5.1707   1.3575    94.0275
  5      0.0062     9.8581E-05    1.5641E-04    1.000000E+07  0.00400  1.322E-02    0   0.8862   age070_m42            0.0000     3.9206E-01     4.6390   1.0880    95.5560
  6      0.0000     0.0000E+00    0.0000E+00    1.445000E+07  0.00400  7.883E-03    0   0.8571   age078_m42            0.0000     4.2816E-01     4.8763   1.4242    92.6985
  7      0.0000     0.0000E+00    0.0000E+00    2.512000E+07  0.00400  5.251E-03    0   0.8174   age090_m42            0.0000     3.8967E-01     4.5818   0.9559    96.2121
  8      0.7748     4.4773E-02    6.2933E-02    4.000000E+07  0.00400  3.649E-03    0   0.7851   age104_m42            0.0000     3.6868E-01     4.4695   0.7184    97.4809
  9      0.1842     1.2537E-02    1.7124E-02    5.500000E+07  0.00400  3.098E-03    0   0.7629   age110_m42            0.0000     4.0125E-01     4.6125   0.8604    98.0110
 10      0.0000     0.0000E+00    0.0000E+00    1.015200E+08  0.00400  2.228E-03    0   0.7207   age116_m42            0.0000     4.5810E-01     4.8331   0.8732    98.5426
 11      0.0000     0.0000E+00    0.0000E+00    2.861200E+08  0.00400  1.093E-03    0   0.6648   age125_m42            0.0000     4.6442E-01     4.7881   0.2955   101.9520
 12      0.0000     0.0000E+00    0.0000E+00    5.088000E+08  0.00400  6.597E-04    0   0.6365   age130_m42            0.0000     5.4961E-01     5.0731   0.2735   103.3761
 13      2.6925     2.6631E+00    2.7644E+00    1.434000E+09  0.00400  2.132E-04    0   0.5798   age139_m42            0.0000     5.1077E-01     5.0981  -0.7156   106.3263
 14      0.0000     0.0000E+00    0.0000E+00    4.250000E+09  0.00400  5.895E-05    0   0.5377   age158_m42            0.0000     6.4747E-01     5.8197  -1.0000    96.1653
 15      3.6133     2.1708E+01    2.0256E+01    7.500000E+09  0.00400  3.510E-05    0   0.5212   age171_m42            0.0000     1.0695E+00     7.3839  -1.0000    88.5977
 16      3.0768     3.2360E+01    2.9164E+01    1.300000E+10  0.00400  2.005E-05    0   0.5034   age193_m42            0.0000     1.6197E+00     9.1741  -1.0000    82.2226
 17      0.0000     0.0000E+00    0.0000E+00    1.800000E+10  0.00400  1.525E-05    0   0.4967   age213_m42            0.0000     1.6688E+00     9.3929  -1.0000    81.0422
 18     12.0572     2.0537E-01    3.6769E-01    1.000000E+06  0.00800  1.238E-02    0   1.0000   age020_m52            0.0000     6.1573E-01     6.1740   2.2011    85.8595
 19      0.0000     0.0000E+00    0.0000E+00    3.160000E+06  0.00800  3.074E-02    0   0.9966   age045_m52            0.0000     5.9855E-01     6.0998   2.1190    86.8601
 20      0.0000     0.0000E+00    0.0000E+00    5.010000E+06  0.00800  2.668E-02    0   0.9443   age055_m52            0.0000     5.1188E-01     5.6034   1.8595    89.5302
 21      2.5573     2.5246E-02    4.1480E-02    6.610000E+06  0.00800  2.136E-02    0   0.9177   age061_m52            0.0000     3.4671E-01     4.5122   0.5900    96.5261
 22      0.0000     0.0000E+00    0.0000E+00    1.000000E+07  0.00800  1.215E-02    0   0.8827   age070_m52            0.0000     4.0866E-01     4.7098   1.2748    94.9980
 23      0.0000     0.0000E+00    0.0000E+00    1.445000E+07  0.00800  8.717E-03    0   0.8552   age078_m52            0.0000     4.0825E-01     4.7413   1.3853    94.1825
 24      0.0000     0.0000E+00    0.0000E+00    2.512000E+07  0.00800  5.592E-03    0   0.8162   age090_m52            0.0000     3.8259E-01     4.5099   1.0154    97.5552
 25      0.0000     0.0000E+00    0.0000E+00    4.000000E+07  0.00800  3.896E-03    0   0.7841   age104_m52            0.0000     3.7316E-01     4.4529   0.9166    98.8525
 26      0.0000     0.0000E+00    0.0000E+00    1.015200E+08  0.00800  2.148E-03    0   0.7226   age116_m52            0.0000     4.0460E-01     4.5961   0.8418    99.3002
 27      0.0000     0.0000E+00    0.0000E+00    2.861200E+08  0.00800  9.925E-04    0   0.6683   age125_m52            0.0000     5.5042E-01     5.0032   0.3367   104.4382
 28     28.1780     1.8917E+01    2.0788E+01    9.047900E+08  0.00800  3.141E-04    0   0.6138   age135_m52            0.0000     6.4324E-01     5.7133  -0.4927   110.3888
 29      0.0000     0.0000E+00    0.0000E+00    1.434000E+09  0.00800  1.719E-04    0   0.5853   age139_m52            0.0000     5.9192E-01     5.6058  -1.0000   105.0640
 30      0.0000     0.0000E+00    0.0000E+00    2.500000E+09  0.00800  7.872E-05    0   0.5600   age150_m52            0.0000     1.1165E+00     7.4572  -1.0000    91.9112
 31      0.0000     0.0000E+00    0.0000E+00    4.250000E+09  0.00800  4.336E-05    0   0.5426   age158_m52            0.0000     1.1667E+00     7.6086  -1.0000    90.4603
 32      0.0000     0.0000E+00    0.0000E+00    6.250000E+09  0.00800  3.159E-05    0   0.5319   age166_m52            0.0000     1.9230E+00     9.8214  -1.0000    83.0885
 33      0.0000     0.0000E+00    0.0000E+00    1.300000E+10  0.00800  1.361E-05    0   0.5073   age193_m52            0.0000     4.1762E+00    15.3698  -1.0000    66.8579
 34      0.0000     0.0000E+00    0.0000E+00    1.800000E+10  0.00800  9.886E-06    0   0.4990   age213_m52            0.0000     4.9090E+00    16.6179  -1.0000    63.2566
 35      2.2366     3.0547E-02    5.4689E-02    1.000000E+06  0.02000  1.544E-02    0   1.0000   age020_m62            0.0000     6.2195E-01     6.2057   2.1980    86.0208
 36      0.0000     0.0000E+00    0.0000E+00    3.160000E+06  0.02000  3.762E-02    0   0.9858   age045_m62            0.0000     6.1801E-01     6.1911   2.1345    86.9054
 37      0.0000     0.0000E+00    0.0000E+00    5.010000E+06  0.02000  3.296E-02    0   0.9342   age055_m62            0.0000     4.8868E-01     5.4989   1.7212    92.1571
 38      8.5826     1.5683E-01    2.4880E-01    8.710000E+06  0.02000  1.154E-02    0   0.8861   age067_m62            0.0000     7.6039E-01     6.6873   0.7573    96.1782
 39      0.0000     0.0000E+00    0.0000E+00    1.445000E+07  0.02000  7.663E-03    0   0.8472   age078_m62            0.0000     4.4047E-01     4.8989   0.9254    96.9954
 40      0.0000     0.0000E+00    0.0000E+00    2.512000E+07  0.02000  4.532E-03    0   0.8099   age090_m62            0.0000     4.6732E-01     5.0236   0.9152    96.8597
 41      0.0070     5.4376E-04    7.3939E-04    5.500000E+07  0.02000  2.733E-03    0   0.7595   age110_m62            0.0000     3.8600E-01     4.5192   0.9034    97.9284
 42      0.0000     0.0000E+00    0.0000E+00    1.609000E+08  0.02000  1.369E-03    0   0.6985   age120_m62            0.0000     5.0361E-01     4.8022   0.7156   101.9125
 43      0.0000     0.0000E+00    0.0000E+00    2.861200E+08  0.02000  9.013E-04    0   0.6714   age125_m62            0.0000     6.3903E-01     5.1659   0.4466   105.7666
 44      8.6847     3.6423E+00    4.2054E+00    5.088000E+08  0.02000  5.028E-04    0   0.6449   age130_m62            0.0000     7.5621E-01     5.8755   0.0425   109.9112
 45      3.0976     2.6902E+00    2.9761E+00    9.047900E+08  0.02000  2.428E-04    0   0.6179   age135_m62            0.0000     6.9549E-01     6.1558  -0.5490   109.5350
 46      5.6253     9.3920E+00    9.9342E+00    1.434000E+09  0.02000  1.263E-04    0   0.5908   age139_m62            0.0000     7.2870E-01     6.3932  -0.9876   107.6195
 47      0.0000     0.0000E+00    0.0000E+00    2.500000E+09  0.02000  5.985E-05    0   0.5673   age150_m62            0.0000     1.3457E+00     8.0766  -1.0000    92.3322
 48      0.0000     0.0000E+00    0.0000E+00    4.250000E+09  0.02000  3.271E-05    0   0.5468   age158_m62            0.0000     2.5665E+00    11.3146  -1.0000    80.3985
 49      0.0000     0.0000E+00    0.0000E+00    1.000000E+10  0.02000  1.360E-05    0   0.5167   age181_m62            0.0000     4.4646E+00    15.2851  -1.0000    68.4036
 50      0.0000     0.0000E+00    0.0000E+00    1.800000E+10  0.02000  7.124E-06    0   0.5013   age213_m62            0.0000     5.7858E+00    17.6244  -1.0000    61.4902
 51      0.0000     0.0000E+00    0.0000E+00    1.000000E+06  0.05000  2.592E-02    0   0.9998   age020_m72            0.0000     6.4647E-01     6.3004   2.1943    85.8435
 52      0.0000     0.0000E+00    0.0000E+00    3.160000E+06  0.05000  4.845E-02    0   0.9577   age045_m72            0.0000     5.6808E-01     5.9638   2.0015    88.7502
 53      0.0000     0.0000E+00    0.0000E+00    5.010000E+06  0.05000  3.072E-02    0   0.9147   age055_m72            0.0000     4.7940E-01     5.2031   1.5219    92.8455
 54      0.0000     0.0000E+00    0.0000E+00    6.610000E+06  0.05000  1.455E-02    0   0.8877   age061_m72            0.0000     1.2384E+00     8.8484   0.8167    96.5372
 55      0.0000     0.0000E+00    0.0000E+00    1.000000E+07  0.05000  9.074E-03    0   0.8524   age070_m72            0.0000     5.8561E-01     5.8213   1.7096    92.5245
 56      0.0000     0.0000E+00    0.0000E+00    2.512000E+07  0.05000  4.250E-03    0   0.7902   age090_m72            0.0000     4.7370E-01     5.1264   1.3844    95.3246
 57      0.0000     0.0000E+00    0.0000E+00    4.000000E+07  0.05000  3.087E-03    0   0.7618   age104_m72            0.0000     4.7806E-01     5.0865   1.1478    97.3177
 58      0.0000     0.0000E+00    0.0000E+00    1.015200E+08  0.05000  1.700E-03    0   0.7096   age116_m72            0.0000     4.8088E-01     4.7393   0.8636   101.2340
 59      0.0040     1.1454E-03    1.3602E-03    2.861200E+08  0.05000  7.384E-04    0   0.6633   age125_m72            0.0000     7.0547E-01     5.4898   0.2992   107.9854
 60      0.0000     0.0000E+00    0.0000E+00    5.088000E+08  0.05000  3.819E-04    0   0.6372   age130_m72            0.0000     7.2199E-01     6.1175  -0.2129   110.7148
 61      6.2489     7.8622E+00    8.6005E+00    9.047900E+08  0.05000  1.676E-04    0   0.6110   age135_m72            0.0000     9.0521E-01     7.2863  -0.9091   108.7211
 62      0.0000     0.0000E+00    0.0000E+00    1.434000E+09  0.05000  8.837E-05    0   0.5874   age139_m72            0.0000     1.4478E+00     8.3210  -1.0000    93.6927
 63      0.0000     0.0000E+00    0.0000E+00    2.500000E+09  0.05000  4.233E-05    0   0.5598   age150_m72            0.0000     2.6906E+00    11.5206  -1.0000    81.0724
 64      0.0000     0.0000E+00    0.0000E+00    6.250000E+09  0.05000  1.435E-05    0   0.5249   age166_m72            0.0000     5.0148E+00    16.4298  -1.0000    65.1016
 65      0.0000     0.0000E+00    0.0000E+00    1.300000E+10  0.05000  6.513E-06    0   0.5036   age193_m72            0.0000     6.8025E+00    19.4858  -1.0000    57.4949
 66      0.0000     0.0000E+00    0.0000E+00    1.800000E+10  0.05000  4.527E-06    0   0.4945   age213_m72            0.0000     7.8562E+00    21.1793  -1.0000    53.0540


## Synthesis Results - Average & Chains ##

# j      x_j: min, <> & last-chain-values for 1 ...  7 chains
  1     14.9409      4.3099      5.4484      4.7020      4.9730      4.8267      8.1079      4.1656      5.4658
  2      0.0000      1.0936      2.8861      0.0000      3.6900      1.2693      1.9617      2.3867      0.0000
  3      0.0000      0.3634      1.6684      0.0000      0.8331      1.3144      0.1505      0.8201      0.1396
  4      0.0000      0.5821      0.0000      0.0000      0.8153      0.0000      0.0434      0.6910      1.2795
  5      0.0062      0.9002      0.0000      1.4973      0.0000      0.0824      0.0000      0.0000      2.9213
  6      0.0000      0.7089      0.0000      0.1153      0.0000      2.5260      0.0000      0.0000      1.1502
  7      0.0000      0.7433      0.4497      0.0000      0.0000      0.0000      2.5960      0.0000      0.0000
  8      0.7748      0.9543      0.1361      5.0805      0.0000      0.0000      0.0000      0.8230      0.0000
  9      0.1842      0.9881      2.8145      1.7034      1.8415      0.0000      2.0660      0.0000      0.0000
 10      0.0000      0.5366      0.8785      0.0000      0.0000      0.0000      0.0000      2.6288      2.3811
 11      0.0000      0.9769      0.0000      0.0372      0.0000      0.0000      0.0000      0.0000      0.0000
 12      0.0000      0.7386      0.0000      0.0000      0.0000      0.0000      0.0000      0.0000      0.0000
 13      2.6925      1.2716      0.9947      1.2537      0.0000      6.3259      0.1660      0.0000      0.5375
 14      0.0000      0.7922      0.0000      0.0000      2.8206      0.0000      2.0252      1.9370      0.4575
 15      3.6133      0.7726      1.9617      1.4649      1.4020      1.8803      0.3059      0.7517      1.3011
 16      3.0768      0.7742      0.4115      2.3681      0.0000      0.8953      1.1510      0.0000      2.0589
 17      0.0000      0.1663      0.0000      0.0000      0.0000      0.0000      0.0000      0.0000      0.0000
 18     12.0572      5.3259      5.5354      8.2398      3.7881      7.3212      3.5423      7.1608      4.3043
 19      0.0000      0.2018      0.0000      0.0000      0.0000      0.0000      0.3069      0.0000      0.0000
 20      0.0000      0.5496      2.0930      0.0000      0.0000      0.0000      0.0000      3.1093      0.0000
 21      2.5573     14.4560     11.9206     11.7914     15.5743     18.4935     15.1759     15.8272     15.8768
 22      0.0000      0.9507      0.0000      0.3484      0.0000      0.0000      0.0000      3.3157      0.0000
 23      0.0000      0.9668      0.0000      0.9719      2.0212      2.3961      0.0000      0.5192      1.9064
 24      0.0000      1.1410      0.0000      0.0000      1.2327      0.0000      0.8046      0.0000      0.0000
 25      0.0000      0.8757      0.0000      0.0000      3.3960      0.0000      0.7982      0.0000      5.7960
 26      0.0000      1.1460      2.2795      0.0134      1.1803      0.0000      0.0000      0.6158      0.0000
 27      0.0000      0.7620      0.0000      0.0000      0.0000      0.0000      0.6304      0.0000      0.0000
 28     28.1780     15.9531     17.5289     18.7890     18.0685      7.2881     21.2708     15.9184     22.3834
 29      0.0000      0.2446      0.0000      0.0000      0.0000      0.0000      0.0000      0.0000      0.0000
 30      0.0000      0.5452      1.1227      0.0000      0.0000      1.8296      0.0000      0.0000      0.0000
 31      0.0000      1.7084      1.7277      1.0208      1.5008      2.6201      1.8207      0.3528      2.2918
 32      0.0000      0.2398      0.0000      0.0000      0.0128      0.0000      0.0000      0.0000      0.0000
 33      0.0000      0.0692      0.0000      0.0000      0.0000      0.0000      0.0000      0.0000      0.0000
 34      0.0000      0.1054      0.0000      0.0000      0.0000      0.3470      0.0000      0.3563      0.0000
 35      2.2366      1.3658      3.1875      2.0004      2.7668      0.0000      1.7439      0.2340      0.9223
 36      0.0000      0.5244      0.0000      0.0000      0.0000      0.0000      0.0000      0.0287      1.8287
 37      0.0000      1.1183      0.0000      1.7965      1.1546      0.0000      0.0000      0.0000      0.3836
 38      8.5826      1.9945      3.9232      4.8819      5.1117      0.0000      3.2501      2.3601      0.0000
 39      0.0000      1.8750      5.2937      0.1540      2.0377      3.2265      0.0000      4.1086      0.0000
 40      0.0000      0.8562      0.1325      0.0000      0.0000      1.9836      5.5175      0.2322      1.3987
 41      0.0070      0.8066      0.6116      0.8296      0.0000      0.3387      0.0000      0.0000      2.3840
 42      0.0000      0.4928      0.0000      0.0000      0.6604      0.0000      0.0000      0.0000      0.0000
 43      0.0000      0.5033      0.2016      1.6466      0.0000      0.0000      0.0000      0.4635      0.7691
 44      8.6847      1.8740      0.0000      5.4688      4.5279      8.8810      3.3480      3.3340      0.0000
 45      3.0976      5.8336      6.9714      5.0023      5.8898      6.4569      8.5691      6.9489      3.5182
 46      5.6253      4.1101      3.2585      3.4853      4.1570      0.7748      2.2866      9.7388      4.9873
