###################################################################
## OUTPUT of StarlightChains_v04.for    [Cid@UFSC - 01/Apr/2007] ##
###################################################################

## Some input info
1994N.txt                                [arq_obs]
Base.CB07.vall.4m                        [arq_base]
Masks.EmLines.NEW.gm                     [arq_masks]
StCv04.C11.config                        [arq_config]
   66                                    [N_base]
    0                                    [N_YAV_components = # of components with extra extinction!]
    0                                    [i_FitPowerLaw (1/0 = Yes/No)]
-9.99                                    [alpha_PowerLaw]
CCM                                      [red_law_option]
 1.458241                                [q_norm = A(l_norm)/A(V)]

## (Re)Sampling Parameters
 3741.00                                 [l_ini (A)]
 7218.00                                 [l_fin (A)]
    1.00                                 [dl    (A)]     (OBS: dl_cushion =    50.00 A)

## Normalization info
 4020.00                                 [l_norm (A) - for base]
 4010.00                                 [llow_norm (A) - window for f_obs]
 4060.00                                 [lupp_norm (A) - window for f_obs]
1.929970E-16                             [fobs_norm (in input units)]

## S/N
 3691.00                                 [llow_SN (A) - window for S/N]
 7268.00                                 [lupp_SN (A) - window for S/N]
   5.539                                 [S/N in S/N window]
   7.667                                 [S/N in norm. window]
   9.230                                 [S/N_err in S/N window]
  12.777                                 [S/N_err in norm. window]
  1.0000                                 [fscale_chi2]

## etc...
    -2007221                             [idum_orig]
  2384                                   [NOl_eff]
  2379                                   [Nl_eff]
     5    NSIGMA                         [Ntot_cliped & clip_method]
  1404130                                [Nglobal_steps]
   7                                     [N_chains]
  23                                     [NEX0s_base = N_base in EX0s-fits]
 0   0   1        3   2.0   2.117E+01    [Clip-Bug, RC-Crash & Burn-In warning-flags, n_censored_weights, wei_nsig_threshold & wei_limit]
    13     13.436     12.896      0.540  [idt_all, wdt_TotTime, wdt_UsrTime & wdt_SysTime (sec)]

## Synthesis Results - Best model ##

 2.62361E-01                             [chi2/Nl_eff]
     4.10689                             [adev (%)]

   101.41460                             [sum-of-x (%)]
 2.13497E-16                             [Flux_tot (units of input spectrum!)]
 9.26966E-13                             [Mini_tot (???)]
 5.36761E-13                             [Mcor_tot (???)]

 -98.33                                  [v0_min  (km/s)]
 251.93                                  [vd_min  (km/s)]
 0.0647                                  [AV_min  (mag)]
 0.0000                                  [YAV_min (mag)]

# j     x_j(%)      Mini_j(%)     Mcor_j(%)     age_j(yr)     Z_j      (L/M)_j    YAV?  Mstars   component_j        a/Fe...       SSP_chi2r SSP_adev(%)   SSP_AV   SSP_x(%)
  1      3.0595     6.3513E-02    1.0968E-01    1.000000E+06  0.00400  1.094E-02    0   1.0000   age020_m42            0.0000     6.4292E-01     6.1428   2.4044    82.0578
  2      0.0000     0.0000E+00    0.0000E+00    3.160000E+06  0.00400  4.007E-02    0   0.9999   age045_m42            0.0000     4.2612E-01     5.0166   1.6170    90.4081
  3      0.0000     0.0000E+00    0.0000E+00    5.010000E+06  0.00400  2.539E-02    0   0.9488   age055_m42            0.0000     5.0029E-01     5.3905   1.9637    87.0521
  4      0.0000     0.0000E+00    0.0000E+00    6.610000E+06  0.00400  2.620E-02    0   0.9220   age061_m42            0.0000     4.2104E-01     4.8980   1.5394    90.8121
  5      0.0000     0.0000E+00    0.0000E+00    1.000000E+07  0.00400  1.322E-02    0   0.8862   age070_m42            0.0000     4.1280E-01     4.7404   1.2689    92.2475
  6      0.0000     0.0000E+00    0.0000E+00    1.445000E+07  0.00400  7.883E-03    0   0.8571   age078_m42            0.0000     4.6501E-01     5.0201   1.6111    89.2404
  7      0.0000     0.0000E+00    0.0000E+00    2.512000E+07  0.00400  5.251E-03    0   0.8174   age090_m42            0.0000     4.1477E-01     4.7334   1.1360    92.9094
  8      0.0000     0.0000E+00    0.0000E+00    4.000000E+07  0.00400  3.649E-03    0   0.7851   age104_m42            0.0000     3.7728E-01     4.5471   0.8957    94.2753
  9      0.0000     0.0000E+00    0.0000E+00    5.500000E+07  0.00400  3.098E-03    0   0.7629   age110_m42            0.0000     3.7746E-01     4.5105   1.0349    94.9522
 10      0.0000     0.0000E+00    0.0000E+00    1.015200E+08  0.00400  2.228E-03    0   0.7207   age116_m42            0.0000     4.0660E-01     4.6218   1.0437    95.6683
 11      0.0000     0.0000E+00    0.0000E+00    2.861200E+08  0.00400  1.093E-03    0   0.6648   age125_m42            0.0000     4.0958E-01     4.7126   0.4579    99.3271
 12      0.0000     0.0000E+00    0.0000E+00    5.088000E+08  0.00400  6.597E-04    0   0.6365   age130_m42            0.0000     4.5595E-01     4.8973   0.4307   100.9923
 13      6.4473     6.8678E+00    6.8767E+00    1.434000E+09  0.00400  2.132E-04    0   0.5798   age139_m42            0.0000     3.8401E-01     4.8204  -0.5607   104.0270
 14      0.0000     0.0000E+00    0.0000E+00    4.250000E+09  0.00400  5.895E-05    0   0.5377   age158_m42            0.0000     4.4992E-01     5.3056  -0.9830    99.1246
 15      5.1668     3.3431E+01    3.0091E+01    7.500000E+09  0.00400  3.510E-05    0   0.5212   age171_m42            0.0000     6.6227E-01     5.9375  -1.0000    92.1123
 16      0.0000     0.0000E+00    0.0000E+00    1.300000E+10  0.00400  2.005E-05    0   0.5034   age193_m42            0.0000     1.0568E+00     7.3489  -1.0000    85.6264
 17      0.0000     0.0000E+00    0.0000E+00    1.800000E+10  0.00400  1.525E-05    0   0.4967   age213_m42            0.0000     1.0869E+00     7.5088  -1.0000    84.4061
 18      3.5802     6.5677E-02    1.1342E-01    1.000000E+06  0.00800  1.238E-02    0   1.0000   age020_m52            0.0000     6.4152E-01     6.1470   2.4013    82.2015
 19      0.0000     0.0000E+00    0.0000E+00    3.160000E+06  0.00800  3.074E-02    0   0.9966   age045_m52            0.0000     6.1794E-01     6.0405   2.3186    83.1828
 20      0.0000     0.0000E+00    0.0000E+00    5.010000E+06  0.00800  2.668E-02    0   0.9443   age055_m52            0.0000     5.2075E-01     5.5063   2.0540    85.9449
 21      0.0020     2.1622E-05    3.4267E-05    6.610000E+06  0.00800  2.136E-02    0   0.9177   age061_m52            0.0000     3.7023E-01     4.6187   0.7751    93.0163
 22      0.0000     0.0000E+00    0.0000E+00    1.000000E+07  0.00800  1.215E-02    0   0.8827   age070_m52            0.0000     4.5910E-01     5.0243   1.4589    91.5406
 23      0.0000     0.0000E+00    0.0000E+00    1.445000E+07  0.00800  8.717E-03    0   0.8552   age078_m52            0.0000     4.4003E-01     4.8954   1.5707    90.7274
 24      0.0144     5.8398E-04    8.2315E-04    2.512000E+07  0.00800  5.592E-03    0   0.8162   age090_m52            0.0000     4.0900E-01     4.7157   1.1944    94.2462
 25      0.0000     0.0000E+00    0.0000E+00    4.000000E+07  0.00800  3.896E-03    0   0.7841   age104_m52            0.0000     3.7719E-01     4.5460   1.0922    95.6768
 26      0.0000     0.0000E+00    0.0000E+00    1.015200E+08  0.00800  2.148E-03    0   0.7226   age116_m52            0.0000     3.6222E-01     4.4764   1.0131    96.3540
 27      0.0000     0.0000E+00    0.0000E+00    2.861200E+08  0.00800  9.925E-04    0   0.6683   age125_m52            0.0000     4.4863E-01     4.8058   0.4935   102.0562
 28      0.0000     0.0000E+00    0.0000E+00    9.047900E+08  0.00800  3.141E-04    0   0.6138   age135_m52            0.0000     4.9419E-01     5.5298  -0.3410   108.1943
 29      0.0000     0.0000E+00    0.0000E+00    1.434000E+09  0.00800  1.719E-04    0   0.5853   age139_m52            0.0000     4.4649E-01     5.4065  -0.9055   105.1547
 30      0.0000     0.0000E+00    0.0000E+00    2.500000E+09  0.00800  7.872E-05    0   0.5600   age150_m52            0.0000     6.9768E-01     6.1150  -1.0000    95.5838
 31      0.0000     0.0000E+00    0.0000E+00    4.250000E+09  0.00800  4.336E-05    0   0.5426   age158_m52            0.0000     7.4320E-01     6.2228  -1.0000    94.0737
 32      0.0000     0.0000E+00    0.0000E+00    6.250000E+09  0.00800  3.159E-05    0   0.5319   age166_m52            0.0000     1.3036E+00     8.0122  -1.0000    86.5967
 33      0.0000     0.0000E+00    0.0000E+00    1.300000E+10  0.00800  1.361E-05    0   0.5073   age193_m52            0.0000     3.2169E+00    13.2219  -1.0000    69.9454
 34      0.0000     0.0000E+00    0.0000E+00    1.800000E+10  0.00800  9.886E-06    0   0.4990   age213_m52            0.0000     3.8995E+00    14.5212  -1.0000    66.2271
 35      6.1476     9.0424E-02    1.5616E-01    1.000000E+06  0.02000  1.544E-02    0   1.0000   age020_m62            0.0000     6.4675E-01     6.1831   2.3985    82.3428
 36      0.0000     0.0000E+00    0.0000E+00    3.160000E+06  0.02000  3.762E-02    0   0.9858   age045_m62            0.0000     6.4065E-01     6.1538   2.3355    83.1644
 37      0.0000     0.0000E+00    0.0000E+00    5.010000E+06  0.02000  3.296E-02    0   0.9342   age055_m62            0.0000     4.6878E-01     5.2187   1.9098    88.7336
 38      8.4591     1.6647E-01    2.5475E-01    8.710000E+06  0.02000  1.154E-02    0   0.8861   age067_m62            0.0000     9.5175E-01     7.6328   0.9451    92.3379
 39      0.0000     0.0000E+00    0.0000E+00    1.445000E+07  0.02000  7.663E-03    0   0.8472   age078_m62            0.0000     5.3602E-01     5.5206   1.1094    93.4065
 40      0.0000     0.0000E+00    0.0000E+00    2.512000E+07  0.02000  4.532E-03    0   0.8099   age090_m62            0.0000     5.6283E-01     5.6477   1.0967    93.3764
 41      0.0000     0.0000E+00    0.0000E+00    5.500000E+07  0.02000  2.733E-03    0   0.7595   age110_m62            0.0000     3.9181E-01     4.5977   1.0803    94.7191
 42      0.0000     0.0000E+00    0.0000E+00    1.609000E+08  0.02000  1.369E-03    0   0.6985   age120_m62            0.0000     4.2995E-01     4.6199   0.8807    99.1926
 43      0.0000     0.0000E+00    0.0000E+00    2.861200E+08  0.02000  9.013E-04    0   0.6714   age125_m62            0.0000     5.2049E-01     4.9220   0.6026   103.4112
 44     12.1364     5.4818E+00    6.1051E+00    5.088000E+08  0.02000  5.028E-04    0   0.6449   age130_m62            0.0000     5.9578E-01     5.6741   0.1945   107.7278
 45      0.0614     5.7461E-02    6.1316E-02    9.047900E+08  0.02000  2.428E-04    0   0.6179   age135_m62            0.0000     5.2875E-01     5.7992  -0.3939   107.2290
 46     10.1085     1.8177E+01    1.8545E+01    1.434000E+09  0.02000  1.263E-04    0   0.5908   age139_m62            0.0000     5.6890E-01     5.9114  -0.8278   105.1334
 47      2.0190     7.6611E+00    7.5056E+00    2.500000E+09  0.02000  5.985E-05    0   0.5673   age150_m62            0.0000     8.9239E-01     6.7702  -1.0000    96.0621
 48      0.0000     0.0000E+00    0.0000E+00    4.250000E+09  0.02000  3.271E-05    0   0.5468   age158_m62            0.0000     1.8384E+00     9.4284  -1.0000    83.8986
 49      0.0000     0.0000E+00    0.0000E+00    1.000000E+10  0.02000  1.360E-05    0   0.5167   age181_m62            0.0000     3.5077E+00    13.2598  -1.0000    71.5743
 50      0.0000     0.0000E+00    0.0000E+00    1.800000E+10  0.02000  7.124E-06    0   0.5013   age213_m62            0.0000     4.7264E+00    15.6326  -1.0000    64.4246
 51      8.3159     7.2862E-02    1.2581E-01    1.000000E+06  0.05000  2.592E-02    0   0.9998   age020_m72            0.0000     6.6979E-01     6.2941   2.3948    82.1631
 52      0.0000     0.0000E+00    0.0000E+00    3.160000E+06  0.05000  4.845E-02    0   0.9577   age045_m72            0.0000     5.7104E-01     5.8205   2.1980    85.1209
 53      0.0000     0.0000E+00    0.0000E+00    5.010000E+06  0.05000  3.072E-02    0   0.9147   age055_m72            0.0000     5.6467E-01     5.6877   1.7119    89.1909
 54      0.0000     0.0000E+00    0.0000E+00    6.610000E+06  0.05000  1.455E-02    0   0.8877   age061_m72            0.0000     1.5505E+00    10.0131   1.0025    92.6178
 55      0.0000     0.0000E+00    0.0000E+00    1.000000E+07  0.05000  9.074E-03    0   0.8524   age070_m72            0.0000     6.9307E-01     6.3239   1.8988    88.8926
 56      0.0000     0.0000E+00    0.0000E+00    2.512000E+07  0.05000  4.250E-03    0   0.7902   age090_m72            0.0000     5.4004E-01     5.5155   1.5662    91.9299
 57      0.0000     0.0000E+00    0.0000E+00    4.000000E+07  0.05000  3.087E-03    0   0.7618   age104_m72            0.0000     5.3738E-01     5.4928   1.3237    94.0980
 58      0.0000     0.0000E+00    0.0000E+00    1.015200E+08  0.05000  1.700E-03    0   0.7096   age116_m72            0.0000     4.3273E-01     4.6981   1.0290    98.4764
 59      8.9525     2.7535E+00    3.1541E+00    2.861200E+08  0.05000  7.384E-04    0   0.6633   age125_m72            0.0000     5.6344E-01     5.2788   0.4519   105.7760
 60     14.9911     8.9148E+00    9.8100E+00    5.088000E+08  0.05000  3.819E-04    0   0.6372   age130_m72            0.0000     5.4694E-01     5.7334  -0.0583   108.4150
 61     11.9530     1.6197E+01    1.7090E+01    9.047900E+08  0.05000  1.676E-04    0   0.6110   age135_m72            0.0000     7.1865E-01     6.7010  -0.7462   106.1161
 62      0.0000     0.0000E+00    0.0000E+00    1.434000E+09  0.05000  8.837E-05    0   0.5874   age139_m72            0.0000     9.7677E-01     7.0227  -1.0000    97.5135
 63      0.0000     0.0000E+00    0.0000E+00    2.500000E+09  0.05000  4.233E-05    0   0.5598   age150_m72            0.0000     1.9571E+00     9.6555  -1.0000    84.6073
 64      0.0000     0.0000E+00    0.0000E+00    6.250000E+09  0.05000  1.435E-05    0   0.5249   age166_m72            0.0000     3.9994E+00    14.3912  -1.0000    68.1624
 65      0.0000     0.0000E+00    0.0000E+00    1.300000E+10  0.05000  6.513E-06    0   0.5036   age193_m72            0.0000     5.6618E+00    17.5417  -1.0000    60.2948
 66      0.0000     0.0000E+00    0.0000E+00    1.800000E+10  0.05000  4.527E-06    0   0.4945   age213_m72            0.0000     6.6593E+00    19.3199  -1.0000    55.6829


## Synthesis Results - Average & Chains ##

# j      x_j: min, <> & last-chain-values for 1 ...  7 chains
  1      3.0595      0.4503      1.2714      1.8942      2.0230      1.9707      1.1838      0.6917      0.0000
  2      0.0000      0.8385      0.8689      3.4748      1.9958      0.1090      3.3100      0.0000      0.0639
  3      0.0000      0.8196      2.1868      0.0000      0.0000      0.0000      0.6650      0.0000      0.0000
  4      0.0000      0.6030      0.9981      0.3110      0.0000      0.0000      0.0000      0.1985      0.2673
  5      0.0000      1.0669      1.0200      0.0000      2.0834      0.0000      0.0000      0.0000      0.0000
  6      0.0000      0.7720      0.0563      0.0000      0.0000      0.0000      0.7188      0.0000      2.6255
  7      0.0000      0.8935      1.4167      0.3793      0.0000      0.0000      0.7068      1.7061      0.0000
  8      0.0000      1.4476      4.1714      1.4130      0.0613      0.0000      2.0738      1.3314      0.0000
  9      0.0000      0.9717      3.8632      0.3365      0.0000      0.0000      0.0000      2.0752      1.1754
 10      0.0000      0.6085      0.9041      1.1501      0.0000      0.2424      0.0000      0.0756      1.5279
 11      0.0000      0.9046      0.0000      0.0000      0.8345      1.1593      0.0000      0.0000      0.0000
 12      0.0000      0.7160      0.3161      0.0000      0.2977      0.0000      0.0000      0.0000      0.0000
 13      6.4473      1.7028      1.0989      3.5059      0.0000      1.0362      0.0000      1.8421      0.5803
 14      0.0000      0.5361      1.2289      0.6100      2.1893      0.0255      0.0000      1.2076      1.1959
 15      5.1668      0.6865      0.0000      1.2896      0.0000      2.3906      0.0000      0.0000      0.0000
 16      0.0000      0.1390      0.0000      0.8096      0.4348      0.0000      0.0000      0.2787      0.6040
 17      0.0000      0.1847      0.5651      0.0000      0.5078      0.0000      0.0000      0.7142      0.5278
 18      3.5802      0.7252      0.4910      2.4987      0.0000      1.0607      0.6313      0.0000      1.1510
 19      0.0000      0.3857      0.2227      0.0000      1.6568      0.0000      0.0000      1.4688      0.3329
 20      0.0000      0.5590      0.5303      1.2851      0.0000      0.3783      0.0000      1.1518      0.0000
 21      0.0020      7.6596      6.4484      5.0360      8.6571      6.7853     10.3195      9.4715      8.4829
 22      0.0000      1.1892      0.0000      0.0000      0.0000      0.0000      2.4698      3.5847      1.7846
 23      0.0000      0.6183      0.1604      1.5852      0.0831      0.0000      0.0000      0.8491      0.0000
 24      0.0144      1.4986      0.4932      0.4216      0.8304      5.5492      1.3418      1.7353      1.4524
 25      0.0000      1.1951      0.0000      0.0000      1.1328      0.0000      0.0000      0.0000      0.9617
 26      0.0000      0.8418      2.7435      1.8575      3.0631      0.0000      0.5731      0.0000      0.0000
 27      0.0000      0.8253      0.4205      0.0000      1.5101      1.2397      0.9320      0.0000      0.0000
 28      0.0000      4.2694      1.6676      3.7715      2.3117      0.9210      2.7442      1.5809      3.4723
 29      0.0000      0.5104      0.5517      0.0000      1.2449      0.0000      0.0000      0.7262      0.0000
 30      0.0000      0.2124      0.0000      0.0000      0.0000      0.0000      0.0000      0.0000      0.0000
 31      0.0000      0.3030      1.5414      0.0000      0.0000      0.0000      0.0000      0.8882      0.0000
 32      0.0000      0.1954      0.0000      0.0000      0.0000      0.4182      0.0000      0.0000      0.0000
 33      0.0000      0.3349      0.1273      0.0000      0.3045      0.0000      1.6249      0.4375      0.6604
 34      0.0000      0.1029      0.0000      0.3070      0.0926      0.0000      0.5395      0.0000      0.2691
 35      6.1476      2.0918      4.0293      1.8903      2.6112      1.7844      2.0639      1.3023      2.1223
 36      0.0000      0.9116      0.0301      4.6083      1.3250      3.2858      0.8994      0.0000      1.6039
 37      0.0000      0.9139      0.0000      0.7594      0.0000      0.0000      0.0000      0.2879      0.0000
 38      8.4591      6.2219      8.4079      6.9620      8.2469      8.6761      7.9460      8.4899      8.5978
 39      0.0000      1.5767      2.6583      0.0000      1.3537      3.9092      0.0000      4.6954      1.0442
 40      0.0000      0.7479      0.0000      0.0000      0.0000      1.1923      0.8800      0.0000      0.4587
 41      0.0000      0.7788      0.2491      2.3509      0.0000      0.0072      4.2351      0.0000      0.0000
 42      0.0000      0.8228      0.0000      0.0000      0.0000      0.0000      0.0024      0.8331      1.9610
 43      0.0000      1.0515      0.4196      1.6965      2.4118      0.0000      0.0000      1.7953      2.3145
 44     12.1364      2.6738      1.1110      3.7300      1.9120      6.6454      4.7939      2.2635      2.7045
 45      0.0614     11.6828     14.4454      8.9996     12.5459      5.9461     10.7820     11.6375      7.5424
 46     10.1085      5.2566      5.5526      6.2778      7.3462      5.5307      6.0446      5.3809      8.2610
