###################################################################
## OUTPUT of StarlightChains_v04.for    [Cid@UFSC - 01/Apr/2007] ##
###################################################################

## Some input info
1995L.txt                                [arq_obs]
Base.CB07.vall.4m                        [arq_base]
Masks.EmLines.NEW.gm                     [arq_masks]
StCv04.C11.config                        [arq_config]
   66                                    [N_base]
    0                                    [N_YAV_components = # of components with extra extinction!]
    0                                    [i_FitPowerLaw (1/0 = Yes/No)]
-9.99                                    [alpha_PowerLaw]
CCM                                      [red_law_option]
 1.458241                                [q_norm = A(l_norm)/A(V)]

## (Re)Sampling Parameters
 3741.00                                 [l_ini (A)]
 7218.00                                 [l_fin (A)]
    1.00                                 [dl    (A)]     (OBS: dl_cushion =    50.00 A)

## Normalization info
 4020.00                                 [l_norm (A) - for base]
 4010.00                                 [llow_norm (A) - window for f_obs]
 4060.00                                 [lupp_norm (A) - window for f_obs]
1.630211E-17                             [fobs_norm (in input units)]

## S/N
 3691.00                                 [llow_SN (A) - window for S/N]
 7268.00                                 [lupp_SN (A) - window for S/N]
   5.882                                 [S/N in S/N window]
   4.878                                 [S/N in norm. window]
  11.836                                 [S/N_err in S/N window]
   9.816                                 [S/N_err in norm. window]
  1.0000                                 [fscale_chi2]

## etc...
    -2007224                             [idum_orig]
  2376                                   [NOl_eff]
  2376                                   [Nl_eff]
     0    NSIGMA                         [Ntot_cliped & clip_method]
  1247610                                [Nglobal_steps]
   7                                     [N_chains]
  21                                     [NEX0s_base = N_base in EX0s-fits]
 0   0   1        5   2.0   1.388E+01    [Clip-Bug, RC-Crash & Burn-In warning-flags, n_censored_weights, wei_nsig_threshold & wei_limit]
    11     10.891     10.351      0.540  [idt_all, wdt_TotTime, wdt_UsrTime & wdt_SysTime (sec)]

## Synthesis Results - Best model ##

 4.76054E-01                             [chi2/Nl_eff]
     5.02249                             [adev (%)]

   109.64027                             [sum-of-x (%)]
 1.76734E-17                             [Flux_tot (units of input spectrum!)]
 5.98527E-13                             [Mini_tot (???)]
 3.15243E-13                             [Mcor_tot (???)]

 172.25                                  [v0_min  (km/s)]
 184.56                                  [vd_min  (km/s)]
-0.0084                                  [AV_min  (mag)]
 0.0000                                  [YAV_min (mag)]

# j     x_j(%)      Mini_j(%)     Mcor_j(%)     age_j(yr)     Z_j      (L/M)_j    YAV?  Mstars   component_j        a/Fe...       SSP_chi2r SSP_adev(%)   SSP_AV   SSP_x(%)
  1      2.4058     5.9227E-03    1.1245E-02    1.000000E+06  0.00400  1.094E-02    0   1.0000   age020_m42            0.0000     1.1437E+00     8.2014   3.4664    96.0181
  2      1.2680     8.5223E-04    1.6179E-03    3.160000E+06  0.00400  4.007E-02    0   0.9999   age045_m42            0.0000     1.0822E+00     7.9009   2.7530   102.1114
  3      0.0000     0.0000E+00    0.0000E+00    5.010000E+06  0.00400  2.539E-02    0   0.9488   age055_m42            0.0000     1.1036E+00     8.0291   3.0652    99.9269
  4      0.0000     0.0000E+00    0.0000E+00    6.610000E+06  0.00400  2.620E-02    0   0.9220   age061_m42            0.0000     1.0831E+00     7.9629   2.6748   102.5637
  5      0.0000     0.0000E+00    0.0000E+00    1.000000E+07  0.00400  1.322E-02    0   0.8862   age070_m42            0.0000     1.1904E+00     8.6106   2.3496   106.8500
  6      0.0000     0.0000E+00    0.0000E+00    1.445000E+07  0.00400  7.883E-03    0   0.8571   age078_m42            0.0000     1.1956E+00     8.5631   2.6799   103.9595
  7      0.0000     0.0000E+00    0.0000E+00    2.512000E+07  0.00400  5.251E-03    0   0.8174   age090_m42            0.0000     1.2338E+00     8.8007   2.2135   107.7550
  8      0.0000     0.0000E+00    0.0000E+00    4.000000E+07  0.00400  3.649E-03    0   0.7851   age104_m42            0.0000     1.1835E+00     8.6048   1.9897   108.5060
  9      0.0000     0.0000E+00    0.0000E+00    5.500000E+07  0.00400  3.098E-03    0   0.7629   age110_m42            0.0000     1.1266E+00     8.3157   2.1655   107.4163
 10      0.0000     0.0000E+00    0.0000E+00    1.015200E+08  0.00400  2.228E-03    0   0.7207   age116_m42            0.0000     1.0988E+00     8.2064   2.2003   106.9299
 11      0.0000     0.0000E+00    0.0000E+00    2.861200E+08  0.00400  1.093E-03    0   0.6648   age125_m42            0.0000     1.1636E+00     8.6014   1.6170   110.9765
 12      0.0000     0.0000E+00    0.0000E+00    5.088000E+08  0.00400  6.597E-04    0   0.6365   age130_m42            0.0000     1.0478E+00     8.2014   1.6275   110.8982
 13      0.0000     0.0000E+00    0.0000E+00    1.434000E+09  0.00400  2.132E-04    0   0.5798   age139_m42            0.0000     7.6308E-01     6.8876   0.6625   112.9576
 14      0.0000     0.0000E+00    0.0000E+00    4.250000E+09  0.00400  5.895E-05    0   0.5377   age158_m42            0.0000     5.7268E-01     5.6465   0.2429   107.6890
 15      0.0000     0.0000E+00    0.0000E+00    7.500000E+09  0.00400  3.510E-05    0   0.5212   age171_m42            0.0000     5.3073E-01     5.3900   0.0662   106.5168
 16     15.4972     2.0816E+01    1.9896E+01    1.300000E+10  0.00400  2.005E-05    0   0.5034   age193_m42            0.0000     5.1058E-01     5.2448  -0.0888   105.5552
 17      2.7850     4.9184E+00    4.6383E+00    1.800000E+10  0.00400  1.525E-05    0   0.4967   age213_m42            0.0000     5.1366E-01     5.2655  -0.1152   105.2384
 18      0.0000     0.0000E+00    0.0000E+00    1.000000E+06  0.00800  1.238E-02    0   1.0000   age020_m52            0.0000     1.1418E+00     8.1969   3.4642    96.1473
 19      0.0000     0.0000E+00    0.0000E+00    3.160000E+06  0.00800  3.074E-02    0   0.9966   age045_m52            0.0000     1.1301E+00     8.1337   3.3888    96.9465
 20      0.0000     0.0000E+00    0.0000E+00    5.010000E+06  0.00800  2.668E-02    0   0.9443   age055_m52            0.0000     1.0973E+00     8.0244   3.1438    99.2031
 21      2.5607     3.2287E-03    5.6256E-03    6.610000E+06  0.00800  2.136E-02    0   0.9177   age061_m52            0.0000     1.0107E+00     7.9125   1.8477   108.2349
 22      0.0000     0.0000E+00    0.0000E+00    1.000000E+07  0.00800  1.215E-02    0   0.8827   age070_m52            0.0000     1.2480E+00     8.8672   2.5173   107.1979
 23      0.0000     0.0000E+00    0.0000E+00    1.445000E+07  0.00800  8.717E-03    0   0.8552   age078_m52            0.0000     1.1760E+00     8.5169   2.6438   105.4915
 24      0.0000     0.0000E+00    0.0000E+00    2.512000E+07  0.00800  5.592E-03    0   0.8162   age090_m52            0.0000     1.2255E+00     8.8028   2.2756   109.1582
 25      0.0000     0.0000E+00    0.0000E+00    4.000000E+07  0.00800  3.896E-03    0   0.7841   age104_m52            0.0000     1.1838E+00     8.6128   2.1980   109.5260
 26      0.0000     0.0000E+00    0.0000E+00    1.015200E+08  0.00800  2.148E-03    0   0.7226   age116_m52            0.0000     1.1014E+00     8.2515   2.1573   108.3181
 27      0.0000     0.0000E+00    0.0000E+00    2.861200E+08  0.00800  9.925E-04    0   0.6683   age125_m52            0.0000     1.0178E+00     8.1063   1.6918   111.9569
 28      0.0000     0.0000E+00    0.0000E+00    9.047900E+08  0.00800  3.141E-04    0   0.6138   age135_m52            0.0000     7.6289E-01     6.7644   0.9186   115.5144
 29      0.0000     0.0000E+00    0.0000E+00    1.434000E+09  0.00800  1.719E-04    0   0.5853   age139_m52            0.0000     6.3898E-01     6.0697   0.3381   113.3237
 30      0.0000     0.0000E+00    0.0000E+00    2.500000E+09  0.00800  7.872E-05    0   0.5600   age150_m52            0.0000     5.1599E-01     5.3608   0.0961   109.0670
 31      0.0000     0.0000E+00    0.0000E+00    4.250000E+09  0.00800  4.336E-05    0   0.5426   age158_m52            0.0000     5.1994E-01     5.3466   0.0810   108.0252
 32      0.0000     0.0000E+00    0.0000E+00    6.250000E+09  0.00800  3.159E-05    0   0.5319   age166_m52            0.0000     5.1040E-01     5.3181  -0.1049   107.3320
 33      0.0000     0.0000E+00    0.0000E+00    1.300000E+10  0.00800  1.361E-05    0   0.5073   age193_m52            0.0000     5.2989E-01     5.5602  -0.5518   105.7443
 34      0.0000     0.0000E+00    0.0000E+00    1.800000E+10  0.00800  9.886E-06    0   0.4990   age213_m52            0.0000     5.8314E-01     6.0115  -0.6398   104.3675
 35      1.7020     2.9688E-03    5.6366E-03    1.000000E+06  0.02000  1.544E-02    0   1.0000   age020_m62            0.0000     1.1451E+00     8.2174   3.4596    96.3951
 36      0.0000     0.0000E+00    0.0000E+00    3.160000E+06  0.02000  3.762E-02    0   0.9858   age045_m62            0.0000     1.1399E+00     8.1698   3.3998    97.2007
 37      0.0000     0.0000E+00    0.0000E+00    5.010000E+06  0.02000  3.296E-02    0   0.9342   age055_m62            0.0000     1.0752E+00     7.9042   3.0327   100.8350
 38      0.0000     0.0000E+00    0.0000E+00    8.710000E+06  0.02000  1.154E-02    0   0.8861   age067_m62            0.0000     1.9328E+00    11.7344   1.8869   114.5123
 39      0.0000     0.0000E+00    0.0000E+00    1.445000E+07  0.02000  7.663E-03    0   0.8472   age078_m62            0.0000     1.3852E+00     9.5250   2.1382   111.0271
 40      0.0000     0.0000E+00    0.0000E+00    2.512000E+07  0.02000  4.532E-03    0   0.8099   age090_m62            0.0000     1.4615E+00     9.7744   2.1286   110.8381
 41      0.0000     0.0000E+00    0.0000E+00    5.500000E+07  0.02000  2.733E-03    0   0.7595   age110_m62            0.0000     1.1636E+00     8.5526   2.1788   108.8296
 42      0.0000     0.0000E+00    0.0000E+00    1.609000E+08  0.02000  1.369E-03    0   0.6985   age120_m62            0.0000     1.0926E+00     8.3378   2.0459   110.4358
 43      0.0000     0.0000E+00    0.0000E+00    2.861200E+08  0.02000  9.013E-04    0   0.6714   age125_m62            0.0000     1.0433E+00     8.2657   1.8070   113.0511
 44      0.0000     0.0000E+00    0.0000E+00    5.088000E+08  0.02000  5.028E-04    0   0.6449   age130_m62            0.0000     8.8332E-01     7.4837   1.4580   114.6903
 45      0.0000     0.0000E+00    0.0000E+00    9.047900E+08  0.02000  2.428E-04    0   0.6179   age135_m62            0.0000     6.4839E-01     6.1462   0.8816   113.7171
 46      0.0000     0.0000E+00    0.0000E+00    1.434000E+09  0.02000  1.263E-04    0   0.5908   age139_m62            0.0000     5.5157E-01     5.6108   0.4421   111.9124
 47      0.0012     5.2888E-04    5.6965E-04    2.500000E+09  0.02000  5.985E-05    0   0.5673   age150_m62            0.0000     5.1256E-01     5.3530   0.0976   109.4335
 48      2.8536     2.3495E+00    2.4392E+00    4.250000E+09  0.02000  3.271E-05    0   0.5468   age158_m62            0.0000     5.3179E-01     5.5752  -0.1823   107.4187
 49      0.0000     0.0000E+00    0.0000E+00    1.000000E+10  0.02000  1.360E-05    0   0.5167   age181_m62            0.0000     6.4170E-01     6.4825  -0.4995   105.6584
 50      0.0000     0.0000E+00    0.0000E+00    1.800000E+10  0.02000  7.124E-06    0   0.5013   age213_m62            0.0000     7.6673E-01     7.3148  -0.6826   103.6954
 51      6.1201     6.3590E-03    1.2071E-02    1.000000E+06  0.05000  2.592E-02    0   0.9998   age020_m72            0.0000     1.1580E+00     8.3072   3.4487    96.5262
 52      3.5185     1.9558E-03    3.5563E-03    3.160000E+06  0.05000  4.845E-02    0   0.9577   age045_m72            0.0000     1.1165E+00     8.0462   3.2897    98.1951
 53      0.0000     0.0000E+00    0.0000E+00    5.010000E+06  0.05000  3.072E-02    0   0.9147   age055_m72            0.0000     1.2730E+00     8.9223   2.7561   105.3200
 54      0.0000     0.0000E+00    0.0000E+00    6.610000E+06  0.05000  1.455E-02    0   0.8877   age061_m72            0.0000     2.8884E+00    14.3215   1.9157   117.0061
 55      0.0000     0.0000E+00    0.0000E+00    1.000000E+07  0.05000  9.074E-03    0   0.8524   age070_m72            0.0000     1.4513E+00     9.3844   2.9512   104.7389
 56      0.0000     0.0000E+00    0.0000E+00    2.512000E+07  0.05000  4.250E-03    0   0.7902   age090_m72            0.0000     1.3817E+00     9.2829   2.6438   106.8583
 57      0.0000     0.0000E+00    0.0000E+00    4.000000E+07  0.05000  3.087E-03    0   0.7618   age104_m72            0.0000     1.4413E+00     9.5455   2.4109   108.9028
 58      0.0000     0.0000E+00    0.0000E+00    1.015200E+08  0.05000  1.700E-03    0   0.7096   age116_m72            0.0000     1.1895E+00     8.6998   2.1765   110.5721
 59      0.0000     0.0000E+00    0.0000E+00    2.861200E+08  0.05000  7.384E-04    0   0.6633   age125_m72            0.0000     9.5168E-01     7.8575   1.6896   113.9027
 60      0.0000     0.0000E+00    0.0000E+00    5.088000E+08  0.05000  3.819E-04    0   0.6372   age130_m72            0.0000     7.2511E-01     6.6646   1.2195   114.7303
 61      0.0000     0.0000E+00    0.0000E+00    9.047900E+08  0.05000  1.676E-04    0   0.6110   age135_m72            0.0000     5.6428E-01     5.6626   0.5535   111.4343
 62      0.0000     0.0000E+00    0.0000E+00    1.434000E+09  0.05000  8.837E-05    0   0.5874   age139_m72            0.0000     5.1419E-01     5.4513   0.1002   110.9194
 63     61.2418     3.8964E+01    4.1413E+01    2.500000E+09  0.05000  4.233E-05    0   0.5598   age150_m72            0.0000     5.5328E-01     5.7718  -0.1741   107.9645
 64      6.0643     1.1381E+01    1.1342E+01    6.250000E+09  0.05000  1.435E-05    0   0.5249   age166_m72            0.0000     6.7819E-01     6.7123  -0.5872   104.8534
 65      0.0000     0.0000E+00    0.0000E+00    1.300000E+10  0.05000  6.513E-06    0   0.5036   age193_m72            0.0000     8.6528E-01     7.8408  -0.8321   104.3476
 66      3.6221     2.1548E+01    2.0231E+01    1.800000E+10  0.05000  4.527E-06    0   0.4945   age213_m72            0.0000     1.0074E+00     8.5403  -0.9699   103.1555


## Synthesis Results - Average & Chains ##

# j      x_j: min, <> & last-chain-values for 1 ...  7 chains
  1      2.4058      0.4491      0.0000      1.7061      1.8886      0.0000      0.0000      1.1634      0.0000
  2      1.2680      0.1751      0.0092      0.0000      0.0000      0.0000      0.0000      1.5445      0.9370
  3      0.0000      0.1477      0.0000      0.0000      0.5399      0.0000      0.0000      0.0000      0.5218
  4      0.0000      0.3351      0.0000      0.6166      0.0000      0.0000      0.0000      0.0000      0.5387
  5      0.0000      0.2049      0.0000      0.0000      0.8001      0.0000      0.0000      0.0000      0.0000
  6      0.0000      0.1854      0.0000      0.0000      0.0000      0.0000      0.0000      0.2405      0.0000
  7      0.0000      0.1560      0.2517      0.0000      0.4977      0.0000      0.0000      0.0000      0.0000
  8      0.0000      0.3023      0.0000      0.8353      0.0000      0.1464      0.0000      0.0000      0.0000
  9      0.0000      0.2798      0.0000      0.0000      1.3383      0.0000      0.0000      0.0000      0.2676
 10      0.0000      0.2923      0.0000      0.0000      0.0000      0.2237      1.9546      0.0000      1.8905
 11      0.0000      0.4108      0.0000      0.0000      0.0000      0.0325      0.0000      1.7173      0.0000
 12      0.0000      0.3052      0.0000      1.6283      0.0000      0.0000      0.0000      0.0000      0.0984
 13      0.0000      0.6340      0.0000      0.0000      0.0757      0.9527      0.0000      0.0000      0.0000
 14      0.0000      2.0186      0.0000      0.0000      3.7531      0.5258      0.0000      1.0168      1.2648
 15      0.0000      4.0645      0.6927      2.2564      0.0000      2.5177      1.3991      2.7235      0.0000
 16     15.4972      3.6693      7.5489      0.0000      0.0000      5.3588      2.8484      7.1200      5.0020
 17      2.7850      6.4936      4.2895      7.4683      8.9122      4.3524      8.6994      6.5296      7.2544
 18      0.0000      0.3603      0.3196      1.3746      0.0000      0.0000      1.8566      0.0000      0.0000
 19      0.0000      0.1959      1.7820      0.5715      0.0000      1.2913      0.0000      0.0704      0.0000
 20      0.0000      0.4973      0.4596      0.8934      0.0000      0.0000      0.0000      0.0000      1.7935
 21      2.5607      2.8157      3.2726      5.9555      4.0784      4.0785      3.1950      3.0532      2.1701
 22      0.0000      0.2541      0.0000      0.0000      1.1196      0.7535      0.0000      0.0000      0.3075
 23      0.0000      0.6070      1.7774      0.0000      0.0368      0.3410      0.0368      0.4757      1.8228
 24      0.0000      0.1943      0.0000      2.8298      0.0000      0.0000      0.0000      0.3049      0.0000
 25      0.0000      0.4406      0.0000      0.0000      0.0000      1.2799      1.4058      1.0501      0.0000
 26      0.0000      0.0679      0.0000      0.0000      0.0000      0.0000      0.0000      0.0000      0.0000
 27      0.0000      0.2673      0.0000      0.0000      0.0000      0.0000      1.0115      0.0000      0.0000
 28      0.0000      0.3827      0.0000      0.0000      0.0000      0.8148      0.0000      0.0000      0.0000
 29      0.0000      0.9332      2.5476      1.0358      0.0000      0.6847      0.0000      0.0000      0.0000
 30      0.0000      3.1980      4.4794      0.0000      3.2526      0.0000      0.0000      0.0000      4.8034
 31      0.0000      1.8937      0.0000      0.0000      0.0000      3.8130      0.0000      0.0000      0.0000
 32      0.0000      1.5573      0.7541      0.5941      2.3425      0.4725      2.1919      0.0000      0.0000
 33      0.0000      0.2716      0.0000      0.0000      2.7266      0.0538      0.0000      0.0000      0.0000
 34      0.0000      0.2756      0.0000      0.0000      0.0000      0.0000      0.0000      0.1301      0.0000
 35      1.7020      0.5345      0.0000      0.6527      0.0000      0.0000      3.3123      1.2607      0.4208
 36      0.0000      0.3920      0.0000      0.0000      0.0140      1.1625      0.0000      0.0000      0.2253
 37      0.0000      0.1647      0.0000      0.0000      0.0000      0.0000      0.0000      1.2159      0.0000
 38      0.0000      0.5227      1.0256      0.0000      0.0000      0.2033      3.5414      0.0000      0.0000
 39      0.0000      0.4003      0.0000      0.0000      0.0000      0.0000      1.0366      0.0000      0.0000
 40      0.0000      0.5404      0.0000      1.3035      0.8552      0.0000      0.0000      1.0998      0.0000
 41      0.0000      0.1517      1.2677      0.0000      0.0000      0.9480      0.0000      0.0000      0.0000
 42      0.0000      0.1492      0.0000      0.0000      0.0000      0.0000      0.0000      0.0000      0.0000
 43      0.0000      0.1263      0.0000      0.0000      0.0000      0.0000      0.0000      0.0000      0.6615
 44      0.0000      0.3639      0.0000      0.0000      0.0000      0.0000      0.0000      0.0000      1.8759
 45      0.0000      0.4654      0.0000      0.0000      1.9254      0.0000      0.0000      0.0000      0.0000
 46      0.0000      1.2623      0.0000      0.0000      2.2251      0.9829      0.0000      0.0000      0.0000
