###################################################################
## OUTPUT of StarlightChains_v04.for    [Cid@UFSC - 01/Apr/2007] ##
###################################################################

## Some input info
1995bd.txt                               [arq_obs]
Base.CB07.vall.4m                        [arq_base]
Masks.EmLines.NEW.gm                     [arq_masks]
StCv04.C11.config                        [arq_config]
   66                                    [N_base]
    0                                    [N_YAV_components = # of components with extra extinction!]
    0                                    [i_FitPowerLaw (1/0 = Yes/No)]
-9.99                                    [alpha_PowerLaw]
CCM                                      [red_law_option]
 1.458241                                [q_norm = A(l_norm)/A(V)]

## (Re)Sampling Parameters
 3741.00                                 [l_ini (A)]
 7218.00                                 [l_fin (A)]
    1.00                                 [dl    (A)]     (OBS: dl_cushion =    50.00 A)

## Normalization info
 4020.00                                 [l_norm (A) - for base]
 4010.00                                 [llow_norm (A) - window for f_obs]
 4060.00                                 [lupp_norm (A) - window for f_obs]
2.691508E-16                             [fobs_norm (in input units)]

## S/N
 3691.00                                 [llow_SN (A) - window for S/N]
 7268.00                                 [lupp_SN (A) - window for S/N]
   8.342                                 [S/N in S/N window]
   8.501                                 [S/N in norm. window]
  10.943                                 [S/N_err in S/N window]
  11.151                                 [S/N_err in norm. window]
  1.0000                                 [fscale_chi2]

## etc...
    -2007222                             [idum_orig]
  2383                                   [NOl_eff]
  2380                                   [Nl_eff]
     3    NSIGMA                         [Ntot_cliped & clip_method]
  1922270                                [Nglobal_steps]
   7                                     [N_chains]
  32                                     [NEX0s_base = N_base in EX0s-fits]
 0   0   1        1   2.0   1.861E+01    [Clip-Bug, RC-Crash & Burn-In warning-flags, n_censored_weights, wei_nsig_threshold & wei_limit]
    17     16.352     15.810      0.542  [idt_all, wdt_TotTime, wdt_UsrTime & wdt_SysTime (sec)]

## Synthesis Results - Best model ##

 5.32210E-01                             [chi2/Nl_eff]
     6.55152                             [adev (%)]

    96.94206                             [sum-of-x (%)]
 4.96675E-16                             [Flux_tot (units of input spectrum!)]
 9.12460E-12                             [Mini_tot (???)]
 4.69171E-12                             [Mcor_tot (???)]

 381.51                                  [v0_min  (km/s)]
 137.46                                  [vd_min  (km/s)]
 0.4793                                  [AV_min  (mag)]
 0.0000                                  [YAV_min (mag)]

# j     x_j(%)      Mini_j(%)     Mcor_j(%)     age_j(yr)     Z_j      (L/M)_j    YAV?  Mstars   component_j        a/Fe...       SSP_chi2r SSP_adev(%)   SSP_AV   SSP_x(%)
  1      1.7150     8.8020E-03    1.7118E-02    1.000000E+06  0.00400  1.094E-02    0   1.0000   age020_m42            0.0000     7.9144E-01     7.7938   3.2143    85.9266
  2      0.0000     0.0000E+00    0.0000E+00    3.160000E+06  0.00400  4.007E-02    0   0.9999   age045_m42            0.0000     7.1920E-01     7.4623   2.5159    90.5396
  3      1.4569     3.2220E-03    5.9454E-03    5.010000E+06  0.00400  2.539E-02    0   0.9488   age055_m42            0.0000     7.3280E-01     7.5355   2.8197    89.0379
  4      0.0000     0.0000E+00    0.0000E+00    6.610000E+06  0.00400  2.620E-02    0   0.9220   age061_m42            0.0000     6.9735E-01     7.3669   2.4369    90.9343
  5      1.9462     8.2663E-03    1.4247E-02    1.000000E+07  0.00400  1.322E-02    0   0.8862   age070_m42            0.0000     6.5129E-01     7.2950   2.1102    94.4749
  6      0.0000     0.0000E+00    0.0000E+00    1.445000E+07  0.00400  7.883E-03    0   0.8571   age078_m42            0.0000     6.6604E-01     7.3521   2.4346    92.2595
  7      0.0000     0.0000E+00    0.0000E+00    2.512000E+07  0.00400  5.251E-03    0   0.8174   age090_m42            0.0000     6.6302E-01     7.3777   1.9741    95.1902
  8      0.0090     1.3842E-04    2.1135E-04    4.000000E+07  0.00400  3.649E-03    0   0.7851   age104_m42            0.0000     6.4953E-01     7.2810   1.7553    95.6353
  9      0.0092     1.6622E-04    2.4662E-04    5.500000E+07  0.00400  3.098E-03    0   0.7629   age110_m42            0.0000     6.5986E-01     7.2597   1.9335    94.6667
 10      0.0000     0.0000E+00    0.0000E+00    1.015200E+08  0.00400  2.228E-03    0   0.7207   age116_m42            0.0000     6.7525E-01     7.2869   1.9705    94.1881
 11      0.0000     0.0000E+00    0.0000E+00    2.861200E+08  0.00400  1.093E-03    0   0.6648   age125_m42            0.0000     6.8675E-01     7.3135   1.3872    97.4684
 12      0.1896     1.6141E-02    1.9980E-02    5.088000E+08  0.00400  6.597E-04    0   0.6365   age130_m42            0.0000     6.7565E-01     7.1606   1.4050    97.1887
 13      0.0000     0.0000E+00    0.0000E+00    1.434000E+09  0.00400  2.132E-04    0   0.5798   age139_m42            0.0000     6.1556E-01     6.7990   0.4598    98.1004
 14     19.5924     1.8662E+01    1.9515E+01    4.250000E+09  0.00400  5.895E-05    0   0.5377   age158_m42            0.0000     6.2515E-01     6.8154   0.0434    93.7182
 15      8.0425     1.2866E+01    1.3041E+01    7.500000E+09  0.00400  3.510E-05    0   0.5212   age171_m42            0.0000     6.7299E-01     6.9769  -0.1304    92.6198
 16      8.6775     2.4301E+01    2.3791E+01    1.300000E+10  0.00400  2.005E-05    0   0.5034   age193_m42            0.0000     7.2817E-01     7.1450  -0.2841    91.7644
 17      8.9320     3.2887E+01    3.1769E+01    1.800000E+10  0.00400  1.525E-05    0   0.4967   age213_m42            0.0000     7.2152E-01     7.1086  -0.3105    91.4822
 18      1.8668     8.4667E-03    1.6466E-02    1.000000E+06  0.00800  1.238E-02    0   1.0000   age020_m52            0.0000     7.9297E-01     7.8102   3.2107    86.0998
 19      0.0000     0.0000E+00    0.0000E+00    3.160000E+06  0.00800  3.074E-02    0   0.9966   age045_m52            0.0000     7.9157E-01     7.8088   3.1379    86.7232
 20      1.2944     2.7242E-03    5.0030E-03    5.010000E+06  0.00800  2.668E-02    0   0.9443   age055_m52            0.0000     7.3575E-01     7.5542   2.8973    88.4593
 21     29.9902     7.8836E-02    1.4070E-01    6.610000E+06  0.00800  2.136E-02    0   0.9177   age061_m52            0.0000     5.7289E-01     6.8655   1.6128    95.5999
 22      0.0000     0.0000E+00    0.0000E+00    1.000000E+07  0.00800  1.215E-02    0   0.8827   age070_m52            0.0000     6.6573E-01     7.4146   2.2720    94.9279
 23      0.0338     2.1779E-04    3.6223E-04    1.445000E+07  0.00800  8.717E-03    0   0.8552   age078_m52            0.0000     6.5465E-01     7.3136   2.3999    93.5169
 24      0.0000     0.0000E+00    0.0000E+00    2.512000E+07  0.00800  5.592E-03    0   0.8162   age090_m52            0.0000     6.6658E-01     7.4036   2.0377    96.2754
 25      0.0004     6.0455E-06    9.2191E-06    4.000000E+07  0.00800  3.896E-03    0   0.7841   age104_m52            0.0000     6.6381E-01     7.3399   1.9637    96.4398
 26      0.0000     0.0000E+00    0.0000E+00    1.015200E+08  0.00800  2.148E-03    0   0.7226   age116_m52            0.0000     6.5687E-01     7.2131   1.9262    95.3842
 27      0.0000     0.0000E+00    0.0000E+00    2.861200E+08  0.00800  9.925E-04    0   0.6683   age125_m52            0.0000     6.7974E-01     7.1949   1.4702    98.0514
 28      0.0000     0.0000E+00    0.0000E+00    9.047900E+08  0.00800  3.141E-04    0   0.6138   age135_m52            0.0000     6.9309E-01     7.1650   0.7202   100.0726
 29      0.0000     0.0000E+00    0.0000E+00    1.434000E+09  0.00800  1.719E-04    0   0.5853   age139_m52            0.0000     6.5783E-01     6.9819   0.1379    98.3328
 30      0.0000     0.0000E+00    0.0000E+00    2.500000E+09  0.00800  7.872E-05    0   0.5600   age150_m52            0.0000     7.1541E-01     7.1896  -0.0966    94.6005
 31      0.0000     0.0000E+00    0.0000E+00    4.250000E+09  0.00800  4.336E-05    0   0.5426   age158_m52            0.0000     7.2290E-01     7.1995  -0.1112    93.7175
 32      4.2795     7.6065E+00    7.8686E+00    6.250000E+09  0.00800  3.159E-05    0   0.5319   age166_m52            0.0000     8.2150E-01     7.5392  -0.2911    92.9227
 33      0.0000     0.0000E+00    0.0000E+00    1.300000E+10  0.00800  1.361E-05    0   0.5073   age193_m52            0.0000     1.0047E+00     8.1481  -0.7276    91.1866
 34      0.0000     0.0000E+00    0.0000E+00    1.800000E+10  0.00800  9.886E-06    0   0.4990   age213_m52            0.0000     1.1467E+00     8.6664  -0.8120    89.9198
 35      4.3023     1.5646E-02    3.0428E-02    1.000000E+06  0.02000  1.544E-02    0   1.0000   age020_m62            0.0000     7.9728E-01     7.8408   3.2061    86.3334
 36      0.0000     0.0000E+00    0.0000E+00    3.160000E+06  0.02000  3.762E-02    0   0.9858   age045_m62            0.0000     7.9902E-01     7.8460   3.1456    87.1059
 37      0.0229     3.9055E-05    7.0958E-05    5.010000E+06  0.02000  3.296E-02    0   0.9342   age055_m62            0.0000     7.3197E-01     7.5176   2.7886    89.7978
 38      0.0000     0.0000E+00    0.0000E+00    8.710000E+06  0.02000  1.154E-02    0   0.8861   age067_m62            0.0000     9.9468E-01     9.0968   1.6329   101.1094
 39      0.0000     0.0000E+00    0.0000E+00    1.445000E+07  0.02000  7.663E-03    0   0.8472   age078_m62            0.0000     7.1668E-01     7.7137   1.8914    98.1075
 40      0.0042     5.2369E-05    8.2488E-05    2.512000E+07  0.02000  4.532E-03    0   0.8099   age090_m62            0.0000     7.6313E-01     7.9146   1.8796    97.9494
 41      0.0000     0.0000E+00    0.0000E+00    5.500000E+07  0.02000  2.733E-03    0   0.7595   age110_m62            0.0000     6.4850E-01     7.2729   1.9431    95.9401
 42      0.0000     0.0000E+00    0.0000E+00    1.609000E+08  0.02000  1.369E-03    0   0.6985   age120_m62            0.0000     6.7707E-01     7.2904   1.8175    97.0829
 43      0.0000     0.0000E+00    0.0000E+00    2.861200E+08  0.02000  9.013E-04    0   0.6714   age125_m62            0.0000     7.0980E-01     7.3310   1.5891    98.9025
 44      0.0000     0.0000E+00    0.0000E+00    5.088000E+08  0.02000  5.028E-04    0   0.6449   age130_m62            0.0000     7.3409E-01     7.2975   1.2551    99.7414
 45      0.0000     0.0000E+00    0.0000E+00    9.047900E+08  0.02000  2.428E-04    0   0.6179   age135_m62            0.0000     6.9763E-01     7.2248   0.6886    98.5061
 46      0.0000     0.0000E+00    0.0000E+00    1.434000E+09  0.02000  1.263E-04    0   0.5908   age139_m62            0.0000     7.1689E-01     7.2610   0.2532    96.8475
 47      0.0064     6.0031E-03    6.6233E-03    2.500000E+09  0.02000  5.985E-05    0   0.5673   age150_m62            0.0000     8.2870E-01     7.6303  -0.0859    94.6408
 48      2.0531     3.5243E+00    3.7479E+00    4.250000E+09  0.02000  3.271E-05    0   0.5468   age158_m62            0.0000     1.0229E+00     8.2734  -0.3545    92.5175
 49      0.0000     0.0000E+00    0.0000E+00    1.000000E+10  0.02000  1.360E-05    0   0.5167   age181_m62            0.0000     1.3153E+00     9.3176  -0.6606    90.5842
 50      0.0000     0.0000E+00    0.0000E+00    1.800000E+10  0.02000  7.124E-06    0   0.5013   age213_m62            0.0000     1.5646E+00    10.2214  -0.8371    88.6887
 51      1.4337     3.1057E-03    6.0389E-03    1.000000E+06  0.05000  2.592E-02    0   0.9998   age020_m72            0.0000     8.0909E-01     7.9160   3.1951    86.4626
 52      1.0821     1.2541E-03    2.3358E-03    3.160000E+06  0.05000  4.845E-02    0   0.9577   age045_m72            0.0000     7.8820E-01     7.7787   3.0386    87.8574
 53      0.0000     0.0000E+00    0.0000E+00    5.010000E+06  0.05000  3.072E-02    0   0.9147   age055_m72            0.0000     7.1575E-01     7.5920   2.4990    93.7738
 54      0.0000     0.0000E+00    0.0000E+00    6.610000E+06  0.05000  1.455E-02    0   0.8877   age061_m72            0.0000     1.7557E+00    11.3091   1.6357   103.8551
 55      0.0000     0.0000E+00    0.0000E+00    1.000000E+07  0.05000  9.074E-03    0   0.8524   age070_m72            0.0000     9.3029E-01     8.1801   2.6822    93.6072
 56      0.0000     0.0000E+00    0.0000E+00    2.512000E+07  0.05000  4.250E-03    0   0.7902   age090_m72            0.0000     8.0763E-01     7.8766   2.3880    94.8712
 57      0.0000     0.0000E+00    0.0000E+00    4.000000E+07  0.05000  3.087E-03    0   0.7618   age104_m72            0.0000     8.3625E-01     7.9942   2.1573    96.4511
 58      0.0000     0.0000E+00    0.0000E+00    1.015200E+08  0.05000  1.700E-03    0   0.7096   age116_m72            0.0000     7.0916E-01     7.4704   1.9431    97.2983
 59      0.0000     0.0000E+00    0.0000E+00    2.861200E+08  0.05000  7.384E-04    0   0.6633   age125_m72            0.0000     7.2143E-01     7.2817   1.4798    99.2885
 60      0.0000     0.0000E+00    0.0000E+00    5.088000E+08  0.05000  3.819E-04    0   0.6372   age130_m72            0.0000     7.1909E-01     7.3141   1.0259    99.4310
 61      0.0018     6.1145E-04    7.2658E-04    9.047900E+08  0.05000  1.676E-04    0   0.6110   age135_m72            0.0000     8.2866E-01     7.7700   0.3705    96.3945
 62      0.0000     0.0000E+00    0.0000E+00    1.434000E+09  0.05000  8.837E-05    0   0.5874   age139_m72            0.0000     8.9519E-01     7.9241  -0.0783    95.6698
 63      0.0000     0.0000E+00    0.0000E+00    2.500000E+09  0.05000  4.233E-05    0   0.5598   age150_m72            0.0000     1.1074E+00     8.5967  -0.3446    92.9301
 64      0.0000     0.0000E+00    0.0000E+00    6.250000E+09  0.05000  1.435E-05    0   0.5249   age166_m72            0.0000     1.4177E+00     9.7164  -0.7465    89.8480
 65      0.0000     0.0000E+00    0.0000E+00    1.300000E+10  0.05000  6.513E-06    0   0.5036   age193_m72            0.0000     1.7688E+00    10.8950  -0.9845    89.1961
 66      0.0000     0.0000E+00    0.0000E+00    1.800000E+10  0.05000  4.527E-06    0   0.4945   age213_m72            0.0000     2.0753E+00    11.7540  -1.0000    83.5760


## Synthesis Results - Average & Chains ##

# j      x_j: min, <> & last-chain-values for 1 ...  7 chains
  1      1.7150      1.6238      0.3272      1.8088      1.9294      1.5996      1.6010      2.0901      1.1561
  2      0.0000      0.4932      0.0000      0.0000      0.2601      0.0000      1.4868      0.0000      0.9693
  3      1.4569      1.8725      2.6356      1.7369      1.9521      3.2051      2.0106      2.6570      2.9928
  4      0.0000      0.5186      0.0000      0.0000      0.3809      1.6225      0.0000      0.5186      1.2225
  5      1.9462      1.6784      2.3881      1.8322      2.9623      2.6536      4.7005      3.6605      5.4100
  6      0.0000      0.8629      0.0000      0.0000      1.1363      0.0000      0.0000      0.0789      2.2499
  7      0.0000      0.7220      0.0000      0.0000      0.0000      0.0000      0.4596      0.2526      2.5363
  8      0.0090      0.8387      2.1984      1.8069      0.6606      0.5612      1.3760      1.3808      0.0000
  9      0.0092      0.4606      0.2755      0.8312      0.7650      0.0000      0.0000      0.0000      0.0000
 10      0.0000      0.6686      0.2441      0.0000      0.0000      0.0000      0.0000      3.0009      0.2443
 11      0.0000      1.0027      1.0371      0.5129      0.0000      0.0000      1.2854      0.0000      0.2574
 12      0.1896      1.2464      1.7085      0.0000      1.0297      3.0673      2.8509      0.0000      4.0428
 13      0.0000      1.3852      0.0391      0.0000      1.5337      0.9255      0.0000      0.0000      0.0000
 14     19.5924     14.4913     16.2430     15.0815     15.7773     14.8804     14.3205     15.1535     17.1790
 15      8.0425      7.1262      9.1703      6.6052      8.3472      8.3621      7.7577      6.4092      6.5752
 16      8.6775      5.1106      6.6438      5.3963      5.4601      5.7938      5.0322      5.1808      5.1906
 17      8.9320      6.7308      6.1869      9.8028      6.2274      6.3152      6.2663      7.8527      7.6313
 18      1.8668      1.2003      1.8763      1.1670      1.8141      2.9809      1.1965      1.7919      1.8923
 19      0.0000      0.4554      0.0000      0.0000      0.0000      0.0000      0.0000      0.0000      0.0000
 20      1.2944      1.2875      4.1343      1.6672      1.1581      0.0000      1.5170      0.0000      2.6314
 21     29.9902      9.1664     12.3805      9.9147     11.9515     11.2331     10.1688     10.4159      8.1673
 22      0.0000      0.5598      0.1008      0.3924      0.0000      1.2674      1.0693      0.0000      0.0000
 23      0.0338      2.2006      2.0263      2.4862      1.9535      2.5091      0.0000      1.2106      3.6814
 24      0.0000      0.4094      0.0000      1.0012      0.0000      0.0000      0.0000      0.0000      0.9596
 25      0.0004      0.3547      0.0000      0.2947      2.1026      0.0000      0.0000      0.0000      0.3196
 26      0.0000      0.4400      0.2336      2.6006      0.0000      0.0099      0.5036      0.0000      0.0000
 27      0.0000      0.4887      0.0000      0.3555      0.1419      0.0000      0.1299      1.1857      0.0000
 28      0.0000      0.7863      0.0000      0.0000      0.0000      0.0000      0.0000      0.1684      0.0000
 29      0.0000      0.5474      0.0000      0.0000      0.0000      0.0000      0.2704      0.0000      0.0000
 30      0.0000      0.5485      0.0000      0.0000      0.0000      0.0000      0.4994      0.0000      0.0000
 31      0.0000      0.4683      0.0000      0.9028      0.4257      0.0000      0.0000      0.0000      0.0000
 32      4.2795      6.8855      6.2757      6.5605      8.4191      6.4242      6.8906      8.1622      8.6029
 33      0.0000      0.1214      0.5998      0.0000      0.4605      0.0000      0.0000      0.0000      0.0000
 34      0.0000      0.1154      0.0000      0.0000      0.2891      0.0000      0.0000      0.0579      0.0000
 35      4.3023      3.6071      2.9454      4.4400      5.1793      4.0543      3.2270      3.5121      3.7205
 36      0.0000      0.3908      0.0000      0.2017      0.0000      1.2928      0.0000      0.0000      0.1574
 37      0.0229      0.2667      0.0489      0.3379      1.0604      0.0000      3.0162      0.0000      0.0000
 38      0.0000      0.4528      0.7279      0.0000      0.5142      0.0000      0.0000      0.9338      0.0000
 39      0.0000      0.3149      0.0000      0.0000      0.1814      0.0000      0.0000      0.0000      0.0000
 40      0.0042      0.8168      0.0000      0.0000      0.6459      0.0000      0.0000      1.7402      0.0000
 41      0.0000      0.4222      2.3124      0.9628      0.1607      0.0000      0.0000      0.0000      0.0000
 42      0.0000      0.3637      0.0000      0.0000      0.0000      0.0000      0.0000      0.0000      0.0000
 43      0.0000      0.3155      0.0000      0.0000      0.0000      0.0000      0.0000      0.0000      0.0000
 44      0.0000      0.4870      1.7510      0.4669      0.0000      0.0000      0.0000      0.0000      0.0000
 45      0.0000      0.8692      0.5215      1.4671      0.0000      0.1829      0.0000      0.0000      0.3996
 46      0.0000      0.8329      0.0000      0.0000      0.0000      0.0000      0.0000      1.8183      0.0000
