###################################################################
## OUTPUT of StarlightChains_v04.for    [Cid@UFSC - 01/Apr/2007] ##
###################################################################

## Some input info
1995E.txt                                [arq_obs]
Base.CB07.vall.4m                        [arq_base]
Masks.EmLines.NEW.gm                     [arq_masks]
StCv04.C11.config                        [arq_config]
   66                                    [N_base]
    0                                    [N_YAV_components = # of components with extra extinction!]
    0                                    [i_FitPowerLaw (1/0 = Yes/No)]
-9.99                                    [alpha_PowerLaw]
CCM                                      [red_law_option]
 1.458241                                [q_norm = A(l_norm)/A(V)]

## (Re)Sampling Parameters
 3741.00                                 [l_ini (A)]
 7218.00                                 [l_fin (A)]
    1.00                                 [dl    (A)]     (OBS: dl_cushion =    50.00 A)

## Normalization info
 4020.00                                 [l_norm (A) - for base]
 4010.00                                 [llow_norm (A) - window for f_obs]
 4060.00                                 [lupp_norm (A) - window for f_obs]
2.302628E-16                             [fobs_norm (in input units)]

## S/N
 3691.00                                 [llow_SN (A) - window for S/N]
 7268.00                                 [lupp_SN (A) - window for S/N]
   7.125                                 [S/N in S/N window]
   7.182                                 [S/N in norm. window]
  10.000                                 [S/N_err in S/N window]
  10.081                                 [S/N_err in norm. window]
  1.0000                                 [fscale_chi2]

## etc...
    -2007223                             [idum_orig]
  2256                                   [NOl_eff]
  2185                                   [Nl_eff]
    71    NSIGMA                         [Ntot_cliped & clip_method]
  1098160                                [Nglobal_steps]
   7                                     [N_chains]
  19                                     [NEX0s_base = N_base in EX0s-fits]
 0   0   1       95   2.0   1.531E+01    [Clip-Bug, RC-Crash & Burn-In warning-flags, n_censored_weights, wei_nsig_threshold & wei_limit]
    11     10.857     10.322      0.534  [idt_all, wdt_TotTime, wdt_UsrTime & wdt_SysTime (sec)]

## Synthesis Results - Best model ##

 5.91063E-01                             [chi2/Nl_eff]
     5.31389                             [adev (%)]

   102.32277                             [sum-of-x (%)]
 3.64740E-16                             [Flux_tot (units of input spectrum!)]
 3.27402E-12                             [Mini_tot (???)]
 1.84599E-12                             [Mcor_tot (???)]

   1.04                                  [v0_min  (km/s)]
 134.57                                  [vd_min  (km/s)]
 0.3254                                  [AV_min  (mag)]
 0.0000                                  [YAV_min (mag)]

# j     x_j(%)      Mini_j(%)     Mcor_j(%)     age_j(yr)     Z_j      (L/M)_j    YAV?  Mstars   component_j        a/Fe...       SSP_chi2r SSP_adev(%)   SSP_AV   SSP_x(%)
  1      0.0000     0.0000E+00    0.0000E+00    1.000000E+06  0.00400  1.094E-02    0   1.0000   age020_m42            0.0000     1.0434E+00     7.2698   3.1793    86.6177
  2      0.0000     0.0000E+00    0.0000E+00    3.160000E+06  0.00400  4.007E-02    0   0.9999   age045_m42            0.0000     9.1300E-01     6.7677   2.4642    92.1076
  3      0.0000     0.0000E+00    0.0000E+00    5.010000E+06  0.00400  2.539E-02    0   0.9488   age055_m42            0.0000     9.8219E-01     6.9784   2.7827    89.9125
  4      0.0000     0.0000E+00    0.0000E+00    6.610000E+06  0.00400  2.620E-02    0   0.9220   age061_m42            0.0000     9.4161E-01     6.7690   2.3939    92.1628
  5      0.0000     0.0000E+00    0.0000E+00    1.000000E+07  0.00400  1.322E-02    0   0.8862   age070_m42            0.0000     1.0897E+00     7.0895   2.1130    94.0080
  6      0.0000     0.0000E+00    0.0000E+00    1.445000E+07  0.00400  7.883E-03    0   0.8571   age078_m42            0.0000     1.1126E+00     7.2203   2.4383    91.7152
  7      0.0000     0.0000E+00    0.0000E+00    2.512000E+07  0.00400  5.251E-03    0   0.8174   age090_m42            0.0000     1.1235E+00     7.2063   1.9846    94.4575
  8      0.0000     0.0000E+00    0.0000E+00    4.000000E+07  0.00400  3.649E-03    0   0.7851   age104_m42            0.0000     1.0656E+00     7.0218   1.7553    95.3409
  9      0.0000     0.0000E+00    0.0000E+00    5.500000E+07  0.00400  3.098E-03    0   0.7629   age110_m42            0.0000     1.0197E+00     6.8806   1.9120    95.2302
 10      0.0000     0.0000E+00    0.0000E+00    1.015200E+08  0.00400  2.228E-03    0   0.7207   age116_m42            0.0000     9.9537E-01     6.8313   1.9358    95.2889
 11      0.0000     0.0000E+00    0.0000E+00    2.861200E+08  0.00400  1.093E-03    0   0.6648   age125_m42            0.0000     1.0343E+00     6.9914   1.3675    98.2051
 12      0.0000     0.0000E+00    0.0000E+00    5.088000E+08  0.00400  6.597E-04    0   0.6365   age130_m42            0.0000     9.5655E-01     6.7506   1.3570    99.1037
 13      0.0000     0.0000E+00    0.0000E+00    1.434000E+09  0.00400  2.132E-04    0   0.5798   age139_m42            0.0000     7.3642E-01     5.9178   0.3687   101.9724
 14     25.3534     4.6825E+01    4.4655E+01    4.250000E+09  0.00400  5.895E-05    0   0.5377   age158_m42            0.0000     6.2413E-01     5.4872  -0.0948    99.1670
 15      0.0000     0.0000E+00    0.0000E+00    7.500000E+09  0.00400  3.510E-05    0   0.5212   age171_m42            0.0000     6.7910E-01     5.7467  -0.2880    98.7804
 16      0.0000     0.0000E+00    0.0000E+00    1.300000E+10  0.00400  2.005E-05    0   0.5034   age193_m42            0.0000     7.5713E-01     6.0863  -0.4578    98.4968
 17      0.0000     0.0000E+00    0.0000E+00    1.800000E+10  0.00400  1.525E-05    0   0.4967   age213_m42            0.0000     7.3024E-01     5.9887  -0.4805    98.0637
 18      0.0000     0.0000E+00    0.0000E+00    1.000000E+06  0.00800  1.238E-02    0   1.0000   age020_m52            0.0000     1.0427E+00     7.2681   3.1752    86.7967
 19      1.7814     6.3093E-03    1.1152E-02    3.160000E+06  0.00800  3.074E-02    0   0.9966   age045_m52            0.0000     1.0291E+00     7.2147   3.1007    87.4766
 20      0.0000     0.0000E+00    0.0000E+00    5.010000E+06  0.00800  2.668E-02    0   0.9443   age055_m52            0.0000     9.9238E-01     7.0054   2.8640    89.1563
 21      0.0000     0.0000E+00    0.0000E+00    6.610000E+06  0.00800  2.136E-02    0   0.9177   age061_m52            0.0000     9.0042E-01     6.4934   1.5950    95.9331
 22      0.0000     0.0000E+00    0.0000E+00    1.000000E+07  0.00800  1.215E-02    0   0.8827   age070_m52            0.0000     1.1555E+00     7.3243   2.2926    93.8109
 23      0.0000     0.0000E+00    0.0000E+00    1.445000E+07  0.00800  8.717E-03    0   0.8552   age078_m52            0.0000     1.0893E+00     7.1248   2.4044    92.9577
 24      0.0000     0.0000E+00    0.0000E+00    2.512000E+07  0.00800  5.592E-03    0   0.8162   age090_m52            0.0000     1.1156E+00     7.1812   2.0504    95.5333
 25      0.0000     0.0000E+00    0.0000E+00    4.000000E+07  0.00800  3.896E-03    0   0.7841   age104_m52            0.0000     1.0692E+00     7.0233   1.9631    96.2764
 26      0.0000     0.0000E+00    0.0000E+00    1.015200E+08  0.00800  2.148E-03    0   0.7226   age116_m52            0.0000     9.6868E-01     6.7263   1.9010    96.1755
 27      0.0000     0.0000E+00    0.0000E+00    2.861200E+08  0.00800  9.925E-04    0   0.6683   age125_m52            0.0000     9.3959E-01     6.6185   1.4228   100.0041
 28      0.0000     0.0000E+00    0.0000E+00    9.047900E+08  0.00800  3.141E-04    0   0.6138   age135_m52            0.0000     7.6035E-01     5.9759   0.6049   105.3085
 29      0.0000     0.0000E+00    0.0000E+00    1.434000E+09  0.00800  1.719E-04    0   0.5853   age139_m52            0.0000     6.7220E-01     5.6488   0.0183   103.5819
 30      0.0000     0.0000E+00    0.0000E+00    2.500000E+09  0.00800  7.872E-05    0   0.5600   age150_m52            0.0000     6.9575E-01     5.7879  -0.2655   101.4737
 31      0.0000     0.0000E+00    0.0000E+00    4.250000E+09  0.00800  4.336E-05    0   0.5426   age158_m52            0.0000     7.1477E-01     5.8763  -0.2847   100.6891
 32      0.0000     0.0000E+00    0.0000E+00    6.250000E+09  0.00800  3.159E-05    0   0.5319   age166_m52            0.0000     8.1448E-01     6.2815  -0.4908   100.9218
 33      0.0000     0.0000E+00    0.0000E+00    1.300000E+10  0.00800  1.361E-05    0   0.5073   age193_m52            0.0000     1.0082E+00     6.9721  -0.9636   100.5190
 34      0.0000     0.0000E+00    0.0000E+00    1.800000E+10  0.00800  9.886E-06    0   0.4990   age213_m52            0.0000     1.1960E+00     7.3320  -1.0000    97.5439
 35      6.7404     4.7530E-02    8.4299E-02    1.000000E+06  0.02000  1.544E-02    0   1.0000   age020_m62            0.0000     1.0461E+00     7.2826   3.1716    86.9890
 36      2.6439     7.6515E-03    1.3378E-02    3.160000E+06  0.02000  3.762E-02    0   0.9858   age045_m62            0.0000     1.0506E+00     7.3012   3.1113    87.7203
 37      0.0000     0.0000E+00    0.0000E+00    5.010000E+06  0.02000  3.296E-02    0   0.9342   age055_m62            0.0000     9.4754E-01     6.8303   2.7443    90.9541
 38      0.0000     0.0000E+00    0.0000E+00    8.710000E+06  0.02000  1.154E-02    0   0.8861   age067_m62            0.0000     1.7415E+00     9.3603   1.7426    96.4587
 39      0.0000     0.0000E+00    0.0000E+00    1.445000E+07  0.02000  7.663E-03    0   0.8472   age078_m62            0.0000     1.2443E+00     7.6813   1.9386    96.0685
 40      0.0000     0.0000E+00    0.0000E+00    2.512000E+07  0.02000  4.532E-03    0   0.8099   age090_m62            0.0000     1.3184E+00     7.9006   1.9372    95.5338
 41      0.0000     0.0000E+00    0.0000E+00    5.500000E+07  0.02000  2.733E-03    0   0.7595   age110_m62            0.0000     1.0560E+00     6.9349   1.9454    95.6245
 42      0.0000     0.0000E+00    0.0000E+00    1.609000E+08  0.02000  1.369E-03    0   0.6985   age120_m62            0.0000     1.0003E+00     6.7844   1.7887    98.0852
 43      0.0000     0.0000E+00    0.0000E+00    2.861200E+08  0.02000  9.013E-04    0   0.6714   age125_m62            0.0000     9.7694E-01     6.7112   1.5366   101.0022
 44      0.0000     0.0000E+00    0.0000E+00    5.088000E+08  0.02000  5.028E-04    0   0.6449   age130_m62            0.0000     8.5316E-01     6.3223   1.1464   104.4155
 45      0.0000     0.0000E+00    0.0000E+00    9.047900E+08  0.02000  2.428E-04    0   0.6179   age135_m62            0.0000     6.9608E-01     5.7496   0.5408   104.8954
 46      0.0000     0.0000E+00    0.0000E+00    1.434000E+09  0.02000  1.263E-04    0   0.5908   age139_m62            0.0000     6.8598E-01     5.7324   0.0854   103.9175
 47      0.0000     0.0000E+00    0.0000E+00    2.500000E+09  0.02000  5.985E-05    0   0.5673   age150_m62            0.0000     7.7154E-01     6.1298  -0.2899   102.9808
 48      0.0000     0.0000E+00    0.0000E+00    4.250000E+09  0.02000  3.271E-05    0   0.5468   age158_m62            0.0000     9.6018E-01     6.8980  -0.5999   102.3889
 49      0.0000     0.0000E+00    0.0000E+00    1.000000E+10  0.02000  1.360E-05    0   0.5167   age181_m62            0.0000     1.3031E+00     7.9755  -0.9500   102.1241
 50      0.0000     0.0000E+00    0.0000E+00    1.800000E+10  0.02000  7.124E-06    0   0.5013   age213_m62            0.0000     1.6702E+00     8.6289  -1.0000    95.6443
 51      6.4258     2.6991E-02    4.7862E-02    1.000000E+06  0.05000  2.592E-02    0   0.9998   age020_m72            0.0000     1.0646E+00     7.3489   3.1628    87.0199
 52      0.0000     0.0000E+00    0.0000E+00    3.160000E+06  0.05000  4.845E-02    0   0.9577   age045_m72            0.0000     1.0074E+00     7.1330   3.0002    88.6540
 53      0.0000     0.0000E+00    0.0000E+00    5.010000E+06  0.05000  3.072E-02    0   0.9147   age055_m72            0.0000     1.1679E+00     7.4132   2.5306    92.3788
 54      0.0000     0.0000E+00    0.0000E+00    6.610000E+06  0.05000  1.455E-02    0   0.8877   age061_m72            0.0000     2.2352E+00    11.0259   1.8183    96.8085
 55      0.0000     0.0000E+00    0.0000E+00    1.000000E+07  0.05000  9.074E-03    0   0.8524   age070_m72            0.0000     1.2534E+00     7.7337   2.7370    91.6535
 56      0.0000     0.0000E+00    0.0000E+00    2.512000E+07  0.05000  4.250E-03    0   0.7902   age090_m72            0.0000     1.2194E+00     7.5465   2.4273    93.3684
 57      0.0000     0.0000E+00    0.0000E+00    4.000000E+07  0.05000  3.087E-03    0   0.7618   age104_m72            0.0000     1.2382E+00     7.5970   2.2017    94.8106
 58      0.0000     0.0000E+00    0.0000E+00    1.015200E+08  0.05000  1.700E-03    0   0.7096   age116_m72            0.0000     1.0645E+00     7.0044   1.9358    97.5050
 59      0.0000     0.0000E+00    0.0000E+00    2.861200E+08  0.05000  7.384E-04    0   0.6633   age125_m72            0.0000     9.0936E-01     6.4869   1.3982   102.7304
 60      0.0000     0.0000E+00    0.0000E+00    5.088000E+08  0.05000  3.819E-04    0   0.6372   age130_m72            0.0000     7.2410E-01     5.8673   0.8847   105.5168
 61     56.5892     3.6761E+01    3.9837E+01    9.047900E+08  0.05000  1.676E-04    0   0.6110   age135_m72            0.0000     7.1247E-01     5.9969   0.1651   104.9093
 62      0.0000     0.0000E+00    0.0000E+00    1.434000E+09  0.05000  8.837E-05    0   0.5874   age139_m72            0.0000     8.1043E-01     6.2973  -0.2925   104.6270
 63      0.9638     2.4791E+00    2.4613E+00    2.500000E+09  0.05000  4.233E-05    0   0.5598   age150_m72            0.0000     1.0363E+00     7.1495  -0.6041   103.4585
 64      1.8249     1.3846E+01    1.2890E+01    6.250000E+09  0.05000  1.435E-05    0   0.5249   age166_m72            0.0000     1.3650E+00     8.0770  -1.0000   100.0801
 65      0.0000     0.0000E+00    0.0000E+00    1.300000E+10  0.05000  6.513E-06    0   0.5036   age193_m72            0.0000     2.0949E+00     9.4953  -1.0000    90.9699
 66      0.0000     0.0000E+00    0.0000E+00    1.800000E+10  0.05000  4.527E-06    0   0.4945   age213_m72            0.0000     2.7369E+00    10.8103  -1.0000    85.1717


## Synthesis Results - Average & Chains ##

# j      x_j: min, <> & last-chain-values for 1 ...  7 chains
  1      0.0000      1.6842      2.2139      4.4627      2.3818      3.6387      0.0000      2.1719      2.1734
  2      0.0000      0.4667      0.0000      0.2532      0.0000      0.0000      0.4524      0.0000      1.5879
  3      0.0000      0.4838      1.3435      1.3085      0.2685      0.0000      0.0000      0.0000      0.0000
  4      0.0000      0.7629      0.0000      0.2871      0.0000      0.0000      1.8934      0.0140      0.0000
  5      0.0000      0.6306      1.7462      0.0387      0.0000      1.1373      0.1575      1.7974      0.0000
  6      0.0000      0.4931      0.0000      0.7646      0.0000      0.7653      2.2823      0.0000      0.0000
  7      0.0000      0.5409      0.0000      0.9624      2.3581      0.0000      3.0689      0.0000      0.0835
  8      0.0000      0.7121      0.0000      0.8877      0.0000      0.6586      0.0000      0.5987      0.0407
  9      0.0000      0.5055      0.0000      0.0000      0.0000      0.0000      0.0000      0.0000      0.7284
 10      0.0000      0.3536      1.7784      2.2238      0.0000      0.0000      0.0000      0.0000      0.0000
 11      0.0000      0.2024      0.0000      0.0000      0.0000      0.0000      0.0000      0.0000      0.0000
 12      0.0000      0.3011      0.0000      0.0000      0.0000      0.1168      0.5190      0.0000      0.0000
 13      0.0000      1.3144      1.1199      0.0000      0.0000      0.1071      0.1239      1.5579      0.0000
 14     25.3534     12.9792     12.3896     12.0771     13.7250     17.4647     21.3343     19.4128     19.9549
 15      0.0000      1.0290      0.4443      2.2617      0.0000      1.8692      0.0000      0.0000      1.2163
 16      0.0000      0.3374      0.0000      0.0000      0.0000      0.0000      0.0000      0.0000      0.0000
 17      0.0000      1.1057      1.5549      0.3457      0.0000      0.0000      0.0000      0.0000      0.0000
 18      0.0000      0.3559      0.0000      0.0000      0.0000      0.2034      0.0000      0.0149      0.0000
 19      1.7814      0.6785      0.0000      0.9195      0.2300      3.2901      3.4534      0.0000      0.0000
 20      0.0000      0.5332      0.0000      0.0000      0.0000      1.6738      1.4345      1.3912      0.0000
 21      0.0000      1.9130      0.0000      3.0288      2.7333      1.7411      0.0000      1.7160      5.5175
 22      0.0000      0.8847      1.8086      2.7422      1.5743      0.0000      0.0000      0.0000      0.9802
 23      0.0000      0.6590      0.0000      0.0000      0.0000      0.0000      0.0000      1.4301      0.0000
 24      0.0000      0.2298      0.1297      0.4220      0.4299      0.0000      0.0000      0.0000      0.1836
 25      0.0000      0.2658      0.0000      0.0000      0.0000      0.0000      0.0000      0.1278      0.9215
 26      0.0000      0.4567      0.0000      0.0000      0.0000      0.1299      0.0000      0.0000      0.0971
 27      0.0000      0.3353      0.0000      0.0000      0.4255      1.3216      0.1283      0.0000      0.0000
 28      0.0000      0.2585      0.0000      0.0000      0.0000      0.0000      0.0000      0.0000      0.0000
 29      0.0000      1.0874      1.0340      0.0352      1.2302      0.0000      0.0000      0.4296      0.0000
 30      0.0000      0.6276      0.0000      0.0000      0.0000      0.3685      1.4250      0.5923      0.0000
 31      0.0000      0.8498      0.8301      0.5782      0.0000      0.0000      0.0199      0.2811      0.0000
 32      0.0000      0.3385      0.0000      0.0000      0.0000      0.0000      0.0000      0.0000      0.0000
 33      0.0000      0.1661      0.0000      0.0000      0.1247      0.0000      0.0000      0.0000      0.0000
 34      0.0000      0.0751      1.2919      0.0000      0.0000      0.1430      0.0000      0.0000      0.0000
 35      6.7404      0.9155      3.2636      0.0000      0.7793      1.1221      2.7594      1.5655      0.9039
 36      2.6439      0.6636      0.4699      0.3242      3.1814      0.8009      1.9233      1.3811      0.0000
 37      0.0000      0.3762      1.3734      0.0000      0.0000      0.0000      0.0000      0.0000      1.2131
 38      0.0000      0.3925      0.0000      0.0685      3.9165      0.0000      0.0248      0.7942      0.0000
 39      0.0000      0.5907      0.0000      1.3497      1.7910      0.0735      0.0000      3.4195      1.6921
 40      0.0000      0.3018      0.0000      0.0000      0.0052      0.0000      0.8044      0.0000      0.0000
 41      0.0000      0.3675      0.3168      0.0000      0.7680      0.1276      0.0000      0.0000      1.2651
 42      0.0000      0.4448      0.1812      0.0543      0.0000      0.0000      0.0000      0.1355      0.0000
 43      0.0000      0.2529      0.0000      0.0000      0.0000      0.0000      0.0000      0.0000      0.1248
 44      0.0000      0.2310      0.0000      0.1614      0.0000      0.0000      0.0000      0.0000      0.0000
 45      0.0000      0.8645      0.1758      0.5404      0.0000      0.4719      0.8845      0.7757      0.0000
 46      0.0000      1.5555      1.9911      1.9451      0.0795      0.0000      0.3615      0.0000      0.0000
