###################################################################
## OUTPUT of StarlightChains_v04.for    [Cid@UFSC - 01/Apr/2007] ##
###################################################################

## Some input info
1996aa.txt                               [arq_obs]
Base.CB07.vall.4m                        [arq_base]
Masks.EmLines.NEW.gm                     [arq_masks]
StCv04.C11.config                        [arq_config]
   66                                    [N_base]
    0                                    [N_YAV_components = # of components with extra extinction!]
    0                                    [i_FitPowerLaw (1/0 = Yes/No)]
-9.99                                    [alpha_PowerLaw]
CCM                                      [red_law_option]
 1.458241                                [q_norm = A(l_norm)/A(V)]

## (Re)Sampling Parameters
 3741.00                                 [l_ini (A)]
 7218.00                                 [l_fin (A)]
    1.00                                 [dl    (A)]     (OBS: dl_cushion =    50.00 A)

## Normalization info
 4020.00                                 [l_norm (A) - for base]
 4010.00                                 [llow_norm (A) - window for f_obs]
 4060.00                                 [lupp_norm (A) - window for f_obs]
1.424879E-15                             [fobs_norm (in input units)]

## S/N
 3691.00                                 [llow_SN (A) - window for S/N]
 7268.00                                 [lupp_SN (A) - window for S/N]
   4.022                                 [S/N in S/N window]
   2.790                                 [S/N in norm. window]
  57.720                                 [S/N_err in S/N window]
  40.040                                 [S/N_err in norm. window]
  1.0000                                 [fscale_chi2]

## etc...
    -2007225                             [idum_orig]
  2380                                   [NOl_eff]
  2332                                   [Nl_eff]
    48    NSIGMA                         [Ntot_cliped & clip_method]
  1113770                                [Nglobal_steps]
   7                                     [N_chains]
  11                                     [NEX0s_base = N_base in EX0s-fits]
 0   0   1        9   2.0   9.366E+01    [Clip-Bug, RC-Crash & Burn-In warning-flags, n_censored_weights, wei_nsig_threshold & wei_limit]
    16     16.278     15.700      0.579  [idt_all, wdt_TotTime, wdt_UsrTime & wdt_SysTime (sec)]

## Synthesis Results - Best model ##

 1.07888E+00                             [chi2/Nl_eff]
     1.26107                             [adev (%)]

   107.67697                             [sum-of-x (%)]
 1.53545E-15                             [Flux_tot (units of input spectrum!)]
 1.19073E-10                             [Mini_tot (???)]
 6.10223E-11                             [Mcor_tot (???)]

   9.99                                  [v0_min  (km/s)]
 271.02                                  [vd_min  (km/s)]
 0.0006                                  [AV_min  (mag)]
 0.0000                                  [YAV_min (mag)]

# j     x_j(%)      Mini_j(%)     Mcor_j(%)     age_j(yr)     Z_j      (L/M)_j    YAV?  Mstars   component_j        a/Fe...       SSP_chi2r SSP_adev(%)   SSP_AV   SSP_x(%)
  1      0.0000     0.0000E+00    0.0000E+00    1.000000E+06  0.00400  1.094E-02    0   1.0000   age020_m42            0.0000     3.5577E+01    10.4838   3.9306    97.0922
  2      0.0000     0.0000E+00    0.0000E+00    3.160000E+06  0.00400  4.007E-02    0   0.9999   age045_m42            0.0000     3.3901E+01     9.9755   3.1951   104.2947
  3      0.0000     0.0000E+00    0.0000E+00    5.010000E+06  0.00400  2.539E-02    0   0.9488   age055_m42            0.0000     3.4612E+01    10.2322   3.5158   101.6750
  4      0.0000     0.0000E+00    0.0000E+00    6.610000E+06  0.00400  2.620E-02    0   0.9220   age061_m42            0.0000     3.4467E+01    10.0720   3.1113   105.0167
  5      0.0000     0.0000E+00    0.0000E+00    1.000000E+07  0.00400  1.322E-02    0   0.8862   age070_m42            0.0000     4.3096E+01    11.8617   2.7635   110.4171
  6      0.0000     0.0000E+00    0.0000E+00    1.445000E+07  0.00400  7.883E-03    0   0.8571   age078_m42            0.0000     4.2687E+01    11.8004   3.1007   107.1174
  7      0.0000     0.0000E+00    0.0000E+00    2.512000E+07  0.00400  5.251E-03    0   0.8174   age090_m42            0.0000     4.5380E+01    12.1827   2.6209   111.6608
  8      0.0000     0.0000E+00    0.0000E+00    4.000000E+07  0.00400  3.649E-03    0   0.7851   age104_m42            0.0000     4.3141E+01    11.8331   2.3976   112.4124
  9      0.0000     0.0000E+00    0.0000E+00    5.500000E+07  0.00400  3.098E-03    0   0.7629   age110_m42            0.0000     3.9079E+01    10.9068   2.5794   111.0377
 10      0.0000     0.0000E+00    0.0000E+00    1.015200E+08  0.00400  2.228E-03    0   0.7207   age116_m42            0.0000     3.6528E+01    10.2448   2.6164   110.4473
 11      0.0000     0.0000E+00    0.0000E+00    2.861200E+08  0.00400  1.093E-03    0   0.6648   age125_m42            0.0000     4.0995E+01    10.8909   2.0111   115.6663
 12      0.0000     0.0000E+00    0.0000E+00    5.088000E+08  0.00400  6.597E-04    0   0.6365   age130_m42            0.0000     3.4148E+01     9.6543   2.0317   115.0964
 13      0.0000     0.0000E+00    0.0000E+00    1.434000E+09  0.00400  2.132E-04    0   0.5798   age139_m42            0.0000     2.1916E+01     7.9967   1.0730   116.8117
 14      0.0000     0.0000E+00    0.0000E+00    4.250000E+09  0.00400  5.895E-05    0   0.5377   age158_m42            0.0000     1.1906E+01     6.3619   0.6772   110.2014
 15      0.0000     0.0000E+00    0.0000E+00    7.500000E+09  0.00400  3.510E-05    0   0.5212   age171_m42            0.0000     9.1478E+00     5.5859   0.5061   108.7039
 16      0.0000     0.0000E+00    0.0000E+00    1.300000E+10  0.00400  2.005E-05    0   0.5034   age193_m42            0.0000     7.3228E+00     4.9559   0.3553   107.4773
 17      0.0000     0.0000E+00    0.0000E+00    1.800000E+10  0.00400  1.525E-05    0   0.4967   age213_m42            0.0000     7.5826E+00     5.0728   0.3286   107.1705
 18      0.0000     0.0000E+00    0.0000E+00    1.000000E+06  0.00800  1.238E-02    0   1.0000   age020_m52            0.0000     3.5415E+01    10.4624   3.9269    97.2830
 19      0.0000     0.0000E+00    0.0000E+00    3.160000E+06  0.00800  3.074E-02    0   0.9966   age045_m52            0.0000     3.4716E+01    10.3200   3.8529    98.0375
 20      0.0000     0.0000E+00    0.0000E+00    5.010000E+06  0.00800  2.668E-02    0   0.9443   age055_m52            0.0000     3.4391E+01    10.2881   3.5971   100.8040
 21      0.0000     0.0000E+00    0.0000E+00    6.610000E+06  0.00800  2.136E-02    0   0.9177   age061_m52            0.0000     3.5764E+01    11.2548   2.2697   111.4089
 22      0.0000     0.0000E+00    0.0000E+00    1.000000E+07  0.00800  1.215E-02    0   0.8827   age070_m52            0.0000     4.6680E+01    12.5019   2.9238   111.0832
 23      0.0000     0.0000E+00    0.0000E+00    1.445000E+07  0.00800  8.717E-03    0   0.8552   age078_m52            0.0000     4.1959E+01    11.7525   3.0616   108.8224
 24      0.0000     0.0000E+00    0.0000E+00    2.512000E+07  0.00800  5.592E-03    0   0.8162   age090_m52            0.0000     4.5508E+01    12.2240   2.6776   113.3466
 25      0.0000     0.0000E+00    0.0000E+00    4.000000E+07  0.00800  3.896E-03    0   0.7841   age104_m52            0.0000     4.3292E+01    11.7475   2.5995   113.7827
 26      0.0000     0.0000E+00    0.0000E+00    1.015200E+08  0.00800  2.148E-03    0   0.7226   age116_m52            0.0000     3.7607E+01    10.6781   2.5661   112.2261
 27      0.0000     0.0000E+00    0.0000E+00    2.861200E+08  0.00800  9.925E-04    0   0.6683   age125_m52            0.0000     3.3658E+01     9.5878   2.0924   116.3725
 28      0.0000     0.0000E+00    0.0000E+00    9.047900E+08  0.00800  3.141E-04    0   0.6138   age135_m52            0.0000     2.0985E+01     7.4597   1.3223   119.8949
 29      3.6227     2.5238E-01    2.8825E-01    1.434000E+09  0.00800  1.719E-04    0   0.5853   age139_m52            0.0000     1.5726E+01     6.9064   0.7486   117.1460
 30      0.0000     0.0000E+00    0.0000E+00    2.500000E+09  0.00800  7.872E-05    0   0.5600   age150_m52            0.0000     7.7636E+00     5.0452   0.5321   111.4779
 31      0.0000     0.0000E+00    0.0000E+00    4.250000E+09  0.00800  4.336E-05    0   0.5426   age158_m52            0.0000     7.5557E+00     5.0033   0.5199   110.3002
 32      0.0006     2.1948E-04    2.2780E-04    6.250000E+09  0.00800  3.159E-05    0   0.5319   age166_m52            0.0000     4.9382E+00     3.8813   0.3421   109.1778
 33      0.0000     0.0000E+00    0.0000E+00    1.300000E+10  0.00800  1.361E-05    0   0.5073   age193_m52            0.0000     2.3289E+00     2.4016  -0.0946   107.0245
 34      0.0000     0.0000E+00    0.0000E+00    1.800000E+10  0.00800  9.886E-06    0   0.4990   age213_m52            0.0000     1.6011E+00     1.7481  -0.1741   105.2282
 35      0.0000     0.0000E+00    0.0000E+00    1.000000E+06  0.02000  1.544E-02    0   1.0000   age020_m62            0.0000     3.5423E+01    10.4568   3.9246    97.4329
 36      0.0000     0.0000E+00    0.0000E+00    3.160000E+06  0.02000  3.762E-02    0   0.9858   age045_m62            0.0000     3.5035E+01    10.3973   3.8652    98.2345
 37      0.0000     0.0000E+00    0.0000E+00    5.010000E+06  0.02000  3.296E-02    0   0.9342   age055_m62            0.0000     3.3018E+01     9.8685   3.4811   102.7087
 38      0.0000     0.0000E+00    0.0000E+00    8.710000E+06  0.02000  1.154E-02    0   0.8861   age067_m62            0.0000     8.1044E+01    17.0551   2.2578   120.2606
 39      0.0000     0.0000E+00    0.0000E+00    1.445000E+07  0.02000  7.663E-03    0   0.8472   age078_m62            0.0000     5.5190E+01    13.8217   2.5292   115.7464
 40      0.0000     0.0000E+00    0.0000E+00    2.512000E+07  0.02000  4.532E-03    0   0.8099   age090_m62            0.0000     5.8613E+01    14.1085   2.5122   115.9025
 41      0.0000     0.0000E+00    0.0000E+00    5.500000E+07  0.02000  2.733E-03    0   0.7595   age110_m62            0.0000     4.2097E+01    11.6649   2.5839   112.8702
 42      0.0000     0.0000E+00    0.0000E+00    1.609000E+08  0.02000  1.369E-03    0   0.6985   age120_m62            0.0000     3.6670E+01    10.2205   2.4515   114.5631
 43      0.0000     0.0000E+00    0.0000E+00    2.861200E+08  0.02000  9.013E-04    0   0.6714   age125_m62            0.0000     3.2839E+01     9.3996   2.2121   117.3204
 44      0.0000     0.0000E+00    0.0000E+00    5.088000E+08  0.02000  5.028E-04    0   0.6449   age130_m62            0.0000     2.3966E+01     7.8248   1.8714   118.6159
 45      0.0000     0.0000E+00    0.0000E+00    9.047900E+08  0.02000  2.428E-04    0   0.6179   age135_m62            0.0000     1.4090E+01     6.2483   1.3022   117.1646
 46      0.0000     0.0000E+00    0.0000E+00    1.434000E+09  0.02000  1.263E-04    0   0.5908   age139_m62            0.0000     9.2546E+00     5.3768   0.8723   114.7625
 47      0.0000     0.0000E+00    0.0000E+00    2.500000E+09  0.02000  5.985E-05    0   0.5673   age150_m62            0.0000     4.9697E+00     3.9280   0.5448   111.3403
 48      9.4165     3.4475E+00    3.6784E+00    4.250000E+09  0.02000  3.271E-05    0   0.5468   age158_m62            0.0000     2.1515E+00     2.2830   0.2805   108.4905
 49      4.8474     4.2684E+00    4.3036E+00    1.000000E+10  0.02000  1.360E-05    0   0.5167   age181_m62            0.0000     1.2309E+00     1.5260  -0.0275   106.2443
 50      9.2921     1.5620E+01    1.5280E+01    1.800000E+10  0.02000  7.124E-06    0   0.5013   age213_m62            0.0000     1.8949E+00     2.2466  -0.2011   103.8027
 51      0.0000     0.0000E+00    0.0000E+00    1.000000E+06  0.05000  2.592E-02    0   0.9998   age020_m72            0.0000     3.5788E+01    10.5464   3.9128    97.6007
 52      0.0000     0.0000E+00    0.0000E+00    3.160000E+06  0.05000  4.845E-02    0   0.9577   age045_m72            0.0000     3.3687E+01    10.0616   3.7524    99.3794
 53      0.0000     0.0000E+00    0.0000E+00    5.010000E+06  0.05000  3.072E-02    0   0.9147   age055_m72            0.0000     4.8742E+01    12.6638   3.1628   109.0750
 54      0.0000     0.0000E+00    0.0000E+00    6.610000E+06  0.05000  1.455E-02    0   0.8877   age061_m72            0.0000     1.3146E+02    20.4274   2.2483   124.6650
 55      0.0000     0.0000E+00    0.0000E+00    1.000000E+07  0.05000  9.074E-03    0   0.8524   age070_m72            0.0000     6.2183E+01    13.3590   3.3400   109.2149
 56      0.0000     0.0000E+00    0.0000E+00    2.512000E+07  0.05000  4.250E-03    0   0.7902   age090_m72            0.0000     5.4938E+01    12.9156   3.0327   111.5204
 57      0.0000     0.0000E+00    0.0000E+00    4.000000E+07  0.05000  3.087E-03    0   0.7618   age104_m72            0.0000     5.7552E+01    13.1816   2.7909   114.0812
 58      0.0000     0.0000E+00    0.0000E+00    1.015200E+08  0.05000  1.700E-03    0   0.7096   age116_m72            0.0000     4.1873E+01    11.0278   2.5721   115.1890
 59      3.2296     5.2378E-02    6.7793E-02    2.861200E+08  0.05000  7.384E-04    0   0.6633   age125_m72            0.0000     2.7608E+01     8.5277   2.0961   118.1600
 60      0.0000     0.0000E+00    0.0000E+00    5.088000E+08  0.05000  3.819E-04    0   0.6372   age130_m72            0.0000     1.6511E+01     6.5892   1.6407   118.2401
 61      0.0000     0.0000E+00    0.0000E+00    9.047900E+08  0.05000  1.676E-04    0   0.6110   age135_m72            0.0000     6.6128E+00     4.2452   1.0002   113.4996
 62      0.0018     2.4528E-04    2.8113E-04    1.434000E+09  0.05000  8.837E-05    0   0.5874   age139_m72            0.0000     4.1514E+00     3.5327   0.5459   112.9033
 63     31.8983     9.0244E+00    9.8577E+00    2.500000E+09  0.05000  4.233E-05    0   0.5598   age150_m72            0.0000     1.6482E+00     1.8985   0.2913   108.8986
 64     24.3816     2.0347E+01    2.0841E+01    6.250000E+09  0.05000  1.435E-05    0   0.5249   age166_m72            0.0000     1.3327E+00     1.5957  -0.1100   105.1569
 65     10.5753     1.9445E+01    1.9108E+01    1.300000E+10  0.05000  6.513E-06    0   0.5036   age193_m72            0.0000     2.8505E+00     2.8870  -0.3441   104.1026
 66     10.4111     2.7542E+01    2.6575E+01    1.800000E+10  0.05000  4.527E-06    0   0.4945   age213_m72            0.0000     4.6339E+00     3.8520  -0.4757   102.5934


## Synthesis Results - Average & Chains ##

# j      x_j: min, <> & last-chain-values for 1 ...  7 chains
  1      0.0000      0.0043      0.0000      0.0000      0.0000      0.0000      0.0000      0.0000      0.0000
  2      0.0000      0.0146      0.0000      0.0000      0.0192      0.0000      0.0571      0.0214      0.1169
  3      0.0000      0.0070      0.0000      0.0986      0.0000      0.0000      0.0000      0.0000      0.0000
  4      0.0000      0.0113      0.0000      0.0000      0.0000      0.0000      0.0438      0.0000      0.0922
  5      0.0000      0.0086      0.0000      0.0427      0.0000      0.0171      0.0000      0.0819      0.0000
  6      0.0000      0.0127      0.1410      0.0000      0.0000      0.0000      0.0067      0.0634      0.0000
  7      0.0000      0.0144      0.0000      0.1061      0.0000      0.0000      0.0000      0.0000      0.0430
  8      0.0000      0.0152      0.0000      0.0000      0.0000      0.0000      0.0139      0.2961      0.0000
  9      0.0000      0.1178      0.2210      0.0859      0.2508      0.1437      0.0576      0.1484      0.1688
 10      0.0000      0.0260      0.0000      0.2517      0.0000      0.0000      0.0000      0.0000      0.0000
 11      0.0000      0.0923      0.0000      0.1292      0.0000      0.4172      0.2098      0.0000      0.0000
 12      0.0000      0.0299      0.0000      0.0000      0.0000      0.0000      0.0851      0.0000      0.0912
 13      0.0000      0.1136      0.0566      0.0000      0.2248      0.1606      0.0633      0.0000      0.1364
 14      0.0000      0.1097      0.1410      0.2346      0.0000      0.0000      0.0442      0.0625      0.2778
 15      0.0000      0.1037      0.1274      0.2904      0.1373      0.0000      0.0524      0.2582      0.2764
 16      0.0000      0.1905      0.1426      0.0000      0.0000      0.6022      0.8503      0.0418      0.1569
 17      0.0000      0.3065      0.3148      0.1329      0.3433      0.0140      0.0000      0.3074      0.7860
 18      0.0000      0.0165      0.0173      0.0000      0.1445      0.0000      0.0000      0.0000      0.0000
 19      0.0000      0.0131      0.0000      0.0000      0.0000      0.0000      0.0000      0.0000      0.0095
 20      0.0000      0.0255      0.0000      0.0000      0.1547      0.0000      0.0000      0.0000      0.0000
 21      0.0000      0.0130      0.0000      0.0000      0.0000      0.0000      0.0000      0.0000      0.0327
 22      0.0000      0.0154      0.0000      0.0000      0.0000      0.0000      0.0637      0.0000      0.0000
 23      0.0000      0.0154      0.0000      0.0000      0.0233      0.0380      0.0000      0.0000      0.0000
 24      0.0000      0.0133      0.0000      0.0000      0.1118      0.0000      0.0000      0.0166      0.0000
 25      0.0000      0.0120      0.0000      0.0000      0.0765      0.0000      0.0868      0.0678      0.0000
 26      0.0000      0.0327      0.0000      0.0000      0.0062      0.0000      0.0491      0.0000      0.1715
 27      0.0000      0.0515      0.0371      0.0299      0.0437      0.2109      0.2076      0.4175      0.0000
 28      0.0000      0.0503      0.0000      0.0563      0.0578      0.0000      0.0000      0.0000      0.1644
 29      3.6227      0.1331      0.3966      0.1189      0.0000      0.2926      0.3908      0.1006      0.0347
 30      0.0000      0.0726      0.2077      0.0906      0.0000      0.0000      0.0000      0.0000      0.0000
 31      0.0000      0.1463      0.0000      0.0000      0.0000      0.0919      0.0000      0.1007      0.1166
 32      0.0006      0.1233      0.3617      0.0000      0.0000      0.0000      0.0000      0.0000      0.1682
 33      0.0000      0.0741      0.0612      0.0000      0.0000      0.0000      0.0000      0.0000      0.0000
 34      0.0000      0.1346      0.0000      0.0000      0.0000      0.0284      0.0034      0.2040      0.0000
 35      0.0000      0.0035      0.0000      0.0000      0.0000      0.0000      0.0000      0.0000      0.0000
 36      0.0000      0.0262      0.0000      0.0000      0.0000      0.0000      0.0000      0.0000      0.0698
 37      0.0000      0.0190      0.0000      0.0000      0.0000      0.1485      0.0000      0.0000      0.0209
 38      0.0000      0.0188      0.0000      0.0000      0.0000      0.0000      0.0629      0.0000      0.0000
 39      0.0000      0.0105      0.0000      0.0000      0.0000      0.0000      0.0000      0.0000      0.0000
 40      0.0000      0.0147      0.0000      0.0000      0.0000      0.0000      0.0000      0.0000      0.0000
 41      0.0000      0.0160      0.0000      0.0252      0.0125      0.0000      0.0000      0.0000      0.0030
 42      0.0000      0.0299      0.0000      0.0000      0.1668      0.0000      0.0000      0.0450      0.0000
 43      0.0000      0.0483      0.0000      0.0866      0.0000      0.0000      0.0000      0.0000      0.0589
 44      0.0000      0.0266      0.0000      0.0637      0.0500      0.0000      0.0266      0.0000      0.0000
 45      0.0000      0.0522      0.0000      0.0628      0.0465      0.0366      0.0000      0.1714      0.0000
 46      0.0000      0.0751      0.0000      0.0000      0.0000      0.0755      0.0000      0.0000      0.0000
