###################################################################
## OUTPUT of StarlightChains_v04.for    [Cid@UFSC - 01/Apr/2007] ##
###################################################################

## Some input info
1997dn.txt                               [arq_obs]
Base.CB07.vall.4m                        [arq_base]
Masks.EmLines.NEW.gm                     [arq_masks]
StCv04.C11.config                        [arq_config]
   66                                    [N_base]
    0                                    [N_YAV_components = # of components with extra extinction!]
    0                                    [i_FitPowerLaw (1/0 = Yes/No)]
-9.99                                    [alpha_PowerLaw]
CCM                                      [red_law_option]
 1.458241                                [q_norm = A(l_norm)/A(V)]

## (Re)Sampling Parameters
 3741.00                                 [l_ini (A)]
 7218.00                                 [l_fin (A)]
    1.00                                 [dl    (A)]     (OBS: dl_cushion =    50.00 A)

## Normalization info
 4020.00                                 [l_norm (A) - for base]
 4010.00                                 [llow_norm (A) - window for f_obs]
 4060.00                                 [lupp_norm (A) - window for f_obs]
1.600594E-15                             [fobs_norm (in input units)]

## S/N
 3691.00                                 [llow_SN (A) - window for S/N]
 7268.00                                 [lupp_SN (A) - window for S/N]
   3.784                                 [S/N in S/N window]
   5.843                                 [S/N in norm. window]
  13.529                                 [S/N_err in S/N window]
  20.889                                 [S/N_err in norm. window]
  1.0000                                 [fscale_chi2]

## etc...
    -2007228                             [idum_orig]
  2399                                   [NOl_eff]
  2393                                   [Nl_eff]
     6    NSIGMA                         [Ntot_cliped & clip_method]
  1003310                                [Nglobal_steps]
   7                                     [N_chains]
  17                                     [NEX0s_base = N_base in EX0s-fits]
 0   0   1        3   2.0   4.701E+01    [Clip-Bug, RC-Crash & Burn-In warning-flags, n_censored_weights, wei_nsig_threshold & wei_limit]
    16     16.180     15.505      0.674  [idt_all, wdt_TotTime, wdt_UsrTime & wdt_SysTime (sec)]

## Synthesis Results - Best model ##

 1.37355E-01                             [chi2/Nl_eff]
     1.82884                             [adev (%)]

   103.26375                             [sum-of-x (%)]
 2.13556E-15                             [Flux_tot (units of input spectrum!)]
 1.99537E-12                             [Mini_tot (???)]
 1.32670E-12                             [Mcor_tot (???)]

 -92.19                                  [v0_min  (km/s)]
 236.06                                  [vd_min  (km/s)]
 0.1908                                  [AV_min  (mag)]
 0.0000                                  [YAV_min (mag)]

# j     x_j(%)      Mini_j(%)     Mcor_j(%)     age_j(yr)     Z_j      (L/M)_j    YAV?  Mstars   component_j        a/Fe...       SSP_chi2r SSP_adev(%)   SSP_AV   SSP_x(%)
  1      0.0000     0.0000E+00    0.0000E+00    1.000000E+06  0.00400  1.094E-02    0   1.0000   age020_m42            0.0000     9.1276E-01     5.2377   1.9527    85.0448
  2      0.0000     0.0000E+00    0.0000E+00    3.160000E+06  0.00400  4.007E-02    0   0.9999   age045_m42            0.0000     4.1903E-01     3.5843   1.1848    92.8044
  3      0.0000     0.0000E+00    0.0000E+00    5.010000E+06  0.00400  2.539E-02    0   0.9488   age055_m42            0.0000     5.7071E-01     4.2074   1.5188    89.8908
  4      0.0000     0.0000E+00    0.0000E+00    6.610000E+06  0.00400  2.620E-02    0   0.9220   age061_m42            0.0000     3.5461E-01     3.2758   1.1021    93.4204
  5      0.0027     2.1425E-04    2.8556E-04    1.000000E+07  0.00400  1.322E-02    0   0.8862   age070_m42            0.0000     3.5607E-01     2.9756   0.7966    96.4866
  6      0.0000     0.0000E+00    0.0000E+00    1.445000E+07  0.00400  7.883E-03    0   0.8571   age078_m42            0.0000     4.6254E-01     3.4294   1.1374    93.4060
  7      0.0000     0.0000E+00    0.0000E+00    2.512000E+07  0.00400  5.251E-03    0   0.8174   age090_m42            0.0000     3.6101E-01     2.9606   0.6582    97.4189
  8      0.0151     4.2752E-03    5.0481E-03    4.000000E+07  0.00400  3.649E-03    0   0.7851   age104_m42            0.0000     2.8928E-01     2.6367   0.4265    98.4435
  9      0.0000     0.0000E+00    0.0000E+00    5.500000E+07  0.00400  3.098E-03    0   0.7629   age110_m42            0.0000     2.1277E-01     2.3483   0.5834    98.3259
 10      0.0000     0.0000E+00    0.0000E+00    1.015200E+08  0.00400  2.228E-03    0   0.7207   age116_m42            0.0000     1.9740E-01     2.2995   0.6038    98.5236
 11      0.0000     0.0000E+00    0.0000E+00    2.861200E+08  0.00400  1.093E-03    0   0.6648   age125_m42            0.0000     1.7567E-01     2.0928   0.0158   102.4329
 12      0.0000     0.0000E+00    0.0000E+00    5.088000E+08  0.00400  6.597E-04    0   0.6365   age130_m42            0.0000     1.9482E-01     2.1515   0.0119   102.9981
 13      0.0000     0.0000E+00    0.0000E+00    1.434000E+09  0.00400  2.132E-04    0   0.5798   age139_m42            0.0000     2.6442E-01     2.6362  -0.9490   104.4928
 14      0.0000     0.0000E+00    0.0000E+00    4.250000E+09  0.00400  5.895E-05    0   0.5377   age158_m42            0.0000     1.3274E+00     6.8737  -1.0000    84.8507
 15      0.0000     0.0000E+00    0.0000E+00    7.500000E+09  0.00400  3.510E-05    0   0.5212   age171_m42            0.0000     2.4469E+00     9.5448  -1.0000    77.4805
 16      0.0000     0.0000E+00    0.0000E+00    1.300000E+10  0.00400  2.005E-05    0   0.5034   age193_m42            0.0000     3.6979E+00    11.8581  -1.0000    71.4446
 17      0.0000     0.0000E+00    0.0000E+00    1.800000E+10  0.00400  1.525E-05    0   0.4967   age213_m42            0.0000     3.8909E+00    12.2286  -1.0000    70.3612
 18      0.0000     0.0000E+00    0.0000E+00    1.000000E+06  0.00800  1.238E-02    0   1.0000   age020_m52            0.0000     9.1114E-01     5.2420   1.9482    85.2372
 19      0.0000     0.0000E+00    0.0000E+00    3.160000E+06  0.00800  3.074E-02    0   0.9966   age045_m52            0.0000     8.5255E-01     5.1530   1.8677    86.1508
 20      0.0000     0.0000E+00    0.0000E+00    5.010000E+06  0.00800  2.668E-02    0   0.9443   age055_m52            0.0000     6.2298E-01     4.3874   1.6051    88.9086
 21     17.4108     8.4481E-01    1.1660E+00    6.610000E+06  0.00800  2.136E-02    0   0.9177   age061_m52            0.0000     4.2612E-01     3.1619   0.3128    96.7857
 22      0.0000     0.0000E+00    0.0000E+00    1.000000E+07  0.00800  1.215E-02    0   0.8827   age070_m52            0.0000     4.6861E-01     3.3689   0.9759    96.2602
 23      0.0000     0.0000E+00    0.0000E+00    1.445000E+07  0.00800  8.717E-03    0   0.8552   age078_m52            0.0000     4.1889E-01     3.2621   1.0981    94.9161
 24      0.0200     3.7070E-03    4.5507E-03    2.512000E+07  0.00800  5.592E-03    0   0.8162   age090_m52            0.0000     3.4948E-01     2.9052   0.7176    98.8016
 25      6.5001     1.7292E+00    2.0392E+00    4.000000E+07  0.00800  3.896E-03    0   0.7841   age104_m52            0.0000     2.5655E-01     2.4985   0.6277    99.7025
 26     15.2047     7.3364E+00    7.9732E+00    1.015200E+08  0.00800  2.148E-03    0   0.7226   age116_m52            0.0000     1.7708E-01     2.1712   0.5689    99.4251
 27      0.0156     1.6325E-02    1.6409E-02    2.861200E+08  0.00800  9.925E-04    0   0.6683   age125_m52            0.0000     1.9257E-01     2.0769   0.0745   104.0889
 28      0.0000     0.0000E+00    0.0000E+00    9.047900E+08  0.00800  3.141E-04    0   0.6138   age135_m52            0.0000     3.8233E-01     3.0960  -0.7020   107.3243
 29      1.7151     1.0341E+01    9.1032E+00    1.434000E+09  0.00800  1.719E-04    0   0.5853   age139_m52            0.0000     9.5069E-01     5.5845  -1.0000    93.1540
 30      0.0000     0.0000E+00    0.0000E+00    2.500000E+09  0.00800  7.872E-05    0   0.5600   age150_m52            0.0000     2.3520E+00     9.2873  -1.0000    80.4042
 31      0.0000     0.0000E+00    0.0000E+00    4.250000E+09  0.00800  4.336E-05    0   0.5426   age158_m52            0.0000     2.4525E+00     9.4452  -1.0000    79.0845
 32      0.0000     0.0000E+00    0.0000E+00    6.250000E+09  0.00800  3.159E-05    0   0.5319   age166_m52            0.0000     4.0177E+00    12.3237  -1.0000    72.0935
 33      0.0000     0.0000E+00    0.0000E+00    1.300000E+10  0.00800  1.361E-05    0   0.5073   age193_m52            0.0000     8.6979E+00    18.7647  -1.0000    57.2986
 34      0.0000     0.0000E+00    0.0000E+00    1.800000E+10  0.00800  9.886E-06    0   0.4990   age213_m52            0.0000     9.8719E+00    19.9562  -1.0000    54.1395
 35      0.0000     0.0000E+00    0.0000E+00    1.000000E+06  0.02000  1.544E-02    0   1.0000   age020_m62            0.0000     9.2102E-01     5.2882   1.9454    85.3858
 36      0.0000     0.0000E+00    0.0000E+00    3.160000E+06  0.02000  3.762E-02    0   0.9858   age045_m62            0.0000     8.9476E-01     5.2758   1.8824    86.2185
 37      0.0000     0.0000E+00    0.0000E+00    5.010000E+06  0.02000  3.296E-02    0   0.9342   age055_m62            0.0000     4.8296E-01     3.9261   1.4708    91.3594
 38      2.3788     2.1365E-01    2.8472E-01    8.710000E+06  0.02000  1.154E-02    0   0.8861   age067_m62            0.0000     1.6134E+00     6.3531   0.4003   100.1454
 39      0.0000     0.0000E+00    0.0000E+00    1.445000E+07  0.02000  7.663E-03    0   0.8472   age078_m62            0.0000     6.7584E-01     3.9300   0.6115    98.9776
 40      5.8020     1.3269E+00    1.6163E+00    2.512000E+07  0.02000  4.532E-03    0   0.8099   age090_m62            0.0000     6.8811E-01     4.0509   0.5947    99.1503
 41      1.1704     4.4387E-01    5.0703E-01    5.500000E+07  0.02000  2.733E-03    0   0.7595   age110_m62            0.0000     2.7249E-01     2.5882   0.6129    98.8370
 42      0.0078     5.9150E-03    6.2140E-03    1.609000E+08  0.02000  1.369E-03    0   0.6985   age120_m62            0.0000     1.7096E-01     2.0264   0.4407   102.1552
 43      0.0000     0.0000E+00    0.0000E+00    2.861200E+08  0.02000  9.013E-04    0   0.6714   age125_m62            0.0000     2.3759E-01     2.2899   0.1825   105.4928
 44      0.0403     8.3059E-02    8.0561E-02    5.088000E+08  0.02000  5.028E-04    0   0.6449   age130_m62            0.0000     4.0523E-01     3.2148  -0.1771   107.4082
 45      0.0000     0.0000E+00    0.0000E+00    9.047900E+08  0.02000  2.428E-04    0   0.6179   age135_m62            0.0000     4.8531E-01     3.5181  -0.7321   105.1927
 46      0.0000     0.0000E+00    0.0000E+00    1.434000E+09  0.02000  1.263E-04    0   0.5908   age139_m62            0.0000     8.1812E-01     4.8658  -1.0000    96.1252
 47      0.0000     0.0000E+00    0.0000E+00    2.500000E+09  0.02000  5.985E-05    0   0.5673   age150_m62            0.0000     2.5509E+00     9.5049  -1.0000    80.6847
 48      0.0000     0.0000E+00    0.0000E+00    4.250000E+09  0.02000  3.271E-05    0   0.5468   age158_m62            0.0000     4.9875E+00    13.7334  -1.0000    69.5425
 49      0.0000     0.0000E+00    0.0000E+00    1.000000E+10  0.02000  1.360E-05    0   0.5167   age181_m62            0.0000     8.4920E+00    18.2650  -1.0000    58.7085
 50      0.0000     0.0000E+00    0.0000E+00    1.800000E+10  0.02000  7.124E-06    0   0.5013   age213_m62            0.0000     1.0800E+01    20.7099  -1.0000    52.6349
 51      0.0000     0.0000E+00    0.0000E+00    1.000000E+06  0.05000  2.592E-02    0   0.9998   age020_m72            0.0000     9.6881E-01     5.4166   1.9394    85.2895
 52      0.0000     0.0000E+00    0.0000E+00    3.160000E+06  0.05000  4.845E-02    0   0.9577   age045_m72            0.0000     7.2867E-01     4.8542   1.7539    87.8663
 53      0.0000     0.0000E+00    0.0000E+00    5.010000E+06  0.05000  3.072E-02    0   0.9147   age055_m72            0.0000     6.7171E-01     4.0972   1.2319    93.7246
 54      0.0000     0.0000E+00    0.0000E+00    6.610000E+06  0.05000  1.455E-02    0   0.8877   age061_m72            0.0000     2.9023E+00     8.7302   0.4423   101.5730
 55      0.0000     0.0000E+00    0.0000E+00    1.000000E+07  0.05000  9.074E-03    0   0.8524   age070_m72            0.0000     9.2468E-01     4.7656   1.4200    93.4415
 56      0.0000     0.0000E+00    0.0000E+00    2.512000E+07  0.05000  4.250E-03    0   0.7902   age090_m72            0.0000     5.5153E-01     3.6887   1.0902    96.4499
 57      0.0045     1.5156E-03    1.7365E-03    4.000000E+07  0.05000  3.087E-03    0   0.7618   age104_m72            0.0000     5.2504E-01     3.5779   0.8460    98.8311
 58      0.0000     0.0000E+00    0.0000E+00    1.015200E+08  0.05000  1.700E-03    0   0.7096   age116_m72            0.0000     1.9647E-01     2.2229   0.5769   102.0455
 59     50.4637     7.0832E+01    7.0662E+01    2.861200E+08  0.05000  7.384E-04    0   0.6633   age125_m72            0.0000     3.1446E-01     2.6676   0.0585   106.5369
 60      2.5120     6.8173E+00    6.5334E+00    5.088000E+08  0.05000  3.819E-04    0   0.6372   age130_m72            0.0000     4.5219E-01     3.5217  -0.4064   106.8388
 61      0.0000     0.0000E+00    0.0000E+00    9.047900E+08  0.05000  1.676E-04    0   0.6110   age135_m72            0.0000     9.1620E-01     5.2425  -1.0000   100.2658
 62      0.0000     0.0000E+00    0.0000E+00    1.434000E+09  0.05000  8.837E-05    0   0.5874   age139_m72            0.0000     2.6582E+00     9.6792  -1.0000    81.8447
 63      0.0000     0.0000E+00    0.0000E+00    2.500000E+09  0.05000  4.233E-05    0   0.5598   age150_m72            0.0000     5.0539E+00    13.7396  -1.0000    70.1385
 64      0.0000     0.0000E+00    0.0000E+00    6.250000E+09  0.05000  1.435E-05    0   0.5249   age166_m72            0.0000     9.5407E+00    19.4440  -1.0000    55.7956
 65      0.0000     0.0000E+00    0.0000E+00    1.300000E+10  0.05000  6.513E-06    0   0.5036   age193_m72            0.0000     1.2745E+01    22.6079  -1.0000    49.1375
 66      0.0000     0.0000E+00    0.0000E+00    1.800000E+10  0.05000  4.527E-06    0   0.4945   age213_m72            0.0000     1.4652E+01    24.3041  -1.0000    45.3003


## Synthesis Results - Average & Chains ##

# j      x_j: min, <> & last-chain-values for 1 ...  7 chains
  1      0.0000      0.2626      0.5195      0.0000      0.0000      0.0000      0.5346      1.7198      0.0000
  2      0.0000      0.5796      0.8421      0.0000      4.9201      0.0000      0.0000      0.0000      0.0000
  3      0.0000      0.3444      0.0000      0.0000      0.0000      0.0000      0.9475      1.5767      0.0000
  4      0.0000      0.7466      0.0000      2.3012      0.0000      0.0000      3.9416      1.4054      0.0000
  5      0.0027      0.8112      0.0000      0.4118      0.0000      6.9383      2.5011      0.0000      1.2088
  6      0.0000      0.3032      0.0000      0.4044      0.0000      0.4664      0.0000      0.0000      0.0000
  7      0.0000      1.1793      0.0000      0.0000      0.9834      0.0000      0.0924      0.0000      5.1406
  8      0.0151      2.5732      1.2631      0.7333      0.1081      3.3605      0.0000      0.3508      0.0000
  9      0.0000      2.0545      0.3658      0.0000      0.0000      0.0000      1.3073      2.2360      0.1560
 10      0.0000      3.2371      8.5864      2.3756      0.0000      0.0000      0.3739      3.1711      0.0000
 11      0.0000      1.1668      0.6024      0.0000      0.0000      0.0000      1.3770      2.7975      0.0000
 12      0.0000      0.9241      0.7837      1.0343      0.0000      0.0000      0.0000      0.0000      0.0000
 13      0.0000      0.0944      0.0000      0.0000      0.0000      0.4872      0.0000      0.0000      0.5322
 14      0.0000      0.0110      0.0000      0.0000      0.0000      0.0000      0.0000      0.0000      0.0000
 15      0.0000      0.0061      0.0000      0.0000      0.0000      0.0000      0.0000      0.0000      0.0000
 16      0.0000      0.0298      0.0000      0.0000      0.0000      0.0000      0.0000      0.0000      0.3223
 17      0.0000      0.0280      0.0000      0.0000      0.0000      0.0000      0.0000      0.0000      0.0000
 18      0.0000      0.2039      0.0000      0.0000      0.0000      0.0000      0.0000      0.2324      0.0000
 19      0.0000      0.3502      1.6746      1.0831      0.0000      0.0000      0.0000      1.0083      0.0000
 20      0.0000      0.5571      0.0000      1.4929      5.1503      0.0000      0.0000      0.0000      0.0652
 21     17.4108      4.5095      7.2202      4.2473      5.9084      8.0677      5.3816      5.4080      8.4780
 22      0.0000      0.5792      1.3310      0.2374      0.6619      0.0000      0.0000      0.6230      1.9480
 23      0.0000      1.2619      1.4128      4.1390      0.9613      0.0000      3.6828      0.0000      3.3352
 24      0.0200      1.5222      0.0000      1.0103      1.0749      2.7975      2.7712      2.3870      0.2326
 25      6.5001      1.8668      0.4163      5.1246      0.0000      3.0882      1.1172      6.2994      2.5147
 26     15.2047     12.2624     10.9168     14.2669     21.7155     13.0827     13.1621      4.5906     13.5249
 27      0.0156      1.7959      0.6461      0.7090      0.0000      1.0998      1.6782      2.4989      0.9283
 28      0.0000      0.1401      0.0000      1.5856      0.0000      0.0000      0.0000      0.0000      0.0000
 29      1.7151      0.0528      0.0000      0.0000      0.7938      1.3726      0.0000      0.0000      0.0000
 30      0.0000      0.0445      0.0000      0.0000      0.0000      0.0000      0.0000      0.0000      0.0000
 31      0.0000      0.0272      0.0000      0.0000      0.3432      0.0000      0.0000      0.0000      0.0000
 32      0.0000      0.0137      0.0000      0.0000      0.0000      0.0000      0.0000      0.1153      0.0000
 33      0.0000      0.0050      0.0000      0.0000      0.0000      0.0000      0.0000      0.0000      0.0000
 34      0.0000      0.0044      0.0000      0.0000      0.0000      0.0000      0.0000      0.0000      0.0000
 35      0.0000      0.3328      0.0000      0.0919      0.0000      0.0000      0.0000      0.0000      0.9759
 36      0.0000      0.5393      0.5253      0.0000      0.0000      0.0000      1.5329      0.3218      0.0000
 37      0.0000      0.5844      0.0000      0.0000      1.8200      0.0000      0.0000      0.3597      0.0000
 38      2.3788      0.7041      0.0000      1.7165      2.1982      0.7782      0.0000      0.2946      0.5028
 39      0.0000      1.1985      2.7505      0.0000      0.7962      0.0000      3.8112      1.7743      0.0000
 40      5.8020      1.4291      0.0000      5.0844      0.0000      5.4532      0.0000      2.4155      0.0000
 41      1.1704      2.8029      3.8494      2.5323      2.6495      2.7994      0.0000      2.2402      5.8002
 42      0.0078      4.3076      0.8833      0.0000      0.0000      4.4779      3.2997      0.0000      1.3723
 43      0.0000     15.5900     17.8367     16.6844     15.5449      3.7429     17.4568     15.5161     12.3020
 44      0.0403      2.8304      0.0000      1.9353      5.8477      5.3003      3.3756      6.4372      1.7983
 45      0.0000      0.0994      0.7399      0.0000      0.0000      0.0000      0.0000      0.0000      0.0000
 46      0.0000      0.0734      0.0000      0.0000      0.0000      0.1839      0.0000      0.0000      0.0000
