###################################################################
## OUTPUT of StarlightChains_v04.for    [Cid@UFSC - 01/Apr/2007] ##
###################################################################

## Some input info
1997cw.txt                               [arq_obs]
Base.CB07.vall.4m                        [arq_base]
Masks.EmLines.NEW.gm                     [arq_masks]
StCv04.C11.config                        [arq_config]
   66                                    [N_base]
    0                                    [N_YAV_components = # of components with extra extinction!]
    0                                    [i_FitPowerLaw (1/0 = Yes/No)]
-9.99                                    [alpha_PowerLaw]
CCM                                      [red_law_option]
 1.458241                                [q_norm = A(l_norm)/A(V)]

## (Re)Sampling Parameters
 3741.00                                 [l_ini (A)]
 7218.00                                 [l_fin (A)]
    1.00                                 [dl    (A)]     (OBS: dl_cushion =    50.00 A)

## Normalization info
 4020.00                                 [l_norm (A) - for base]
 4010.00                                 [llow_norm (A) - window for f_obs]
 4060.00                                 [lupp_norm (A) - window for f_obs]
3.658950E-17                             [fobs_norm (in input units)]

## S/N
 3691.00                                 [llow_SN (A) - window for S/N]
 7268.00                                 [lupp_SN (A) - window for S/N]
   6.282                                 [S/N in S/N window]
   8.183                                 [S/N in norm. window]
  10.000                                 [S/N_err in S/N window]
  13.026                                 [S/N_err in norm. window]
  1.0000                                 [fscale_chi2]

## etc...
    -2007226                             [idum_orig]
  2220                                   [NOl_eff]
  2156                                   [Nl_eff]
    64    NSIGMA                         [Ntot_cliped & clip_method]
  1473710                                [Nglobal_steps]
   7                                     [N_chains]
  28                                     [NEX0s_base = N_base in EX0s-fits]
 0   0   1       31   2.0   2.251E+01    [Clip-Bug, RC-Crash & Burn-In warning-flags, n_censored_weights, wei_nsig_threshold & wei_limit]
    13     12.797     12.198      0.599  [idt_all, wdt_TotTime, wdt_UsrTime & wdt_SysTime (sec)]

## Synthesis Results - Best model ##

 5.95415E-01                             [chi2/Nl_eff]
     5.71817                             [adev (%)]

    96.82861                             [sum-of-x (%)]
 3.71716E-17                             [Flux_tot (units of input spectrum!)]
 2.91439E-13                             [Mini_tot (???)]
 1.56171E-13                             [Mcor_tot (???)]

  16.93                                  [v0_min  (km/s)]
  61.26                                  [vd_min  (km/s)]
 0.0357                                  [AV_min  (mag)]
 0.0000                                  [YAV_min (mag)]

# j     x_j(%)      Mini_j(%)     Mcor_j(%)     age_j(yr)     Z_j      (L/M)_j    YAV?  Mstars   component_j        a/Fe...       SSP_chi2r SSP_adev(%)   SSP_AV   SSP_x(%)
  1      1.6675     2.0078E-02    3.7468E-02    1.000000E+06  0.00400  1.094E-02    0   1.0000   age020_m42            0.0000     1.1991E+00     7.9285   2.5647    81.5394
  2      0.0000     0.0000E+00    0.0000E+00    3.160000E+06  0.00400  4.007E-02    0   0.9999   age045_m42            0.0000     8.8722E-01     7.0463   1.8183    88.0633
  3      0.0000     0.0000E+00    0.0000E+00    5.010000E+06  0.00400  2.539E-02    0   0.9488   age055_m42            0.0000     9.8907E-01     7.2942   2.1486    85.4826
  4      0.0000     0.0000E+00    0.0000E+00    6.610000E+06  0.00400  2.620E-02    0   0.9220   age061_m42            0.0000     8.6252E-01     6.8868   1.7480    88.2009
  5      0.0033     3.2623E-05    5.3951E-05    1.000000E+07  0.00400  1.322E-02    0   0.8862   age070_m42            0.0000     8.1995E-01     6.4625   1.4858    89.6466
  6      0.2078     3.4730E-03    5.5550E-03    1.445000E+07  0.00400  7.883E-03    0   0.8571   age078_m42            0.0000     9.0400E-01     6.7696   1.8175    87.1359
  7      0.0000     0.0000E+00    0.0000E+00    2.512000E+07  0.00400  5.251E-03    0   0.8174   age090_m42            0.0000     8.0430E-01     6.3806   1.3575    90.1490
  8      0.0000     0.0000E+00    0.0000E+00    4.000000E+07  0.00400  3.649E-03    0   0.7851   age104_m42            0.0000     7.5243E-01     6.2326   1.1218    91.2239
  9      0.0000     0.0000E+00    0.0000E+00    5.500000E+07  0.00400  3.098E-03    0   0.7629   age110_m42            0.0000     7.6514E-01     6.3570   1.2675    91.4252
 10      0.0000     0.0000E+00    0.0000E+00    1.015200E+08  0.00400  2.228E-03    0   0.7207   age116_m42            0.0000     7.8649E-01     6.4925   1.2822    91.7465
 11      0.0000     0.0000E+00    0.0000E+00    2.861200E+08  0.00400  1.093E-03    0   0.6648   age125_m42            0.0000     7.2302E-01     6.2288   0.7193    94.6366
 12      0.0000     0.0000E+00    0.0000E+00    5.088000E+08  0.00400  6.597E-04    0   0.6365   age130_m42            0.0000     7.5922E-01     6.3828   0.6950    95.8499
 13     19.2590     1.1899E+01    1.2874E+01    1.434000E+09  0.00400  2.132E-04    0   0.5798   age139_m42            0.0000     7.0220E-01     6.2120  -0.3017    98.7005
 14      6.6310     1.4817E+01    1.4868E+01    4.250000E+09  0.00400  5.895E-05    0   0.5377   age158_m42            0.0000     8.6135E-01     6.9430  -0.7553    95.1757
 15      6.7023     2.5152E+01    2.4464E+01    7.500000E+09  0.00400  3.510E-05    0   0.5212   age171_m42            0.0000     1.0091E+00     7.4648  -0.9447    94.5849
 16      0.5953     3.9107E+00    3.6738E+00    1.300000E+10  0.00400  2.005E-05    0   0.5034   age193_m42            0.0000     1.2103E+00     7.9643  -1.0000    90.5384
 17      3.3213     2.8688E+01    2.6591E+01    1.800000E+10  0.00400  1.525E-05    0   0.4967   age213_m42            0.0000     1.1982E+00     7.8974  -1.0000    89.3994
 18      0.0000     0.0000E+00    0.0000E+00    1.000000E+06  0.00800  1.238E-02    0   1.0000   age020_m52            0.0000     1.1974E+00     7.9331   2.5611    81.6992
 19      0.0000     0.0000E+00    0.0000E+00    3.160000E+06  0.00800  3.074E-02    0   0.9966   age045_m52            0.0000     1.1574E+00     7.8352   2.4803    82.5566
 20      0.0000     0.0000E+00    0.0000E+00    5.010000E+06  0.00800  2.668E-02    0   0.9443   age055_m52            0.0000     1.0165E+00     7.3618   2.2336    84.6180
 21      0.0000     0.0000E+00    0.0000E+00    6.610000E+06  0.00800  2.136E-02    0   0.9177   age061_m52            0.0000     7.5624E-01     6.2178   0.9725    91.1389
 22      0.0000     0.0000E+00    0.0000E+00    1.000000E+07  0.00800  1.215E-02    0   0.8827   age070_m52            0.0000     8.5914E-01     6.5704   1.6763    89.1430
 23      3.6827     5.5649E-02    8.8812E-02    1.445000E+07  0.00800  8.717E-03    0   0.8552   age078_m52            0.0000     8.6576E-01     6.6322   1.7805    88.4519
 24      0.0000     0.0000E+00    0.0000E+00    2.512000E+07  0.00800  5.592E-03    0   0.8162   age090_m52            0.0000     7.8512E-01     6.3156   1.4228    91.2354
 25      8.8942     3.0071E-01    4.4001E-01    4.000000E+07  0.00800  3.896E-03    0   0.7841   age104_m52            0.0000     7.4541E-01     6.2210   1.3288    92.2009
 26      0.0000     0.0000E+00    0.0000E+00    1.015200E+08  0.00800  2.148E-03    0   0.7226   age116_m52            0.0000     7.2556E-01     6.2547   1.2528    92.4838
 27      0.0000     0.0000E+00    0.0000E+00    2.861200E+08  0.00800  9.925E-04    0   0.6683   age125_m52            0.0000     7.4956E-01     6.3165   0.7599    96.7590
 28      0.0000     0.0000E+00    0.0000E+00    9.047900E+08  0.00800  3.141E-04    0   0.6138   age135_m52            0.0000     8.5346E-01     6.7806  -0.0658   101.8706
 29     17.6314     1.3510E+01    1.4757E+01    1.434000E+09  0.00800  1.719E-04    0   0.5853   age139_m52            0.0000     8.3739E-01     6.8314  -0.6455    99.7762
 30      0.0000     0.0000E+00    0.0000E+00    2.500000E+09  0.00800  7.872E-05    0   0.5600   age150_m52            0.0000     1.0611E+00     7.7244  -0.9285    97.3979
 31      0.0000     0.0000E+00    0.0000E+00    4.250000E+09  0.00800  4.336E-05    0   0.5426   age158_m52            0.0000     1.1081E+00     7.8236  -0.9431    96.4380
 32      0.0000     0.0000E+00    0.0000E+00    6.250000E+09  0.00800  3.159E-05    0   0.5319   age166_m52            0.0000     1.4082E+00     8.5340  -1.0000    91.6018
 33      0.0000     0.0000E+00    0.0000E+00    1.300000E+10  0.00800  1.361E-05    0   0.5073   age193_m52            0.0000     2.9421E+00    11.9115  -1.0000    75.9157
 34      0.0000     0.0000E+00    0.0000E+00    1.800000E+10  0.00800  9.886E-06    0   0.4990   age213_m52            0.0000     3.6282E+00    13.1591  -1.0000    72.1960
 35      0.0000     0.0000E+00    0.0000E+00    1.000000E+06  0.02000  1.544E-02    0   1.0000   age020_m62            0.0000     1.2026E+00     7.9618   2.5565    81.9034
 36      0.0000     0.0000E+00    0.0000E+00    3.160000E+06  0.02000  3.762E-02    0   0.9858   age045_m62            0.0000     1.1851E+00     7.9299   2.4944    82.6688
 37      3.4060     1.3612E-02    2.3730E-02    5.010000E+06  0.02000  3.296E-02    0   0.9342   age055_m62            0.0000     9.4293E-01     7.1861   2.1034    86.7337
 38      0.0000     0.0000E+00    0.0000E+00    8.710000E+06  0.02000  1.154E-02    0   0.8861   age067_m62            0.0000     1.1934E+00     7.6138   1.1684    90.6773
 39      0.0000     0.0000E+00    0.0000E+00    1.445000E+07  0.02000  7.663E-03    0   0.8472   age078_m62            0.0000     8.5996E-01     6.4940   1.3342    91.0562
 40      1.8820     5.4701E-02    8.2676E-02    2.512000E+07  0.02000  4.532E-03    0   0.8099   age090_m62            0.0000     8.7299E-01     6.5228   1.3319    90.6835
 41      0.0000     0.0000E+00    0.0000E+00    5.500000E+07  0.02000  2.733E-03    0   0.7595   age110_m62            0.0000     7.5633E-01     6.1795   1.3127    91.4672
 42      0.0000     0.0000E+00    0.0000E+00    1.609000E+08  0.02000  1.369E-03    0   0.6985   age120_m62            0.0000     7.6329E-01     6.3116   1.1332    94.6366
 43      0.7832     1.1446E-01    1.4341E-01    2.861200E+08  0.02000  9.013E-04    0   0.6714   age125_m62            0.0000     8.0994E-01     6.4364   0.8669    97.9669
 44      0.0132     3.4543E-03    4.1572E-03    5.088000E+08  0.02000  5.028E-04    0   0.6449   age130_m62            0.0000     9.0284E-01     6.9083   0.4649   101.4961
 45      0.0000     0.0000E+00    0.0000E+00    9.047900E+08  0.02000  2.428E-04    0   0.6179   age135_m62            0.0000     9.2758E-01     7.1835  -0.1317   101.2971
 46      0.0000     0.0000E+00    0.0000E+00    1.434000E+09  0.02000  1.263E-04    0   0.5908   age139_m62            0.0000     1.0244E+00     7.5182  -0.5790    99.8646
 47      0.0000     0.0000E+00    0.0000E+00    2.500000E+09  0.02000  5.985E-05    0   0.5673   age150_m62            0.0000     1.2851E+00     8.4226  -0.9531    98.6583
 48      0.0000     0.0000E+00    0.0000E+00    4.250000E+09  0.02000  3.271E-05    0   0.5468   age158_m62            0.0000     1.8865E+00     9.7706  -1.0000    89.0830
 49      0.0000     0.0000E+00    0.0000E+00    1.000000E+10  0.02000  1.360E-05    0   0.5167   age181_m62            0.0000     3.3583E+00    12.6314  -1.0000    77.3548
 50      0.0000     0.0000E+00    0.0000E+00    1.800000E+10  0.02000  7.124E-06    0   0.5013   age213_m62            0.0000     4.5732E+00    14.6510  -1.0000    70.2771
 51      0.4270     2.1699E-03    4.0485E-03    1.000000E+06  0.05000  2.592E-02    0   0.9998   age020_m72            0.0000     1.2292E+00     8.0367   2.5492    81.8827
 52      0.0000     0.0000E+00    0.0000E+00    3.160000E+06  0.05000  4.845E-02    0   0.9577   age045_m72            0.0000     1.0894E+00     7.6734   2.3702    84.0326
 53      0.0018     7.7312E-06    1.3197E-05    5.010000E+06  0.05000  3.072E-02    0   0.9147   age055_m72            0.0000     9.5656E-01     6.9444   1.9276    87.2411
 54      2.3065     2.0881E-02    3.4591E-02    6.610000E+06  0.05000  1.455E-02    0   0.8877   age061_m72            0.0000     1.4651E+00     8.6826   1.2720    90.5081
 55      0.0000     0.0000E+00    0.0000E+00    1.000000E+07  0.05000  9.074E-03    0   0.8524   age070_m72            0.0000     1.0188E+00     7.2924   2.1390    86.4590
 56      0.0000     0.0000E+00    0.0000E+00    2.512000E+07  0.05000  4.250E-03    0   0.7902   age090_m72            0.0000     8.7736E-01     6.7211   1.8138    88.7683
 57      2.0075     8.5661E-02    1.2178E-01    4.000000E+07  0.05000  3.087E-03    0   0.7618   age104_m72            0.0000     8.3798E-01     6.5881   1.5831    90.4241
 58     17.4058     1.3487E+00    1.7859E+00    1.015200E+08  0.05000  1.700E-03    0   0.7096   age116_m72            0.0000     7.6218E-01     6.3040   1.2876    93.9284
 59      0.0000     0.0000E+00    0.0000E+00    2.861200E+08  0.05000  7.384E-04    0   0.6633   age125_m72            0.0000     8.5492E-01     6.6597   0.7221    99.7875
 60      0.0000     0.0000E+00    0.0000E+00    5.088000E+08  0.05000  3.819E-04    0   0.6372   age130_m72            0.0000     9.1092E-01     7.0664   0.2049   102.2542
 61      0.0000     0.0000E+00    0.0000E+00    9.047900E+08  0.05000  1.676E-04    0   0.6110   age135_m72            0.0000     1.2045E+00     8.2392  -0.5058   100.8360
 62      0.0000     0.0000E+00    0.0000E+00    1.434000E+09  0.05000  8.837E-05    0   0.5874   age139_m72            0.0000     1.3882E+00     8.6881  -0.9570   100.2240
 63      0.0000     0.0000E+00    0.0000E+00    2.500000E+09  0.05000  4.233E-05    0   0.5598   age150_m72            0.0000     2.0289E+00    10.1352  -1.0000    89.7938
 64      0.0000     0.0000E+00    0.0000E+00    6.250000E+09  0.05000  1.435E-05    0   0.5249   age166_m72            0.0000     3.8280E+00    13.5698  -1.0000    74.0059
 65      0.0000     0.0000E+00    0.0000E+00    1.300000E+10  0.05000  6.513E-06    0   0.5036   age193_m72            0.0000     5.5607E+00    16.2862  -1.0000    66.2408
 66      0.0000     0.0000E+00    0.0000E+00    1.800000E+10  0.05000  4.527E-06    0   0.4945   age213_m72            0.0000     6.6440E+00    17.8513  -1.0000    61.5546


## Synthesis Results - Average & Chains ##

# j      x_j: min, <> & last-chain-values for 1 ...  7 chains
  1      1.6675      0.2617      0.0000      1.8821      0.0000      0.0000      0.8298      0.0000      0.7544
  2      0.0000      0.6439      0.6205      1.5414      0.7317      0.0000      0.0000      0.5428      0.0000
  3      0.0000      0.4434      0.2414      0.0777      0.0000      1.7500      0.0000      0.0000      0.0978
  4      0.0000      0.3333      0.0000      0.7150      0.0000      0.0000      1.8199      0.0000      0.8024
  5      0.0033      0.4393      0.7976      0.0543      0.0000      0.3498      0.0000      0.3320      2.4182
  6      0.2078      1.0599      0.0000      0.0000      0.3883      0.0000      0.0000      0.9124      1.2608
  7      0.0000      0.7147      0.9323      0.0000      3.0934      0.0000      1.0723      0.6091      0.0000
  8      0.0000      1.2503      2.0088      0.0000      0.0000      0.0461      0.0000      0.5611      1.7034
  9      0.0000      0.5239      0.0000      0.2880      0.0000      0.0000      0.0000      0.0000      0.0000
 10      0.0000      0.5788      0.0921      0.3965      2.3777      0.0000      0.0000      0.3593      0.0000
 11      0.0000      1.7648      1.0765      0.0000      1.6650      0.0000      4.2814      0.0000      0.0000
 12      0.0000      1.6395      3.7536      0.4861      2.8481      0.0000      0.0000      2.4592      2.4810
 13     19.2590     11.4188     16.5082     11.3877     20.6274     11.5584     11.3665     11.0220     13.8037
 14      6.6310      3.3278      3.6943      5.0395      1.5336      6.1168      6.6630      1.9982      6.4693
 15      6.7023      2.4163      0.0000      2.9331      1.8192      3.4203      0.8543      2.7507      3.5782
 16      0.5953      0.1566      0.0000      0.0000      0.4234      0.0000      0.0000      0.1388      0.7912
 17      3.3213      0.4074      0.5005      2.1373      1.0060      0.0000      0.8657      2.3913      0.7653
 18      0.0000      0.4142      1.5645      0.0000      0.2221      0.0000      0.1437      0.3790      0.4486
 19      0.0000      0.6418      0.0000      0.5663      2.0350      0.0000      0.0000      3.0161      0.2916
 20      0.0000      0.3588      0.0000      0.0000      2.6097      0.6369      0.0000      0.0000      0.0000
 21      0.0000      0.8633      2.4291      0.0000      0.0000      0.0000      0.0000      0.0593      0.5875
 22      0.0000      0.3143      0.0000      0.0000      0.0000      1.8469      0.0000      0.0000      0.0000
 23      3.6827      0.4843      0.0000      0.0000      1.4342      0.8859      0.0000      0.0000      0.9597
 24      0.0000      2.7436      2.6145      1.0986      2.1656      6.2129      3.9553      9.0998      0.0000
 25      8.8942      2.6413      3.3022      7.9320      3.1276      0.5194      3.7044      6.6736      8.5855
 26      0.0000      0.8354      1.1097      3.2692      0.0000      0.4817      0.0616      2.3182      0.0000
 27      0.0000      1.8829      0.8991      0.8026      0.0000      0.0000      4.6086      0.0000      0.4623
 28      0.0000      4.8111      4.5753      4.3246      2.8621      5.1987      0.9288     15.8407      1.7485
 29     17.6314      9.0927      8.7485     10.0515     12.6544      8.9527     12.9915      8.6684     10.5454
 30      0.0000      0.3836      0.0000      0.9551      0.0000      1.4647      0.0000      0.0000      0.0000
 31      0.0000      0.4300      0.0000      0.0036      0.0000      0.0000      0.0000      0.0000      0.3929
 32      0.0000      0.7556      2.0227      0.0000      1.1051      0.0000      0.6693      2.1757      0.0000
 33      0.0000      0.1449      0.0000      0.0000      0.0000      0.6344      0.0000      0.0000      0.0000
 34      0.0000      0.0333      0.0000      0.0000      0.0000      0.0000      0.0000      0.0000      0.0000
 35      0.0000      0.3428      0.0000      0.0000      0.0514      0.0000      0.0000      0.0000      0.0000
 36      0.0000      0.7345      0.0000      0.0000      0.8112      2.8557      0.0209      0.0000      0.0000
 37      3.4060      0.6407      0.4698      1.3431      0.0000      1.1226      0.2156      0.0000      2.8666
 38      0.0000      3.0477      2.3201      4.6380      1.6670      0.8117      4.2276      2.4161      0.0000
 39      0.0000      0.6907      0.0000      0.7715      2.8810      3.3598      0.0000      0.0000      0.1912
 40      1.8820      2.6549      1.3543      2.4171      0.0000      0.0000      2.9179      1.8117      2.7595
 41      0.0000      1.0516      1.0244      0.6540      0.5762      2.0912      1.6034      0.0000      0.0000
 42      0.0000      1.6354      2.2659      0.0000      0.0000      2.4715      0.0000      0.0000      3.0221
 43      0.7832      1.5045      0.8448      0.0000      0.0000      1.1231      0.9484      1.6920      3.3654
 44      0.0132      3.1591      3.0583      3.7236      6.5585      7.2500      3.3838      4.5683      2.6773
 45      0.0000      3.6093      0.6758      3.0382      0.1312      0.0000      0.0000      0.0000      0.0000
 46      0.0000      6.2276     10.4641      6.8398      5.4855      8.3236      7.3347      2.7659     10.3139
