###################################################################
## OUTPUT of StarlightChains_v04.for    [Cid@UFSC - 01/Apr/2007] ##
###################################################################

## Some input info
1997cx.txt                               [arq_obs]
Base.CB07.vall.4m                        [arq_base]
Masks.EmLines.NEW.gm                     [arq_masks]
StCv04.C11.config                        [arq_config]
   66                                    [N_base]
    0                                    [N_YAV_components = # of components with extra extinction!]
    0                                    [i_FitPowerLaw (1/0 = Yes/No)]
-9.99                                    [alpha_PowerLaw]
CCM                                      [red_law_option]
 1.458241                                [q_norm = A(l_norm)/A(V)]

## (Re)Sampling Parameters
 3741.00                                 [l_ini (A)]
 7218.00                                 [l_fin (A)]
    1.00                                 [dl    (A)]     (OBS: dl_cushion =    50.00 A)

## Normalization info
 4020.00                                 [l_norm (A) - for base]
 4010.00                                 [llow_norm (A) - window for f_obs]
 4060.00                                 [lupp_norm (A) - window for f_obs]
4.878263E-16                             [fobs_norm (in input units)]

## S/N
 3691.00                                 [llow_SN (A) - window for S/N]
 7268.00                                 [lupp_SN (A) - window for S/N]
   2.998                                 [S/N in S/N window]
   4.942                                 [S/N in norm. window]
   5.581                                 [S/N_err in S/N window]
   9.201                                 [S/N_err in norm. window]
  1.0000                                 [fscale_chi2]

## etc...
    -2007227                             [idum_orig]
  2397                                   [NOl_eff]
  2397                                   [Nl_eff]
     0    NSIGMA                         [Ntot_cliped & clip_method]
   698670                                [Nglobal_steps]
   7                                     [N_chains]
  14                                     [NEX0s_base = N_base in EX0s-fits]
 0   0   1       59   2.0   1.863E+01    [Clip-Bug, RC-Crash & Burn-In warning-flags, n_censored_weights, wei_nsig_threshold & wei_limit]
    10      9.353      8.775      0.578  [idt_all, wdt_TotTime, wdt_UsrTime & wdt_SysTime (sec)]

## Synthesis Results - Best model ##

 1.47205E-01                             [chi2/Nl_eff]
     4.96858                             [adev (%)]

    97.90451                             [sum-of-x (%)]
 6.68107E-16                             [Flux_tot (units of input spectrum!)]
 3.32954E-13                             [Mini_tot (???)]
 2.17557E-13                             [Mcor_tot (???)]

  -9.26                                  [v0_min  (km/s)]
 150.00                                  [vd_min  (km/s)]
 0.2499                                  [AV_min  (mag)]
 0.0000                                  [YAV_min (mag)]

# j     x_j(%)      Mini_j(%)     Mcor_j(%)     age_j(yr)     Z_j      (L/M)_j    YAV?  Mstars   component_j        a/Fe...       SSP_chi2r SSP_adev(%)   SSP_AV   SSP_x(%)
  1      6.3719     1.1937E+00    1.8269E+00    1.000000E+06  0.00400  1.094E-02    0   1.0000   age020_m42            0.0000     2.8403E-01     7.2077   1.6297    87.7528
  2      0.0000     0.0000E+00    0.0000E+00    3.160000E+06  0.00400  4.007E-02    0   0.9999   age045_m42            0.0000     2.7132E-01     7.1400   0.9465    91.9596
  3      0.0000     0.0000E+00    0.0000E+00    5.010000E+06  0.00400  2.539E-02    0   0.9488   age055_m42            0.0000     2.7079E-01     7.0467   1.2483    90.4803
  4      0.0000     0.0000E+00    0.0000E+00    6.610000E+06  0.00400  2.620E-02    0   0.9220   age061_m42            0.0000     2.6433E-01     6.9663   0.8751    92.0956
  5      0.0000     0.0000E+00    0.0000E+00    1.000000E+07  0.00400  1.322E-02    0   0.8862   age070_m42            0.0000     1.9951E-01     5.8596   0.5797    94.7441
  6      0.0000     0.0000E+00    0.0000E+00    1.445000E+07  0.00400  7.883E-03    0   0.8571   age078_m42            0.0000     2.0842E-01     5.9779   0.8983    92.6840
  7      0.0000     0.0000E+00    0.0000E+00    2.512000E+07  0.00400  5.251E-03    0   0.8174   age090_m42            0.0000     1.9345E-01     5.7347   0.4508    95.2333
  8      0.0000     0.0000E+00    0.0000E+00    4.000000E+07  0.00400  3.649E-03    0   0.7851   age104_m42            0.0000     1.9875E-01     5.8351   0.2305    95.7094
  9      0.0000     0.0000E+00    0.0000E+00    5.500000E+07  0.00400  3.098E-03    0   0.7629   age110_m42            0.0000     2.3020E-01     6.3495   0.3986    95.0333
 10      0.0000     0.0000E+00    0.0000E+00    1.015200E+08  0.00400  2.228E-03    0   0.7207   age116_m42            0.0000     2.5394E-01     6.6976   0.4290    94.7567
 11      0.0000     0.0000E+00    0.0000E+00    2.861200E+08  0.00400  1.093E-03    0   0.6648   age125_m42            0.0000     2.4232E-01     6.4747  -0.1360    97.4835
 12      0.0000     0.0000E+00    0.0000E+00    5.088000E+08  0.00400  6.597E-04    0   0.6365   age130_m42            0.0000     2.7758E-01     6.9403  -0.1327    97.6833
 13      0.0000     0.0000E+00    0.0000E+00    1.434000E+09  0.00400  2.132E-04    0   0.5798   age139_m42            0.0000     3.0821E-01     7.1966  -1.0000    95.9098
 14      0.0000     0.0000E+00    0.0000E+00    4.250000E+09  0.00400  5.895E-05    0   0.5377   age158_m42            0.0000     7.4284E-01    11.4221  -1.0000    77.5599
 15      0.0000     0.0000E+00    0.0000E+00    7.500000E+09  0.00400  3.510E-05    0   0.5212   age171_m42            0.0000     1.0672E+00    13.7589  -1.0000    71.1014
 16      0.0000     0.0000E+00    0.0000E+00    1.300000E+10  0.00400  2.005E-05    0   0.5034   age193_m42            0.0000     1.4051E+00    15.7866  -1.0000    65.7398
 17      0.0000     0.0000E+00    0.0000E+00    1.800000E+10  0.00400  1.525E-05    0   0.4967   age213_m42            0.0000     1.4509E+00    16.0690  -1.0000    64.7615
 18      5.3581     8.8705E-01    1.3576E+00    1.000000E+06  0.00800  1.238E-02    0   1.0000   age020_m52            0.0000     2.8516E-01     7.2105   1.6261    87.9267
 19      0.0000     0.0000E+00    0.0000E+00    3.160000E+06  0.00800  3.074E-02    0   0.9966   age045_m52            0.0000     2.8652E-01     7.2331   1.5535    88.5459
 20      0.0000     0.0000E+00    0.0000E+00    5.010000E+06  0.00800  2.668E-02    0   0.9443   age055_m52            0.0000     2.6900E-01     6.9947   1.3251    89.9178
 21     14.6058     1.4015E+00    1.9683E+00    6.610000E+06  0.00800  2.136E-02    0   0.9177   age061_m52            0.0000     1.8658E-01     5.6796   0.0697    96.3114
 22      0.0000     0.0000E+00    0.0000E+00    1.000000E+07  0.00800  1.215E-02    0   0.8827   age070_m52            0.0000     1.8716E-01     5.6271   0.7495    94.9691
 23      0.0000     0.0000E+00    0.0000E+00    1.445000E+07  0.00800  8.717E-03    0   0.8552   age078_m52            0.0000     2.0357E-01     5.9059   0.8660    93.8763
 24      0.0000     0.0000E+00    0.0000E+00    2.512000E+07  0.00800  5.592E-03    0   0.8162   age090_m52            0.0000     1.9242E-01     5.7088   0.5171    96.2589
 25      0.0000     0.0000E+00    0.0000E+00    4.000000E+07  0.00800  3.896E-03    0   0.7841   age104_m52            0.0000     2.0629E-01     5.9371   0.4409    96.4791
 26      0.0000     0.0000E+00    0.0000E+00    1.015200E+08  0.00800  2.148E-03    0   0.7226   age116_m52            0.0000     2.3514E-01     6.3778   0.3918    95.7506
 27      0.0000     0.0000E+00    0.0000E+00    2.861200E+08  0.00800  9.925E-04    0   0.6683   age125_m52            0.0000     2.7705E-01     6.8889  -0.0655    98.4896
 28      0.0000     0.0000E+00    0.0000E+00    9.047900E+08  0.00800  3.141E-04    0   0.6138   age135_m52            0.0000     3.5102E-01     7.7833  -0.8398   101.4710
 29      0.0000     0.0000E+00    0.0000E+00    1.434000E+09  0.00800  1.719E-04    0   0.5853   age139_m52            0.0000     6.0322E-01    10.2246  -1.0000    84.7567
 30      0.0000     0.0000E+00    0.0000E+00    2.500000E+09  0.00800  7.872E-05    0   0.5600   age150_m52            0.0000     1.0370E+00    13.5395  -1.0000    73.7109
 31      0.0000     0.0000E+00    0.0000E+00    4.250000E+09  0.00800  4.336E-05    0   0.5426   age158_m52            0.0000     1.0739E+00    13.7091  -1.0000    72.5382
 32      0.0000     0.0000E+00    0.0000E+00    6.250000E+09  0.00800  3.159E-05    0   0.5319   age166_m52            0.0000     1.4862E+00    16.1403  -1.0000    66.3263
 33      0.0000     0.0000E+00    0.0000E+00    1.300000E+10  0.00800  1.361E-05    0   0.5073   age193_m52            0.0000     2.6042E+00    21.5091  -1.0000    52.8915
 34      0.0000     0.0000E+00    0.0000E+00    1.800000E+10  0.00800  9.886E-06    0   0.4990   age213_m52            0.0000     2.8926E+00    22.5663  -1.0000    49.9866
 35      3.8974     5.1735E-01    7.9177E-01    1.000000E+06  0.02000  1.544E-02    0   1.0000   age020_m62            0.0000     2.8589E-01     7.2139   1.6207    88.1926
 36      0.0069     3.7343E-04    5.6340E-04    3.160000E+06  0.02000  3.762E-02    0   0.9858   age045_m62            0.0000     2.8792E-01     7.2327   1.5603    88.9434
 37      0.0000     0.0000E+00    0.0000E+00    5.010000E+06  0.02000  3.296E-02    0   0.9342   age055_m62            0.0000     2.7919E-01     7.1966   1.2173    91.2217
 38     51.7252     9.1866E+00    1.2458E+01    8.710000E+06  0.02000  1.154E-02    0   0.8861   age067_m62            0.0000     1.6590E-01     5.3565   0.1611    99.6548
 39      0.0000     0.0000E+00    0.0000E+00    1.445000E+07  0.02000  7.663E-03    0   0.8472   age078_m62            0.0000     1.6546E-01     5.2888   0.3873    97.5992
 40      0.0000     0.0000E+00    0.0000E+00    2.512000E+07  0.02000  4.532E-03    0   0.8099   age090_m62            0.0000     1.7370E-01     5.4075   0.3833    97.1767
 41      0.0000     0.0000E+00    0.0000E+00    5.500000E+07  0.02000  2.733E-03    0   0.7595   age110_m62            0.0000     2.0338E-01     5.8702   0.4187    96.0302
 42      0.0000     0.0000E+00    0.0000E+00    1.609000E+08  0.02000  1.369E-03    0   0.6985   age120_m62            0.0000     2.5463E-01     6.5842   0.2856    97.3763
 43      0.0000     0.0000E+00    0.0000E+00    2.861200E+08  0.02000  9.013E-04    0   0.6714   age125_m62            0.0000     2.9347E-01     7.0289   0.0515    99.4004
 44      0.0000     0.0000E+00    0.0000E+00    5.088000E+08  0.02000  5.028E-04    0   0.6449   age130_m62            0.0000     3.6111E-01     7.9110  -0.3038   100.9834
 45      0.0000     0.0000E+00    0.0000E+00    9.047900E+08  0.02000  2.428E-04    0   0.6179   age135_m62            0.0000     3.8588E-01     8.2955  -0.8921   100.5863
 46      0.0000     0.0000E+00    0.0000E+00    1.434000E+09  0.02000  1.263E-04    0   0.5908   age139_m62            0.0000     5.7181E-01     9.7615  -1.0000    87.3676
 47      0.0000     0.0000E+00    0.0000E+00    2.500000E+09  0.02000  5.985E-05    0   0.5673   age150_m62            0.0000     1.1100E+00    13.8420  -1.0000    74.0063
 48      0.0000     0.0000E+00    0.0000E+00    4.250000E+09  0.02000  3.271E-05    0   0.5468   age158_m62            0.0000     1.7430E+00    17.3994  -1.0000    64.0646
 49      0.0000     0.0000E+00    0.0000E+00    1.000000E+10  0.02000  1.360E-05    0   0.5167   age181_m62            0.0000     2.5912E+00    21.2006  -1.0000    54.2052
 50      0.0000     0.0000E+00    0.0000E+00    1.800000E+10  0.02000  7.124E-06    0   0.5013   age213_m62            0.0000     3.1434E+00    23.3052  -1.0000    48.6107
 51      8.8978     7.0357E-01    1.0765E+00    1.000000E+06  0.05000  2.592E-02    0   0.9998   age020_m72            0.0000     2.8661E-01     7.2004   1.6077    88.4029
 52      0.0000     0.0000E+00    0.0000E+00    3.160000E+06  0.05000  4.845E-02    0   0.9577   age045_m72            0.0000     2.9313E-01     7.3294   1.4580    89.5085
 53      0.0000     0.0000E+00    0.0000E+00    5.010000E+06  0.05000  3.072E-02    0   0.9147   age055_m72            0.0000     2.0094E-01     5.8932   0.9737    93.8811
 54      0.0000     0.0000E+00    0.0000E+00    6.610000E+06  0.05000  1.455E-02    0   0.8877   age061_m72            0.0000     2.6850E-01     6.8072   0.2013   101.0919
 55      0.0000     0.0000E+00    0.0000E+00    1.000000E+07  0.05000  9.074E-03    0   0.8524   age070_m72            0.0000     2.3538E-01     6.4851   1.1642    93.4440
 56      0.0000     0.0000E+00    0.0000E+00    2.512000E+07  0.05000  4.250E-03    0   0.7902   age090_m72            0.0000     2.1953E-01     6.2051   0.8774    94.4794
 57      0.0000     0.0000E+00    0.0000E+00    4.000000E+07  0.05000  3.087E-03    0   0.7618   age104_m72            0.0000     2.2014E-01     6.2065   0.6546    95.8232
 58      0.0000     0.0000E+00    0.0000E+00    1.015200E+08  0.05000  1.700E-03    0   0.7096   age116_m72            0.0000     2.4156E-01     6.4075   0.4211    97.2826
 59      0.0000     0.0000E+00    0.0000E+00    2.861200E+08  0.05000  7.384E-04    0   0.6633   age125_m72            0.0000     3.2990E-01     7.4866  -0.0677   100.1512
 60      0.0000     0.0000E+00    0.0000E+00    5.088000E+08  0.05000  3.819E-04    0   0.6372   age130_m72            0.0000     3.8253E-01     8.2691  -0.5515   101.3908
 61      7.0415     8.6110E+01    8.0520E+01    9.047900E+08  0.05000  1.676E-04    0   0.6110   age135_m72            0.0000     5.6786E-01     9.7827  -1.0000    90.9196
 62      0.0000     0.0000E+00    0.0000E+00    1.434000E+09  0.05000  8.837E-05    0   0.5874   age139_m72            0.0000     1.1333E+00    13.9535  -1.0000    75.0573
 63      0.0000     0.0000E+00    0.0000E+00    2.500000E+09  0.05000  4.233E-05    0   0.5598   age150_m72            0.0000     1.7677E+00    17.4599  -1.0000    64.6075
 64      0.0000     0.0000E+00    0.0000E+00    6.250000E+09  0.05000  1.435E-05    0   0.5249   age166_m72            0.0000     2.8445E+00    22.2459  -1.0000    51.5324
 65      0.0000     0.0000E+00    0.0000E+00    1.300000E+10  0.05000  6.513E-06    0   0.5036   age193_m72            0.0000     3.5976E+00    24.9755  -1.0000    45.3723
 66      0.0000     0.0000E+00    0.0000E+00    1.800000E+10  0.05000  4.527E-06    0   0.4945   age213_m72            0.0000     4.0418E+00    26.4438  -1.0000    41.8034


## Synthesis Results - Average & Chains ##

# j      x_j: min, <> & last-chain-values for 1 ...  7 chains
  1      6.3719      1.9868      3.3139      6.9347      1.9000     11.5338      3.8319      3.8270      1.0055
  2      0.0000      0.6446      0.0000      1.4360      0.0000      1.5705      0.0000      0.0000      0.0000
  3      0.0000      0.6060      1.0682      0.0000      0.0000      0.0000      0.2288      0.0000      0.0000
  4      0.0000      0.4094      0.0000      0.0000      0.0000      0.0000      0.0000      0.0000      4.8948
  5      0.0000      1.5544      0.0000      0.0000      2.4296      0.0000      0.0000      0.0000      0.0000
  6      0.0000      0.8621      3.1593      0.0000      0.0000      0.0000      0.0000      0.0000      0.3357
  7      0.0000      1.3665      0.0000      0.0000      0.0000      0.0000      0.0000      0.0000      0.0000
  8      0.0000      1.1811      0.0000      0.0000      0.0000      3.7446      0.0000      0.0000      0.0000
  9      0.0000      0.6779      0.0000      0.0000      0.0000      0.0000      2.7716      0.0574      0.0000
 10      0.0000      0.5420      0.0000      0.0000      0.0000      0.0000      0.0000      0.0000      0.0000
 11      0.0000      0.3046      0.0000      0.0000      0.0000      0.0000      0.0000      0.0000      0.0000
 12      0.0000      0.3919      0.0000      0.0000      0.0000      0.0000      0.0000      0.0000      0.0000
 13      0.0000      0.1832      2.2766      0.0000      0.0900      0.0000      0.0000      0.0000      0.0000
 14      0.0000      0.0649      0.0000      0.0000      0.8686      0.0000      0.0000      0.0000      0.0000
 15      0.0000      0.0807      0.0000      0.0000      0.0000      0.0000      0.0000      0.0000      0.5592
 16      0.0000      0.0482      0.0000      0.0000      0.0000      0.0000      0.0000      0.0000      0.0000
 17      0.0000      0.0764      0.0000      0.0000      0.0000      0.0000      0.0000      0.0000      0.0000
 18      5.3581      1.7480      8.2581      8.1552      0.3600      5.0152      0.0000      3.6172      0.7237
 19      0.0000      0.7861      4.1844      1.7460      5.3504      0.0000      0.0000      0.2983      1.0424
 20      0.0000      0.4508      0.0000      0.0000      0.9278      0.3555      3.7818      0.0000      0.1275
 21     14.6058     15.3325      8.9192     11.8144     13.5328      3.6473     20.7427     20.6426     18.8723
 22      0.0000      1.5832      2.7752      0.0000      1.1317      0.0000      0.0000      1.8711      4.0485
 23      0.0000      1.2988      0.0000      1.2673      0.0000      0.7641      0.0000      2.5342      0.0000
 24      0.0000      1.2280      0.0000      0.0000      0.0000      0.0000      0.6846      0.0000      0.0000
 25      0.0000      0.8949      0.0000      0.0000      0.0175      0.0000      0.0000      0.0000      0.6462
 26      0.0000      0.5727      0.6049      0.0000      0.0000      0.0000      0.0000      0.0000      0.0000
 27      0.0000      0.5073      0.0000      0.0000      0.0000      0.0000      0.0000      0.0000      0.0000
 28      0.0000      0.1403      0.0000      0.0000      0.0000      0.5982      0.0000      0.0000      0.0000
 29      0.0000      0.0468      0.0000      0.0000      0.0000      0.0000      0.0000      0.0000      0.0000
 30      0.0000      0.0857      1.1734      0.0000      0.0000      0.0000      0.0000      0.0000      0.2771
 31      0.0000      0.0260      0.0000      0.0000      0.2926      0.0000      0.0000      0.0000      0.0000
 32      0.0000      0.0257      0.0000      0.0000      0.9045      0.0894      0.0000      0.0000      0.0215
 33      0.0000      0.1212      1.9002      0.0000      0.0000      0.0000      0.0000      0.0000      0.0000
 34      0.0000      0.0247      0.0000      0.0000      0.0000      0.0000      0.0000      0.0000      0.0000
 35      3.8974      1.1337      0.1606      1.6178     10.8961      0.0000      5.2616      0.0000      2.6027
 36      0.0069      0.7916      0.0000      0.9849      0.6232      0.0000      0.0000      0.0000      0.0000
 37      0.0000      0.4592      4.3775      0.0000      0.0000      0.0000      0.0788      0.0000      2.3004
 38     51.7252     40.5250     45.2825     44.5416     47.9425     54.4907     51.2026     55.6537     52.9112
 39      0.0000      3.9719      3.4524      0.0000      0.0000      0.0000      0.0000      0.0000      0.0000
 40      0.0000      2.6109      0.0000      0.0000      2.0333      0.0000      0.0000      0.0000      0.6008
 41      0.0000      1.0470      2.6202      0.0000      0.0000      0.0000      0.0000      0.4188      0.0000
 42      0.0000      0.3755      0.0000      0.0000      0.0000      0.0000      0.0000      0.7575      0.0000
 43      0.0000      0.2622      0.0000      0.0000      0.0000      0.0000      0.0000      0.0000      0.0000
 44      0.0000      0.2568      0.0000      0.0000      0.0000      0.4164      0.0000      0.0000      0.0000
 45      0.0000      0.5040      0.0000      4.9220      0.0000      0.0000      1.1231      0.0000      1.5889
 46      0.0000      0.1159      0.0000      0.0000      0.0000      1.7219      0.0000      0.8142      0.0000
