###################################################################
## OUTPUT of StarlightChains_v04.for    [Cid@UFSC - 01/Apr/2007] ##
###################################################################

## Some input info
1998dk.txt                               [arq_obs]
Base.CB07.vall.4m                        [arq_base]
Masks.EmLines.NEW.gm                     [arq_masks]
StCv04.C11.config                        [arq_config]
   66                                    [N_base]
    0                                    [N_YAV_components = # of components with extra extinction!]
    0                                    [i_FitPowerLaw (1/0 = Yes/No)]
-9.99                                    [alpha_PowerLaw]
CCM                                      [red_law_option]
 1.458241                                [q_norm = A(l_norm)/A(V)]

## (Re)Sampling Parameters
 3741.00                                 [l_ini (A)]
 7218.00                                 [l_fin (A)]
    1.00                                 [dl    (A)]     (OBS: dl_cushion =    50.00 A)

## Normalization info
 4020.00                                 [l_norm (A) - for base]
 4010.00                                 [llow_norm (A) - window for f_obs]
 4060.00                                 [lupp_norm (A) - window for f_obs]
2.299987E-16                             [fobs_norm (in input units)]

## S/N
 3691.00                                 [llow_SN (A) - window for S/N]
 7268.00                                 [lupp_SN (A) - window for S/N]
  10.269                                 [S/N in S/N window]
  11.551                                 [S/N in norm. window]
  20.060                                 [S/N_err in S/N window]
  22.565                                 [S/N_err in norm. window]
  1.0000                                 [fscale_chi2]

## etc...
    -2007232                             [idum_orig]
  2383                                   [NOl_eff]
  2374                                   [Nl_eff]
     9    NSIGMA                         [Ntot_cliped & clip_method]
  2087050                                [Nglobal_steps]
   7                                     [N_chains]
  28                                     [NEX0s_base = N_base in EX0s-fits]
 0   0   1        6   2.0   5.741E+01    [Clip-Bug, RC-Crash & Burn-In warning-flags, n_censored_weights, wei_nsig_threshold & wei_limit]
    19     19.186     18.683      0.504  [idt_all, wdt_TotTime, wdt_UsrTime & wdt_SysTime (sec)]

## Synthesis Results - Best model ##

 4.87617E-01                             [chi2/Nl_eff]
     2.40141                             [adev (%)]

   105.67471                             [sum-of-x (%)]
 5.81945E-16                             [Flux_tot (units of input spectrum!)]
 3.01235E-12                             [Mini_tot (???)]
 1.65648E-12                             [Mcor_tot (???)]

 -87.59                                  [v0_min  (km/s)]
 150.92                                  [vd_min  (km/s)]
 0.6501                                  [AV_min  (mag)]
 0.0000                                  [YAV_min (mag)]

# j     x_j(%)      Mini_j(%)     Mcor_j(%)     age_j(yr)     Z_j      (L/M)_j    YAV?  Mstars   component_j        a/Fe...       SSP_chi2r SSP_adev(%)   SSP_AV   SSP_x(%)
  1      7.2723     1.2152E-01    2.2099E-01    1.000000E+06  0.00400  1.094E-02    0   1.0000   age020_m42            0.0000     2.1177E+00     5.1461   2.8552    86.6273
  2      0.0065     2.9863E-05    5.4300E-05    3.160000E+06  0.00400  4.007E-02    0   0.9999   age045_m42            0.0000     1.6109E+00     4.2643   2.1116    93.5685
  3      0.0000     0.0000E+00    0.0000E+00    5.010000E+06  0.00400  2.539E-02    0   0.9488   age055_m42            0.0000     1.7217E+00     4.4914   2.4346    91.0679
  4      0.0000     0.0000E+00    0.0000E+00    6.610000E+06  0.00400  2.620E-02    0   0.9220   age061_m42            0.0000     1.4527E+00     4.0682   2.0267    94.3373
  5      0.0075     1.0385E-04    1.6736E-04    1.000000E+07  0.00400  1.322E-02    0   0.8862   age070_m42            0.0000     8.9923E-01     3.1953   1.6667   100.2490
  6      0.1983     4.5998E-03    7.1695E-03    1.445000E+07  0.00400  7.883E-03    0   0.8571   age078_m42            0.0000     1.0781E+00     3.4555   2.0089    96.9373
  7      0.5219     1.8171E-02    2.7011E-02    2.512000E+07  0.00400  5.251E-03    0   0.8174   age090_m42            0.0000     8.4235E-01     3.1744   1.5188   101.7423
  8      0.6418     3.2152E-02    4.5904E-02    4.000000E+07  0.00400  3.649E-03    0   0.7851   age104_m42            0.0000     7.7659E-01     3.0823   1.2958   102.3690
  9      0.0000     0.0000E+00    0.0000E+00    5.500000E+07  0.00400  3.098E-03    0   0.7629   age110_m42            0.0000     9.1989E-01     3.2388   1.4826   100.7027
 10      0.0010     8.0688E-05    1.0575E-04    1.015200E+08  0.00400  2.228E-03    0   0.7207   age116_m42            0.0000     1.0683E+00     3.5148   1.5233    99.8902
 11      0.0000     0.0000E+00    0.0000E+00    2.861200E+08  0.00400  1.093E-03    0   0.6648   age125_m42            0.0000     9.9662E-01     3.6216   0.9308   104.3596
 12      0.0000     0.0000E+00    0.0000E+00    5.088000E+08  0.00400  6.597E-04    0   0.6365   age130_m42            0.0000     1.1121E+00     3.7829   0.9555   103.3932
 13      0.0005     4.2183E-04    4.4477E-04    1.434000E+09  0.00400  2.132E-04    0   0.5798   age139_m42            0.0000     9.0574E-01     3.4171   0.0003   104.4845
 14      1.4926     4.6289E+00    4.5262E+00    4.250000E+09  0.00400  5.895E-05    0   0.5377   age158_m42            0.0000     1.1332E+00     4.3268  -0.3647    96.6922
 15      0.9034     4.7050E+00    4.4594E+00    7.500000E+09  0.00400  3.510E-05    0   0.5212   age171_m42            0.0000     1.3553E+00     4.8788  -0.5202    94.5886
 16      2.8463     2.5952E+01    2.3758E+01    1.300000E+10  0.00400  2.005E-05    0   0.5034   age193_m42            0.0000     1.6185E+00     5.4256  -0.6544    92.7375
 17      0.0000     0.0000E+00    0.0000E+00    1.800000E+10  0.00400  1.525E-05    0   0.4967   age213_m42            0.0000     1.5834E+00     5.3426  -0.6843    92.6090
 18      2.9793     4.3994E-02    8.0004E-02    1.000000E+06  0.00800  1.238E-02    0   1.0000   age020_m52            0.0000     2.1111E+00     5.1548   2.8521    86.7712
 19      1.3184     7.8404E-03    1.4209E-02    3.160000E+06  0.00800  3.074E-02    0   0.9966   age045_m52            0.0000     2.0580E+00     5.0861   2.7753    87.5334
 20      0.0000     0.0000E+00    0.0000E+00    5.010000E+06  0.00800  2.668E-02    0   0.9443   age055_m52            0.0000     1.6997E+00     4.5180   2.5150    90.3143
 21     15.6831     1.3423E-01    2.2400E-01    6.610000E+06  0.00800  2.136E-02    0   0.9177   age061_m52            0.0000     6.9660E-01     2.8706   1.1825   100.4827
 22      0.0000     0.0000E+00    0.0000E+00    1.000000E+07  0.00800  1.215E-02    0   0.8827   age070_m52            0.0000     9.0301E-01     3.3028   1.8293   100.9204
 23      0.0000     0.0000E+00    0.0000E+00    1.445000E+07  0.00800  8.717E-03    0   0.8552   age078_m52            0.0000     9.7245E-01     3.3132   1.9682    98.5772
 24      1.5612     5.1039E-02    7.5757E-02    2.512000E+07  0.00800  5.592E-03    0   0.8162   age090_m52            0.0000     7.8198E-01     3.1772   1.5767   103.3051
 25      0.0000     0.0000E+00    0.0000E+00    4.000000E+07  0.00800  3.896E-03    0   0.7841   age104_m52            0.0000     7.6543E-01     3.1440   1.5041   103.3901
 26      0.0000     0.0000E+00    0.0000E+00    1.015200E+08  0.00800  2.148E-03    0   0.7226   age116_m52            0.0000     8.8239E-01     3.2447   1.4758   101.5017
 27      0.0000     0.0000E+00    0.0000E+00    2.861200E+08  0.00800  9.925E-04    0   0.6683   age125_m52            0.0000     9.8564E-01     3.6090   1.0168   104.5549
 28      2.0616     1.1999E+00    1.3393E+00    9.047900E+08  0.00800  3.141E-04    0   0.6138   age135_m52            0.0000     1.1246E+00     4.0263   0.2754   105.9446
 29      0.0000     0.0000E+00    0.0000E+00    1.434000E+09  0.00800  1.719E-04    0   0.5853   age139_m52            0.0000     1.2054E+00     4.2960  -0.2853   102.7448
 30      0.0000     0.0000E+00    0.0000E+00    2.500000E+09  0.00800  7.872E-05    0   0.5600   age150_m52            0.0000     1.5584E+00     5.2555  -0.4846    96.5616
 31      1.4928     6.2941E+00    6.2105E+00    4.250000E+09  0.00800  4.336E-05    0   0.5426   age158_m52            0.0000     1.5634E+00     5.3067  -0.4937    95.3620
 32      0.0000     0.0000E+00    0.0000E+00    6.250000E+09  0.00800  3.159E-05    0   0.5319   age166_m52            0.0000     2.0055E+00     6.1187  -0.6548    93.5180
 33      0.6349     8.5276E+00    7.8670E+00    1.300000E+10  0.00800  1.361E-05    0   0.5073   age193_m52            0.0000     2.7715E+00     7.5629  -1.0000    87.8059
 34      0.0000     0.0000E+00    0.0000E+00    1.800000E+10  0.00800  9.886E-06    0   0.4990   age213_m52            0.0000     3.5179E+00     8.7407  -1.0000    83.1673
 35      4.1098     4.8661E-02    8.8490E-02    1.000000E+06  0.02000  1.544E-02    0   1.0000   age020_m62            0.0000     2.1294E+00     5.1977   2.8493    86.9198
 36      2.3787     1.1559E-02    2.0722E-02    3.160000E+06  0.02000  3.762E-02    0   0.9858   age045_m62            0.0000     2.1227E+00     5.1993   2.7909    87.5698
 37      0.0000     0.0000E+00    0.0000E+00    5.010000E+06  0.02000  3.296E-02    0   0.9342   age055_m62            0.0000     1.6755E+00     4.4887   2.3999    91.9700
 38     17.5326     2.7775E-01    4.4756E-01    8.710000E+06  0.02000  1.154E-02    0   0.8861   age067_m62            0.0000     1.9709E+00     5.6902   1.1478   111.2385
 39      0.0000     0.0000E+00    0.0000E+00    1.445000E+07  0.02000  7.663E-03    0   0.8472   age078_m62            0.0000     9.4431E-01     3.7174   1.4369   105.4395
 40      0.0000     0.0000E+00    0.0000E+00    2.512000E+07  0.02000  4.532E-03    0   0.8099   age090_m62            0.0000     1.0448E+00     3.9590   1.4191   105.7642
 41      0.0000     0.0000E+00    0.0000E+00    5.500000E+07  0.02000  2.733E-03    0   0.7595   age110_m62            0.0000     7.5125E-01     3.1206   1.4894   102.4734
 42      0.0000     0.0000E+00    0.0000E+00    1.609000E+08  0.02000  1.369E-03    0   0.6985   age120_m62            0.0000     9.3643E-01     3.4376   1.3615   103.6187
 43      0.0000     0.0000E+00    0.0000E+00    2.861200E+08  0.02000  9.013E-04    0   0.6714   age125_m62            0.0000     1.0746E+00     3.7250   1.1241   105.9048
 44      0.0000     0.0000E+00    0.0000E+00    5.088000E+08  0.02000  5.028E-04    0   0.6449   age130_m62            0.0000     1.3275E+00     4.1919   0.8039   105.7285
 45      0.9344     7.0352E-01    7.9052E-01    9.047900E+08  0.02000  2.428E-04    0   0.6179   age135_m62            0.0000     1.2610E+00     4.4498   0.2636   102.7984
 46      0.0218     3.1552E-02    3.3899E-02    1.434000E+09  0.02000  1.263E-04    0   0.5908   age139_m62            0.0000     1.4172E+00     4.9018  -0.1537    99.9061
 47      0.0000     0.0000E+00    0.0000E+00    2.500000E+09  0.02000  5.985E-05    0   0.5673   age150_m62            0.0000     1.9533E+00     6.0255  -0.4582    95.6148
 48      1.5565     8.6990E+00    8.6500E+00    4.250000E+09  0.02000  3.271E-05    0   0.5468   age158_m62            0.0000     2.7310E+00     7.2866  -0.7027    92.0843
 49      0.9992     1.3431E+01    1.2621E+01    1.000000E+10  0.02000  1.360E-05    0   0.5167   age181_m62            0.0000     3.7916E+00     8.6810  -0.9818    88.7960
 50      0.0000     0.0000E+00    0.0000E+00    1.800000E+10  0.02000  7.124E-06    0   0.5013   age213_m62            0.0000     4.8985E+00    10.3286  -1.0000    80.7846
 51      0.0000     0.0000E+00    0.0000E+00    1.000000E+06  0.05000  2.592E-02    0   0.9998   age020_m72            0.0000     2.1671E+00     5.2846   2.8389    87.0097
 52      0.0000     0.0000E+00    0.0000E+00    3.160000E+06  0.05000  4.845E-02    0   0.9577   age045_m72            0.0000     2.0129E+00     4.9850   2.6748    88.7257
 53      0.0000     0.0000E+00    0.0000E+00    5.010000E+06  0.05000  3.072E-02    0   0.9147   age055_m72            0.0000     1.2815E+00     4.0283   2.1012    97.6587
 54      0.0000     0.0000E+00    0.0000E+00    6.610000E+06  0.05000  1.455E-02    0   0.8877   age061_m72            0.0000     4.6755E+00     8.4245   1.1862   114.0617
 55      0.0000     0.0000E+00    0.0000E+00    1.000000E+07  0.05000  9.074E-03    0   0.8524   age070_m72            0.0000     1.9460E+00     4.9264   2.3200    96.3079
 56      0.0000     0.0000E+00    0.0000E+00    2.512000E+07  0.05000  4.250E-03    0   0.7902   age090_m72            0.0000     1.3959E+00     4.1304   1.9755    99.9285
 57      0.0000     0.0000E+00    0.0000E+00    4.000000E+07  0.05000  3.087E-03    0   0.7618   age104_m72            0.0000     1.4194E+00     4.2621   1.7238   102.8176
 58      0.0000     0.0000E+00    0.0000E+00    1.015200E+08  0.05000  1.700E-03    0   0.7096   age116_m72            0.0000     9.6664E-01     3.5796   1.4818   104.4202
 59      0.0000     0.0000E+00    0.0000E+00    2.861200E+08  0.05000  7.384E-04    0   0.6633   age125_m72            0.0000     1.1612E+00     3.8535   1.0205   105.8823
 60     27.6754     1.3248E+01    1.5351E+01    5.088000E+08  0.05000  3.819E-04    0   0.6372   age130_m72            0.0000     1.2658E+00     4.3014   0.5837   104.6260
 61     10.8428     1.1827E+01    1.3141E+01    9.047900E+08  0.05000  1.676E-04    0   0.6110   age135_m72            0.0000     1.8980E+00     5.9186  -0.0184    98.1567
 62      0.0000     0.0000E+00    0.0000E+00    1.434000E+09  0.05000  8.837E-05    0   0.5874   age139_m72            0.0000     2.1927E+00     6.3227  -0.4538    96.7915
 63      0.0000     0.0000E+00    0.0000E+00    2.500000E+09  0.05000  4.233E-05    0   0.5598   age150_m72            0.0000     3.0621E+00     7.7281  -0.6845    92.0397
 64      0.0000     0.0000E+00    0.0000E+00    6.250000E+09  0.05000  1.435E-05    0   0.5249   age166_m72            0.0000     4.2705E+00     9.4350  -1.0000    85.3183
 65      0.0000     0.0000E+00    0.0000E+00    1.300000E+10  0.05000  6.513E-06    0   0.5036   age193_m72            0.0000     6.3259E+00    11.9668  -1.0000    75.8305
 66      0.0000     0.0000E+00    0.0000E+00    1.800000E+10  0.05000  4.527E-06    0   0.4945   age213_m72            0.0000     8.0472E+00    13.6333  -1.0000    70.2797


## Synthesis Results - Average & Chains ##

# j      x_j: min, <> & last-chain-values for 1 ...  7 chains
  1      7.2723      4.8587      4.9834      5.6795      6.5580      5.1871      6.0959      5.2282      5.3570
  2      0.0065      0.2752      0.0799      0.9690      0.7251      0.0000      0.3513      0.0000      0.0000
  3      0.0000      0.1628      0.0404      0.0000      0.0000      0.7851      0.0000      0.0000      0.0000
  4      0.0000      0.2093      0.0000      0.0834      0.0000      0.0000      0.3452      0.0000      0.3496
  5      0.0075      0.9066      0.9842      1.0194      0.2247      0.1674      1.6509      0.7901      0.7771
  6      0.1983      0.3112      0.0000      0.5767      0.0000      0.0000      0.0000      0.0000      0.0000
  7      0.5219      0.7129      1.2301      0.8076      1.5290      2.8617      0.6114      0.0000      0.7221
  8      0.6418      0.7421      0.0000      0.9656      0.0000      0.0742      0.2065      0.7930      0.7306
  9      0.0000      0.4895      1.0989      0.1092      0.0000      0.0000      1.1644      0.0000      1.4729
 10      0.0010      0.3128      0.0000      0.8062      0.1907      0.0610      1.1219      0.0035      0.0000
 11      0.0000      0.4156      0.0000      0.0042      0.0000      0.0000      0.1189      0.5465      0.0000
 12      0.0000      0.4154      0.0000      0.0000      0.0000      0.0000      0.0000      0.0000      0.8059
 13      0.0005      1.5858      0.8255      0.5112      0.6279      0.7019      1.6433      1.4155      1.4417
 14      1.4926      1.7008      1.8855      1.3958      1.0191      2.4424      2.5255      1.7787      1.8715
 15      0.9034      0.3769      0.7731      0.5587      0.8808      0.0000      0.0000      0.5019      0.1706
 16      2.8463      1.4717      1.5965      1.4713      1.6249      1.6280      1.6015      1.6050      2.2198
 17      0.0000      0.3212      0.4316      0.0000      0.2340      0.3176      0.0706      0.3281      0.6476
 18      2.9793      1.2463      1.5466      3.5173      0.8909      0.9866      1.2727      1.3887      2.2900
 19      1.3184      1.9935      2.7881      1.4383      1.5250      1.8297      2.0240      2.2928      1.0564
 20      0.0000      0.4224      0.1659      0.0000      0.4447      0.0319      1.0743      1.1431      0.1522
 21     15.6831     17.2521     18.0860     17.7320     17.5376     16.7214     16.9241     18.3345     17.5774
 22      0.0000      0.8081      0.4483      0.0000      0.4206      1.4963      0.9639      0.9180      0.7298
 23      0.0000      1.1088      1.3159      0.0000      0.6119      1.8609      1.3917      0.6262      0.3528
 24      1.5612      2.0265      2.1077      2.2059      2.3625      2.4150      1.8210      1.6091      2.6005
 25      0.0000      1.7157      2.9516      0.0000      2.4791      2.4704      1.5290      2.3123      0.0000
 26      0.0000      0.2670      0.0878      0.2339      0.0000      0.0000      0.0000      0.0000      0.0793
 27      0.0000      0.4953      0.0000      0.0000      1.6493      0.2108      0.0000      0.3735      0.5140
 28      2.0616      1.4102      1.5954      1.1030      0.6682      1.0089      0.0000      1.3067      0.7870
 29      0.0000      1.9090      2.8198      1.9432      2.0195      0.9092      1.9502      1.6136      1.4048
 30      0.0000      0.0372      0.0000      0.0057      0.0800      0.2529      0.2269      0.0000      0.0000
 31      1.4928      2.4270      2.2875      2.8851      2.3730      2.9214      2.4893      1.6892      2.6519
 32      0.0000      0.0250      0.0000      0.0634      0.0000      0.0000      0.0000      0.0228      0.0000
 33      0.6349      0.4001      0.5647      0.4679      0.4445      0.5248      0.5755      0.5318      0.5394
 34      0.0000      0.0199      0.0000      0.0000      0.0000      0.1063      0.0000      0.0907      0.0000
 35      4.1098      3.4379      3.3357      4.3199      3.4359      3.6223      4.4398      2.5009      3.5408
 36      2.3787      2.0412      2.5351      1.7218      1.9717      2.7776      1.9862      2.0762      2.2985
 37      0.0000      0.2401      0.3513      0.0000      0.0000      0.2988      0.0000      0.8979      0.6821
 38     17.5326     11.8273     12.4520     14.4690     14.2479     11.6756     11.7385     12.7759     13.8382
 39      0.0000      0.5781      0.1078      0.0000      0.0000      0.0000      0.0000      0.0000      0.0000
 40      0.0000      0.3312      0.0000      0.1355      0.0000      0.0000      0.0000      0.7774      0.5981
 41      0.0000      0.2776      0.0000      0.0000      0.0000      0.4486      0.2671      0.1772      0.0000
 42      0.0000      0.3033      0.1896      0.3285      0.0000      0.1767      0.0000      0.0000      0.0000
 43      0.0000      0.4025      0.0000      0.1542      0.4215      0.1147      0.0000      0.3625      0.0000
 44      0.0000      0.7216      0.8306      0.0396      0.9253      0.7208      0.0000      0.0000      0.8752
 45      0.9344      3.1860      1.2324      3.1287      3.1922      2.1350      3.3671      3.7282      3.4247
 46      0.0218      0.4982      0.6395      1.0556      0.0000      0.5817      0.0000      0.0000      0.0000
