###################################################################
## OUTPUT of StarlightChains_v04.for    [Cid@UFSC - 01/Apr/2007] ##
###################################################################

## Some input info
1998fa.txt                               [arq_obs]
Base.CB07.vall.4m                        [arq_base]
Masks.EmLines.NEW.gm                     [arq_masks]
StCv04.C11.config                        [arq_config]
   66                                    [N_base]
    0                                    [N_YAV_components = # of components with extra extinction!]
    0                                    [i_FitPowerLaw (1/0 = Yes/No)]
-9.99                                    [alpha_PowerLaw]
CCM                                      [red_law_option]
 1.458241                                [q_norm = A(l_norm)/A(V)]

## (Re)Sampling Parameters
 3741.00                                 [l_ini (A)]
 7218.00                                 [l_fin (A)]
    1.00                                 [dl    (A)]     (OBS: dl_cushion =    50.00 A)

## Normalization info
 4020.00                                 [l_norm (A) - for base]
 4010.00                                 [llow_norm (A) - window for f_obs]
 4060.00                                 [lupp_norm (A) - window for f_obs]
4.105055E-17                             [fobs_norm (in input units)]

## S/N
 3691.00                                 [llow_SN (A) - window for S/N]
 7268.00                                 [lupp_SN (A) - window for S/N]
   5.248                                 [S/N in S/N window]
   7.225                                 [S/N in norm. window]
   8.152                                 [S/N_err in S/N window]
  11.223                                 [S/N_err in norm. window]
  1.0000                                 [fscale_chi2]

## etc...
    -2007233                             [idum_orig]
  2374                                   [NOl_eff]
  2374                                   [Nl_eff]
     0    NSIGMA                         [Ntot_cliped & clip_method]
   795270                                [Nglobal_steps]
   7                                     [N_chains]
  14                                     [NEX0s_base = N_base in EX0s-fits]
 0   0   1        0   2.0   2.329E+01    [Clip-Bug, RC-Crash & Burn-In warning-flags, n_censored_weights, wei_nsig_threshold & wei_limit]
    11     11.059     10.564      0.495  [idt_all, wdt_TotTime, wdt_UsrTime & wdt_SysTime (sec)]

## Synthesis Results - Best model ##

 3.65266E-01                             [chi2/Nl_eff]
     5.84810                             [adev (%)]

   100.08260                             [sum-of-x (%)]
 7.11630E-17                             [Flux_tot (units of input spectrum!)]
 9.79881E-14                             [Mini_tot (???)]
 6.26655E-14                             [Mcor_tot (???)]

 -94.33                                  [v0_min  (km/s)]
 260.09                                  [vd_min  (km/s)]
 0.4090                                  [AV_min  (mag)]
 0.0000                                  [YAV_min (mag)]

# j     x_j(%)      Mini_j(%)     Mcor_j(%)     age_j(yr)     Z_j      (L/M)_j    YAV?  Mstars   component_j        a/Fe...       SSP_chi2r SSP_adev(%)   SSP_AV   SSP_x(%)
  1      2.5315     1.6791E-01    2.6256E-01    1.000000E+06  0.00400  1.094E-02    0   1.0000   age020_m42            0.0000     5.1296E-01     7.3489   2.3378    85.4984
  2      1.8018     3.2629E-02    5.1017E-02    3.160000E+06  0.00400  4.007E-02    0   0.9999   age045_m42            0.0000     4.3286E-01     6.4014   1.6128    91.3993
  3      0.0000     0.0000E+00    0.0000E+00    5.010000E+06  0.00400  2.539E-02    0   0.9488   age055_m42            0.0000     4.5993E-01     6.7261   1.9298    89.2483
  4      0.0000     0.0000E+00    0.0000E+00    6.610000E+06  0.00400  2.620E-02    0   0.9220   age061_m42            0.0000     4.2379E-01     6.3377   1.5324    91.8978
  5      0.0000     0.0000E+00    0.0000E+00    1.000000E+07  0.00400  1.322E-02    0   0.8862   age070_m42            0.0000     4.1645E-01     6.4124   1.1989    96.1302
  6      0.0000     0.0000E+00    0.0000E+00    1.445000E+07  0.00400  7.883E-03    0   0.8571   age078_m42            0.0000     4.3189E-01     6.5922   1.5315    93.4384
  7      1.1755     1.6244E-01    2.0762E-01    2.512000E+07  0.00400  5.251E-03    0   0.8174   age090_m42            0.0000     4.1946E-01     6.4516   1.0586    97.1442
  8      6.7205     1.3364E+00    1.6407E+00    4.000000E+07  0.00400  3.649E-03    0   0.7851   age104_m42            0.0000     4.0515E-01     6.2930   0.8362    97.7337
  9      0.0145     3.4019E-03    4.0582E-03    5.500000E+07  0.00400  3.098E-03    0   0.7629   age110_m42            0.0000     3.9594E-01     6.1531   1.0123    96.7353
 10      0.0000     0.0000E+00    0.0000E+00    1.015200E+08  0.00400  2.228E-03    0   0.7207   age116_m42            0.0000     3.9716E-01     6.1642   1.0482    96.2361
 11      0.0000     0.0000E+00    0.0000E+00    2.861200E+08  0.00400  1.093E-03    0   0.6648   age125_m42            0.0000     4.2492E-01     6.4318   0.4593   100.0704
 12      0.0000     0.0000E+00    0.0000E+00    5.088000E+08  0.00400  6.597E-04    0   0.6365   age130_m42            0.0000     4.0965E-01     6.3482   0.4750    99.7208
 13      2.1679     7.3786E+00    6.6896E+00    1.434000E+09  0.00400  2.132E-04    0   0.5798   age139_m42            0.0000     3.9146E-01     6.1385  -0.4752   100.7031
 14      0.0000     0.0000E+00    0.0000E+00    4.250000E+09  0.00400  5.895E-05    0   0.5377   age158_m42            0.0000     4.3357E-01     6.3647  -0.8704    94.7760
 15      0.0000     0.0000E+00    0.0000E+00    7.500000E+09  0.00400  3.510E-05    0   0.5212   age171_m42            0.0000     4.7782E-01     6.7974  -1.0000    91.7602
 16      0.0000     0.0000E+00    0.0000E+00    1.300000E+10  0.00400  2.005E-05    0   0.5034   age193_m42            0.0000     5.9939E-01     7.9029  -1.0000    84.8438
 17      0.0000     0.0000E+00    0.0000E+00    1.800000E+10  0.00400  1.525E-05    0   0.4967   age213_m42            0.0000     6.2064E-01     8.0358  -1.0000    83.6003
 18      0.0000     0.0000E+00    0.0000E+00    1.000000E+06  0.00800  1.238E-02    0   1.0000   age020_m52            0.0000     5.1368E-01     7.3643   2.3341    85.6623
 19      0.0000     0.0000E+00    0.0000E+00    3.160000E+06  0.00800  3.074E-02    0   0.9966   age045_m52            0.0000     5.0696E-01     7.2840   2.2601    86.3160
 20      0.0000     0.0000E+00    0.0000E+00    5.010000E+06  0.00800  2.668E-02    0   0.9443   age055_m52            0.0000     4.6532E-01     6.8388   2.0103    88.5231
 21     36.9195     1.2542E+00    1.7998E+00    6.610000E+06  0.00800  2.136E-02    0   0.9177   age061_m52            0.0000     3.9519E-01     6.3295   0.7074    96.8078
 22      0.0000     0.0000E+00    0.0000E+00    1.000000E+07  0.00800  1.215E-02    0   0.8827   age070_m52            0.0000     4.4241E-01     6.7356   1.3629    96.6050
 23      0.0000     0.0000E+00    0.0000E+00    1.445000E+07  0.00800  8.717E-03    0   0.8552   age078_m52            0.0000     4.2491E-01     6.5290   1.4945    94.8452
 24      0.0000     0.0000E+00    0.0000E+00    2.512000E+07  0.00800  5.592E-03    0   0.8162   age090_m52            0.0000     4.2501E-01     6.5042   1.1187    98.4848
 25      0.0000     0.0000E+00    0.0000E+00    4.000000E+07  0.00800  3.896E-03    0   0.7841   age104_m52            0.0000     4.1458E-01     6.3603   1.0414    98.7858
 26      0.0000     0.0000E+00    0.0000E+00    1.015200E+08  0.00800  2.148E-03    0   0.7226   age116_m52            0.0000     3.9449E-01     6.1676   1.0047    97.4991
 27      0.0000     0.0000E+00    0.0000E+00    2.861200E+08  0.00800  9.925E-04    0   0.6683   age125_m52            0.0000     4.0111E-01     6.2966   0.5378   100.7383
 28      0.0000     0.0000E+00    0.0000E+00    9.047900E+08  0.00800  3.141E-04    0   0.6138   age135_m52            0.0000     4.1475E-01     6.3299  -0.2202   103.0128
 29      0.0000     0.0000E+00    0.0000E+00    1.434000E+09  0.00800  1.719E-04    0   0.5853   age139_m52            0.0000     4.5047E-01     6.4439  -0.7879   100.3009
 30      0.0000     0.0000E+00    0.0000E+00    2.500000E+09  0.00800  7.872E-05    0   0.5600   age150_m52            0.0000     4.9453E-01     6.9419  -1.0000    95.1494
 31      0.0000     0.0000E+00    0.0000E+00    4.250000E+09  0.00800  4.336E-05    0   0.5426   age158_m52            0.0000     5.0411E-01     7.0367  -1.0000    93.6182
 32      0.0000     0.0000E+00    0.0000E+00    6.250000E+09  0.00800  3.159E-05    0   0.5319   age166_m52            0.0000     6.5647E-01     8.4195  -1.0000    85.6109
 33      0.0000     0.0000E+00    0.0000E+00    1.300000E+10  0.00800  1.361E-05    0   0.5073   age193_m52            0.0000     1.4843E+00    13.2913  -1.0000    68.5498
 34      0.0000     0.0000E+00    0.0000E+00    1.800000E+10  0.00800  9.886E-06    0   0.4990   age213_m52            0.0000     1.7479E+00    14.5678  -1.0000    64.8559
 35      0.0000     0.0000E+00    0.0000E+00    1.000000E+06  0.02000  1.544E-02    0   1.0000   age020_m62            0.0000     5.1657E-01     7.4017   2.3304    85.8471
 36      0.1532     2.9559E-03    4.5565E-03    3.160000E+06  0.02000  3.762E-02    0   0.9858   age045_m62            0.0000     5.1485E-01     7.3699   2.2720    86.4972
 37      0.0000     0.0000E+00    0.0000E+00    5.010000E+06  0.02000  3.296E-02    0   0.9342   age055_m62            0.0000     4.4938E-01     6.5902   1.8951    90.1388
 38      0.0000     0.0000E+00    0.0000E+00    8.710000E+06  0.02000  1.154E-02    0   0.8861   age067_m62            0.0000     7.1997E-01     9.1130   0.7181   103.9054
 39      0.0000     0.0000E+00    0.0000E+00    1.445000E+07  0.02000  7.663E-03    0   0.8472   age078_m62            0.0000     5.0061E-01     7.3027   0.9784   100.2631
 40      0.0000     0.0000E+00    0.0000E+00    2.512000E+07  0.02000  4.532E-03    0   0.8099   age090_m62            0.0000     5.3094E-01     7.4686   0.9655   100.2482
 41      0.0000     0.0000E+00    0.0000E+00    5.500000E+07  0.02000  2.733E-03    0   0.7595   age110_m62            0.0000     4.1756E-01     6.4030   1.0245    98.0332
 42      0.0000     0.0000E+00    0.0000E+00    1.609000E+08  0.02000  1.369E-03    0   0.6985   age120_m62            0.0000     4.0006E-01     6.2725   0.8903    99.5165
 43      0.0000     0.0000E+00    0.0000E+00    2.861200E+08  0.02000  9.013E-04    0   0.6714   age125_m62            0.0000     3.9853E-01     6.3572   0.6521   101.8116
 44     10.6340     1.5347E+01    1.5476E+01    5.088000E+08  0.02000  5.028E-04    0   0.6449   age130_m62            0.0000     4.0613E-01     6.4559   0.3133   102.6985
 45      2.0020     5.9832E+00    5.7810E+00    9.047900E+08  0.02000  2.428E-04    0   0.6179   age135_m62            0.0000     4.2170E-01     6.3954  -0.2437   100.7349
 46      0.0000     0.0000E+00    0.0000E+00    1.434000E+09  0.02000  1.263E-04    0   0.5908   age139_m62            0.0000     4.6227E-01     6.7053  -0.6707    98.4427
 47      0.0000     0.0000E+00    0.0000E+00    2.500000E+09  0.02000  5.985E-05    0   0.5673   age150_m62            0.0000     5.5344E-01     7.4679  -0.9962    95.3144
 48      0.0000     0.0000E+00    0.0000E+00    4.250000E+09  0.02000  3.271E-05    0   0.5468   age158_m62            0.0000     8.1709E-01     9.5717  -1.0000    82.6853
 49      0.0000     0.0000E+00    0.0000E+00    1.000000E+10  0.02000  1.360E-05    0   0.5167   age181_m62            0.0000     1.4598E+00    13.2354  -1.0000    70.1790
 50      0.0000     0.0000E+00    0.0000E+00    1.800000E+10  0.02000  7.124E-06    0   0.5013   age213_m62            0.0000     1.9789E+00    15.5983  -1.0000    63.0972
 51      0.0000     0.0000E+00    0.0000E+00    1.000000E+06  0.05000  2.592E-02    0   0.9998   age020_m72            0.0000     5.2566E-01     7.5262   2.3200    85.9422
 52      0.0000     0.0000E+00    0.0000E+00    3.160000E+06  0.05000  4.845E-02    0   0.9577   age045_m72            0.0000     4.9677E-01     7.0828   2.1605    87.4373
 53      0.0000     0.0000E+00    0.0000E+00    5.010000E+06  0.05000  3.072E-02    0   0.9147   age055_m72            0.0000     5.0665E-01     7.2682   1.6051    94.6735
 54      0.0000     0.0000E+00    0.0000E+00    6.610000E+06  0.05000  1.455E-02    0   0.8877   age061_m72            0.0000     1.2384E+00    11.5390   0.7317   106.7637
 55      0.0000     0.0000E+00    0.0000E+00    1.000000E+07  0.05000  9.074E-03    0   0.8524   age070_m72            0.0000     6.2538E-01     7.8464   1.7937    94.3279
 56      0.0000     0.0000E+00    0.0000E+00    2.512000E+07  0.05000  4.250E-03    0   0.7902   age090_m72            0.0000     5.4140E-01     7.2474   1.4840    96.4364
 57      0.0000     0.0000E+00    0.0000E+00    4.000000E+07  0.05000  3.087E-03    0   0.7618   age104_m72            0.0000     5.5895E-01     7.3039   1.2447    98.5755
 58      0.0000     0.0000E+00    0.0000E+00    1.015200E+08  0.05000  1.700E-03    0   0.7096   age116_m72            0.0000     4.2643E-01     6.4828   1.0154    99.9108
 59      0.0000     0.0000E+00    0.0000E+00    2.861200E+08  0.05000  7.384E-04    0   0.6633   age125_m72            0.0000     4.0607E-01     6.4419   0.5394   102.2987
 60     35.9622     6.8331E+01    6.8083E+01    5.088000E+08  0.05000  3.819E-04    0   0.6372   age130_m72            0.0000     4.1215E-01     6.3965   0.0864   102.0972
 61      0.0000     0.0000E+00    0.0000E+00    9.047900E+08  0.05000  1.676E-04    0   0.6110   age135_m72            0.0000     5.2334E-01     7.2665  -0.5465    97.4462
 62      0.0000     0.0000E+00    0.0000E+00    1.434000E+09  0.05000  8.837E-05    0   0.5874   age139_m72            0.0000     5.8433E-01     7.6929  -0.9919    96.4966
 63      0.0000     0.0000E+00    0.0000E+00    2.500000E+09  0.05000  4.233E-05    0   0.5598   age150_m72            0.0000     8.5179E-01     9.8071  -1.0000    83.3769
 64      0.0000     0.0000E+00    0.0000E+00    6.250000E+09  0.05000  1.435E-05    0   0.5249   age166_m72            0.0000     1.6974E+00    14.3451  -1.0000    66.7913
 65      0.0000     0.0000E+00    0.0000E+00    1.300000E+10  0.05000  6.513E-06    0   0.5036   age193_m72            0.0000     2.4613E+00    17.4905  -1.0000    59.0380
 66      0.0000     0.0000E+00    0.0000E+00    1.800000E+10  0.05000  4.527E-06    0   0.4945   age213_m72            0.0000     2.9583E+00    19.2639  -1.0000    54.5314


## Synthesis Results - Average & Chains ##

# j      x_j: min, <> & last-chain-values for 1 ...  7 chains
  1      2.5315      0.5275      1.3586      0.0000      3.5932      2.3668      0.0000      0.0000      0.0000
  2      1.8018      1.7166      2.9332      3.3423      1.0898      3.2312      1.3004      3.2467      1.9816
  3      0.0000      0.1915      0.0000      0.0000      0.0000      0.0000      0.0000      0.2761      0.0000
  4      0.0000      0.8042      1.0531      0.0000      0.6107      0.0000      0.0000      1.5514      1.1221
  5      0.0000      0.6494      0.0000      1.4050      0.0000      0.2058      0.0000      0.5813      0.1435
  6      0.0000      0.6859      0.0000      0.0000      1.4955      0.3252      0.0000      0.0000      0.0000
  7      1.1755      2.2159      0.0000      0.0221      0.0000      6.2709      2.2501      1.7109      1.5520
  8      6.7205      4.1694      2.2262      0.0000      4.3321      2.8295      3.0227      1.0059      7.2427
  9      0.0145      1.0992      0.0000      0.0000      2.9253      1.4295      0.0000      3.6223      0.0000
 10      0.0000      0.9869      0.0000      0.0000      0.0000      0.0000      0.0000      0.0000      0.7333
 11      0.0000      0.9262      0.0000      0.0000      0.0000      0.0000      0.2343      0.0000      0.0000
 12      0.0000      2.2230      0.0000      0.0000      0.0000      0.0000      1.6821      0.0000      0.0000
 13      2.1679      0.4736      0.0000      0.0000      0.0000      0.8135      0.0000      0.0000      0.0000
 14      0.0000      0.1040      0.0000      0.0000      0.0000      0.0000      0.0000      0.0000      0.0000
 15      0.0000      0.1297      0.0000      0.0000      0.0000      0.0000      0.0000      0.0000      0.0000
 16      0.0000      0.0739      0.0000      0.0000      0.1534      0.0000      0.0000      0.0000      0.0000
 17      0.0000      0.0366      0.0000      0.2964      0.0000      0.0000      0.0000      0.0000      0.0000
 18      0.0000      0.3786      0.0000      0.0000      0.0000      0.0000      0.0000      0.0000      2.6322
 19      0.0000      0.3642      1.5811      0.0000      0.0000      0.0000      0.0000      0.0000      0.0000
 20      0.0000      0.5846      0.0000      1.9572      0.4835      0.0000      0.0000      0.0000      1.0800
 21     36.9195     16.2858     23.3623     16.6882     20.2222     21.5257     27.8485     23.2372     22.1131
 22      0.0000      0.3914      0.0000      0.9694      0.9121      0.0000      0.0000      0.0000      0.0000
 23      0.0000      0.9327      0.8975      2.9920      2.1199      0.0000      0.0000      0.0000      0.2628
 24      0.0000      1.2267      0.0000      0.0000      0.0000      0.0000      2.5183      0.0000      4.9274
 25      0.0000      0.8678      0.0000      2.7091      5.0985      0.0000      0.0000      0.4606      0.0000
 26      0.0000      1.2961      5.8249      1.2878      2.1546      0.0000      0.0000      0.0000      0.9720
 27      0.0000      2.0634      0.0000      0.0000      0.0000      0.8431      0.0000      0.9422      0.0000
 28      0.0000      0.7839      0.0000      0.0000      2.3049      0.5082      0.0000      0.0000      2.0765
 29      0.0000      0.2057      0.0000      0.0000      0.0000      0.0000      0.0000      0.0083      0.0000
 30      0.0000      0.0616      0.0000      0.0000      0.0000      0.0000      0.0000      0.0000      0.0000
 31      0.0000      0.0289      0.0000      0.0000      0.0000      0.0000      0.7035      0.0000      0.0000
 32      0.0000      0.0308      0.0000      0.0000      0.0000      0.0000      0.0000      0.0000      0.0000
 33      0.0000      0.0309      0.0000      0.0000      0.0000      0.0000      0.0000      0.0000      0.3792
 34      0.0000      0.0123      0.0000      0.0000      0.0000      0.0000      0.0000      0.0000      0.0000
 35      0.0000      0.4244      0.2073      1.1228      0.0000      0.0000      2.5223      0.0000      0.0000
 36      0.1532      0.2125      1.5549      0.9483      0.8346      1.2136      0.0000      0.0000      0.3481
 37      0.0000      0.4308      5.0299      0.0000      1.8840      0.0000      0.0000      1.8983      0.0000
 38      0.0000      0.7482      0.0000      2.9278      0.0000      0.0000      0.0000      2.4102      0.0000
 39      0.0000      0.9654      0.0000      0.0000      0.0000      1.2596      0.0000      2.4053      0.0000
 40      0.0000      0.8630      0.0000      4.1375      0.0000      0.0000      0.0000      0.0000      0.0000
 41      0.0000      0.9560      0.0000      0.0000      0.0000      0.0000      2.8189      0.0000      0.5472
 42      0.0000      1.4105      0.0000      0.0000      0.0000      0.0000      2.4493      0.8417      3.0108
 43      0.0000      3.0548      6.2267      1.7444      0.0000      0.7901      1.5999      7.7177      0.0000
 44     10.6340     18.0525     11.9223     16.5674     13.4463     28.8980     19.5921     13.4396     22.6372
 45      2.0020      4.5585      8.5548      6.3738      6.1393      4.6851      3.6252      5.0417      3.3715
 46      0.0000      0.3265      0.2265      0.0000      0.0000      0.0000      0.0000      0.0000      0.3402
