###################################################################
## OUTPUT of StarlightChains_v04.for    [Cid@UFSC - 01/Apr/2007] ##
###################################################################

## Some input info
1998aq.txt                               [arq_obs]
Base.CB07.vall.4m                        [arq_base]
Masks.EmLines.NEW.gm                     [arq_masks]
StCv04.C11.config                        [arq_config]
   66                                    [N_base]
    0                                    [N_YAV_components = # of components with extra extinction!]
    0                                    [i_FitPowerLaw (1/0 = Yes/No)]
-9.99                                    [alpha_PowerLaw]
CCM                                      [red_law_option]
 1.458241                                [q_norm = A(l_norm)/A(V)]

## (Re)Sampling Parameters
 3741.00                                 [l_ini (A)]
 7218.00                                 [l_fin (A)]
    1.00                                 [dl    (A)]     (OBS: dl_cushion =    50.00 A)

## Normalization info
 4020.00                                 [l_norm (A) - for base]
 4010.00                                 [llow_norm (A) - window for f_obs]
 4060.00                                 [lupp_norm (A) - window for f_obs]
4.494515E-17                             [fobs_norm (in input units)]

## S/N
 3691.00                                 [llow_SN (A) - window for S/N]
 7268.00                                 [lupp_SN (A) - window for S/N]
   5.417                                 [S/N in S/N window]
   7.463                                 [S/N in norm. window]
  10.000                                 [S/N_err in S/N window]
  13.778                                 [S/N_err in norm. window]
  1.0000                                 [fscale_chi2]

## etc...
    -2007230                             [idum_orig]
  2274                                   [NOl_eff]
  2264                                   [Nl_eff]
    10    NSIGMA                         [Ntot_cliped & clip_method]
  1546370                                [Nglobal_steps]
   7                                     [N_chains]
  26                                     [NEX0s_base = N_base in EX0s-fits]
 0   0   1       51   2.0   1.923E+01    [Clip-Bug, RC-Crash & Burn-In warning-flags, n_censored_weights, wei_nsig_threshold & wei_limit]
    12     12.115     11.616      0.500  [idt_all, wdt_TotTime, wdt_UsrTime & wdt_SysTime (sec)]

## Synthesis Results - Best model ##

 5.12500E-01                             [chi2/Nl_eff]
     5.17703                             [adev (%)]

    97.64068                             [sum-of-x (%)]
 4.31851E-17                             [Flux_tot (units of input spectrum!)]
 3.05704E-13                             [Mini_tot (???)]
 1.65777E-13                             [Mcor_tot (???)]

  65.72                                  [v0_min  (km/s)]
 319.58                                  [vd_min  (km/s)]
-0.0120                                  [AV_min  (mag)]
 0.0000                                  [YAV_min (mag)]

# j     x_j(%)      Mini_j(%)     Mcor_j(%)     age_j(yr)     Z_j      (L/M)_j    YAV?  Mstars   component_j        a/Fe...       SSP_chi2r SSP_adev(%)   SSP_AV   SSP_x(%)
  1      4.5314     5.9927E-02    1.1051E-01    1.000000E+06  0.00400  1.094E-02    0   1.0000   age020_m42            0.0000     8.7641E-01     7.0201   2.2898    84.3697
  2      0.0000     0.0000E+00    0.0000E+00    3.160000E+06  0.00400  4.007E-02    0   0.9999   age045_m42            0.0000     7.4211E-01     6.3943   1.5434    91.1056
  3      0.0000     0.0000E+00    0.0000E+00    5.010000E+06  0.00400  2.539E-02    0   0.9488   age055_m42            0.0000     7.7535E-01     6.5210   1.8728    88.4751
  4      0.0000     0.0000E+00    0.0000E+00    6.610000E+06  0.00400  2.620E-02    0   0.9220   age061_m42            0.0000     7.3743E-01     6.2878   1.4694    91.3722
  5      0.0000     0.0000E+00    0.0000E+00    1.000000E+07  0.00400  1.322E-02    0   0.8862   age070_m42            0.0000     6.3976E-01     5.5641   1.2040    92.9302
  6      0.0000     0.0000E+00    0.0000E+00    1.445000E+07  0.00400  7.883E-03    0   0.8571   age078_m42            0.0000     6.8060E-01     5.7807   1.5360    90.3160
  7      0.0000     0.0000E+00    0.0000E+00    2.512000E+07  0.00400  5.251E-03    0   0.8174   age090_m42            0.0000     6.2628E-01     5.4549   1.0747    93.4780
  8      0.0000     0.0000E+00    0.0000E+00    4.000000E+07  0.00400  3.649E-03    0   0.7851   age104_m42            0.0000     6.1270E-01     5.4391   0.8409    94.5269
  9      0.0000     0.0000E+00    0.0000E+00    5.500000E+07  0.00400  3.098E-03    0   0.7629   age110_m42            0.0000     6.7977E-01     5.7673   0.9857    94.7961
 10      0.0000     0.0000E+00    0.0000E+00    1.015200E+08  0.00400  2.228E-03    0   0.7207   age116_m42            0.0000     7.5132E-01     6.0413   1.0002    95.1637
 11      0.0000     0.0000E+00    0.0000E+00    2.861200E+08  0.00400  1.093E-03    0   0.6648   age125_m42            0.0000     7.4965E-01     6.0234   0.4356    98.1424
 12      0.0000     0.0000E+00    0.0000E+00    5.088000E+08  0.00400  6.597E-04    0   0.6365   age130_m42            0.0000     8.5930E-01     6.4563   0.4136    99.3514
 13     15.1145     1.0257E+01    1.0966E+01    1.434000E+09  0.00400  2.132E-04    0   0.5798   age139_m42            0.0000     8.2347E-01     6.4084  -0.5704   101.8406
 14     19.6818     4.8304E+01    4.7896E+01    4.250000E+09  0.00400  5.895E-05    0   0.5377   age158_m42            0.0000     8.7847E-01     6.8848  -1.0000    97.3982
 15      7.2971     3.0078E+01    2.8909E+01    7.500000E+09  0.00400  3.510E-05    0   0.5212   age171_m42            0.0000     1.1734E+00     7.4924  -1.0000    90.5231
 16      0.0000     0.0000E+00    0.0000E+00    1.300000E+10  0.00400  2.005E-05    0   0.5034   age193_m42            0.0000     1.6625E+00     8.7848  -1.0000    84.6409
 17      0.0000     0.0000E+00    0.0000E+00    1.800000E+10  0.00400  1.525E-05    0   0.4967   age213_m42            0.0000     1.6913E+00     8.8915  -1.0000    83.5256
 18     11.5693     1.3520E-01    2.4932E-01    1.000000E+06  0.00800  1.238E-02    0   1.0000   age020_m52            0.0000     8.7648E-01     7.0234   2.2861    84.5342
 19      3.3315     1.5680E-02    2.8816E-02    3.160000E+06  0.00800  3.074E-02    0   0.9966   age045_m52            0.0000     8.6466E-01     6.9565   2.2071    85.3637
 20      0.0000     0.0000E+00    0.0000E+00    5.010000E+06  0.00800  2.668E-02    0   0.9443   age055_m52            0.0000     7.8590E-01     6.5438   1.9586    87.5466
 21      0.0000     0.0000E+00    0.0000E+00    6.610000E+06  0.00800  2.136E-02    0   0.9177   age061_m52            0.0000     5.7450E-01     5.4096   0.6996    94.1330
 22      0.0000     0.0000E+00    0.0000E+00    1.000000E+07  0.00800  1.215E-02    0   0.8827   age070_m52            0.0000     6.4647E-01     5.5464   1.3940    92.3958
 23      0.0000     0.0000E+00    0.0000E+00    1.445000E+07  0.00800  8.717E-03    0   0.8552   age078_m52            0.0000     6.6014E-01     5.6804   1.4996    91.6650
 24      0.0000     0.0000E+00    0.0000E+00    2.512000E+07  0.00800  5.592E-03    0   0.8162   age090_m52            0.0000     6.2055E-01     5.4345   1.1405    94.5844
 25      0.0000     0.0000E+00    0.0000E+00    4.000000E+07  0.00800  3.896E-03    0   0.7841   age104_m52            0.0000     6.3041E-01     5.5136   1.0468    95.5702
 26      0.0000     0.0000E+00    0.0000E+00    1.015200E+08  0.00800  2.148E-03    0   0.7226   age116_m52            0.0000     6.8238E-01     5.7823   0.9728    95.8238
 27      0.0000     0.0000E+00    0.0000E+00    2.861200E+08  0.00800  9.925E-04    0   0.6683   age125_m52            0.0000     8.5551E-01     6.3398   0.4796   100.2789
 28      4.8008     2.2113E+00    2.5029E+00    9.047900E+08  0.00800  3.141E-04    0   0.6138   age135_m52            0.0000     1.0019E+00     7.0626  -0.3337   105.0806
 29      0.0000     0.0000E+00    0.0000E+00    1.434000E+09  0.00800  1.719E-04    0   0.5853   age139_m52            0.0000     9.0919E-01     6.9785  -0.9101   102.7939
 30      0.0000     0.0000E+00    0.0000E+00    2.500000E+09  0.00800  7.872E-05    0   0.5600   age150_m52            0.0000     1.2370E+00     7.7053  -1.0000    93.7909
 31      0.0000     0.0000E+00    0.0000E+00    4.250000E+09  0.00800  4.336E-05    0   0.5426   age158_m52            0.0000     1.2846E+00     7.7915  -1.0000    92.3616
 32      0.0000     0.0000E+00    0.0000E+00    6.250000E+09  0.00800  3.159E-05    0   0.5319   age166_m52            0.0000     1.9585E+00     9.4051  -1.0000    85.5768
 33      0.0000     0.0000E+00    0.0000E+00    1.300000E+10  0.00800  1.361E-05    0   0.5073   age193_m52            0.0000     4.2077E+00    14.3646  -1.0000    70.1095
 34      0.0000     0.0000E+00    0.0000E+00    1.800000E+10  0.00800  9.886E-06    0   0.4990   age213_m52            0.0000     5.0215E+00    15.6853  -1.0000    66.5302
 35      2.1417     2.0068E-02    3.7007E-02    1.000000E+06  0.02000  1.544E-02    0   1.0000   age020_m62            0.0000     8.8259E-01     7.0531   2.2830    84.7005
 36      0.0000     0.0000E+00    0.0000E+00    3.160000E+06  0.02000  3.762E-02    0   0.9858   age045_m62            0.0000     8.8864E-01     7.0634   2.2203    85.5007
 37      0.0000     0.0000E+00    0.0000E+00    5.010000E+06  0.02000  3.296E-02    0   0.9342   age055_m62            0.0000     7.7566E-01     6.5160   1.8257    89.8464
 38     11.1426     1.3970E-01    2.2827E-01    8.710000E+06  0.02000  1.154E-02    0   0.8861   age067_m62            0.0000     8.4787E-01     6.4354   0.8833    93.9603
 39      0.0000     0.0000E+00    0.0000E+00    1.445000E+07  0.02000  7.663E-03    0   0.8472   age078_m62            0.0000     6.3230E-01     5.4777   1.0527    94.2899
 40      0.0000     0.0000E+00    0.0000E+00    2.512000E+07  0.02000  4.532E-03    0   0.8099   age090_m62            0.0000     6.5154E-01     5.5380   1.0465    94.0454
 41      0.0000     0.0000E+00    0.0000E+00    5.500000E+07  0.02000  2.733E-03    0   0.7595   age110_m62            0.0000     6.2858E-01     5.4845   1.0301    94.8469
 42      0.0000     0.0000E+00    0.0000E+00    1.609000E+08  0.02000  1.369E-03    0   0.6985   age120_m62            0.0000     7.8384E-01     6.0040   0.8491    98.2285
 43      0.0000     0.0000E+00    0.0000E+00    2.861200E+08  0.02000  9.013E-04    0   0.6714   age125_m62            0.0000     9.4507E-01     6.4880   0.5860   101.5751
 44      8.9826     2.5847E+00    3.0738E+00    5.088000E+08  0.02000  5.028E-04    0   0.6449   age130_m62            0.0000     1.1218E+00     7.2730   0.1950   104.7810
 45      0.0000     0.0000E+00    0.0000E+00    9.047900E+08  0.02000  2.428E-04    0   0.6179   age135_m62            0.0000     1.0545E+00     7.3901  -0.3951   104.3212
 46      0.0006     6.8415E-04    7.4537E-04    1.434000E+09  0.02000  1.263E-04    0   0.5908   age139_m62            0.0000     1.0783E+00     7.5225  -0.8402   102.7778
 47      0.0000     0.0000E+00    0.0000E+00    2.500000E+09  0.02000  5.985E-05    0   0.5673   age150_m62            0.0000     1.4797E+00     8.2726  -1.0000    94.1790
 48      0.0000     0.0000E+00    0.0000E+00    4.250000E+09  0.02000  3.271E-05    0   0.5468   age158_m62            0.0000     2.6093E+00    10.8586  -1.0000    83.0386
 49      0.5571     5.9268E+00    5.6473E+00    1.000000E+10  0.02000  1.360E-05    0   0.5167   age181_m62            0.0000     4.5669E+00    14.5878  -1.0000    71.5266
 50      0.0000     0.0000E+00    0.0000E+00    1.800000E+10  0.02000  7.124E-06    0   0.5013   age213_m62            0.0000     6.0104E+00    16.8613  -1.0000    64.7125
 51      7.4944     4.1832E-02    7.7125E-02    1.000000E+06  0.05000  2.592E-02    0   0.9998   age020_m72            0.0000     9.0005E-01     7.1208   2.2770    84.6226
 52      0.0000     0.0000E+00    0.0000E+00    3.160000E+06  0.05000  4.845E-02    0   0.9577   age045_m72            0.0000     8.4776E-01     6.8772   2.0952    86.9532
 53      0.0000     0.0000E+00    0.0000E+00    5.010000E+06  0.05000  3.072E-02    0   0.9147   age055_m72            0.0000     7.2305E-01     6.0428   1.6461    90.3531
 54      0.0000     0.0000E+00    0.0000E+00    6.610000E+06  0.05000  1.455E-02    0   0.8877   age061_m72            0.0000     1.1516E+00     7.8453   0.9793    93.8822
 55      0.0000     0.0000E+00    0.0000E+00    1.000000E+07  0.05000  9.074E-03    0   0.8524   age070_m72            0.0000     7.8975E-01     6.4624   1.8544    89.6413
 56      0.0000     0.0000E+00    0.0000E+00    2.512000E+07  0.05000  4.250E-03    0   0.7902   age090_m72            0.0000     7.1245E-01     5.9894   1.5264    92.1404
 57      0.0000     0.0000E+00    0.0000E+00    4.000000E+07  0.05000  3.087E-03    0   0.7618   age104_m72            0.0000     7.0705E-01     5.9029   1.2949    93.8980
 58      0.0023     1.9863E-04    2.5992E-04    1.015200E+08  0.05000  1.700E-03    0   0.7096   age116_m72            0.0000     7.4779E-01     5.8603   1.0013    97.5635
 59      0.8250     1.6164E-01    1.9771E-01    2.861200E+08  0.05000  7.384E-04    0   0.6633   age125_m72            0.0000     1.0479E+00     6.8945   0.4468   103.2391
 60      0.1680     6.3645E-02    7.4785E-02    5.088000E+08  0.05000  3.819E-04    0   0.6372   age130_m72            0.0000     1.0804E+00     7.2839  -0.0595   105.3796
 61      0.0000     0.0000E+00    0.0000E+00    9.047900E+08  0.05000  1.676E-04    0   0.6110   age135_m72            0.0000     1.2783E+00     8.1638  -0.7632   103.6757
 62      0.0000     0.0000E+00    0.0000E+00    1.434000E+09  0.05000  8.837E-05    0   0.5874   age139_m72            0.0000     1.5773E+00     8.4715  -1.0000    95.5592
 63      0.0000     0.0000E+00    0.0000E+00    2.500000E+09  0.05000  4.233E-05    0   0.5598   age150_m72            0.0000     2.7456E+00    11.0921  -1.0000    83.7225
 64      0.0000     0.0000E+00    0.0000E+00    6.250000E+09  0.05000  1.435E-05    0   0.5249   age166_m72            0.0000     5.1430E+00    15.6322  -1.0000    68.3129
 65      0.0000     0.0000E+00    0.0000E+00    1.300000E+10  0.05000  6.513E-06    0   0.5036   age193_m72            0.0000     7.1358E+00    18.6078  -1.0000    60.8267
 66      0.0000     0.0000E+00    0.0000E+00    1.800000E+10  0.05000  4.527E-06    0   0.4945   age213_m72            0.0000     8.3354E+00    20.2591  -1.0000    56.3730


## Synthesis Results - Average & Chains ##

# j      x_j: min, <> & last-chain-values for 1 ...  7 chains
  1      4.5314      2.8342      2.6023      3.3383      3.5059      2.0819      2.8437      2.7553      3.1500
  2      0.0000      0.3545      1.9382      0.0000      0.5404      2.0518      1.1306      0.0000      0.0000
  3      0.0000      0.6145      0.0000      0.0000      0.3653      0.0000      0.0000      0.0000      0.0000
  4      0.0000      0.6185      0.0000      0.0000      0.0000      0.0000      0.0000      0.0000      0.0074
  5      0.0000      0.7003      0.2520      0.0000      0.0000      0.2532      0.7007      0.0000      0.0000
  6      0.0000      0.4673      0.2588      0.0000      0.2775      0.4359      0.0000      0.0000      0.0000
  7      0.0000      0.7021      0.0000      0.0000      0.2772      0.0000      0.0000      0.0000      1.9526
  8      0.0000      0.6634      0.0000      0.0000      0.0000      0.4858      0.0000      0.0000      2.6698
  9      0.0000      0.7366      0.2909      2.0427      0.0000      0.0000      0.0000      0.8575      0.0000
 10      0.0000      0.5463      0.0035      0.0000      0.0000      0.0000      1.0735      0.0000      0.0000
 11      0.0000      0.5699      0.0000      0.0000      0.0000      0.0000      0.0000      0.0000      0.0000
 12      0.0000      0.6645      0.0000      0.2969      0.0000      0.0000      0.0000      0.0000      0.0000
 13     15.1145     10.1196     13.7573     13.7965     12.8068     10.4340     11.9545      7.6739     18.3784
 14     19.6818      6.5886      6.6217      7.9986      7.8355      6.4453      7.5365      5.7095      6.1962
 15      7.2971      2.5203      2.8674      3.1918      2.1492      3.4858      2.4506      4.0116      3.8457
 16      0.0000      0.2970      0.6105      0.0000      0.0000      0.0000      0.0000      0.0000      0.0000
 17      0.0000      0.2656      0.0000      0.0000      0.1401      0.0000      0.0000      1.1969      0.0000
 18     11.5693      6.6311      8.8929      6.3463      7.4527      7.4227      6.6536      7.2591      8.1522
 19      3.3315      3.9853      5.3746      4.3410      2.8200      1.7276      4.0152      5.3200      6.0644
 20      0.0000      0.4288      1.0297      2.5686      0.4944      0.0000      2.5306      0.1605      0.0000
 21      0.0000      5.7573      6.0568      2.6165      2.8045      3.5315      2.3284      5.5436      0.7887
 22      0.0000      0.4774      0.0000      0.0000      0.0000      0.0000      0.0000      0.0000      2.1706
 23      0.0000      0.5172      0.3588      0.0000      0.2188      0.0000      2.2118      0.0000      0.0000
 24      0.0000      0.8158      2.0839      1.2700      2.9591      0.0000      0.0000      0.0000      2.0371
 25      0.0000      0.5712      0.0000      0.1194      0.0000      2.2389      0.0000      0.0000      1.8212
 26      0.0000      0.6965      0.1145      0.0000      0.0000      0.0000      2.7587      0.0000      0.0000
 27      0.0000      0.8408      0.0000      0.4383      0.0980      0.0000      0.7494      0.0000      0.0000
 28      4.8008      3.6757      4.6249      2.5733      7.5754      0.8787      0.9735      4.0028      2.0427
 29      0.0000      0.3922      1.5148      0.0000      0.0000      0.0000      0.0000      0.0000      0.0000
 30      0.0000      2.8527      2.2485      3.0736      0.0000      3.0541      3.7857      2.6521      2.6211
 31      0.0000      0.2300      0.0000      0.0000      0.0000      1.1772      0.6175      0.0000      0.0000
 32      0.0000      0.4659      1.6013      0.0000      2.1293      0.0000      0.3860      0.0000      0.0000
 33      0.0000      0.2521      0.1721      0.0000      0.0000      0.8536      0.0000      0.3947      0.0000
 34      0.0000      0.0452      0.0000      0.0000      0.0000      0.0000      0.0000      0.0000      0.0000
 35      2.1417      1.5413      1.6244      1.1988      3.4527      0.0000      1.8130      2.9938      4.4714
 36      0.0000      0.8117      0.0000      2.0402      3.2816      1.8933      0.0000      0.5321      0.9520
 37      0.0000      0.3761      2.6177      0.1598      0.0000      0.0942      0.5332      0.0000      0.0000
 38     11.1426     10.8997      7.7240     11.3470     12.9477     16.9410     11.2326     10.3993      9.9370
 39      0.0000      0.9711      0.0000      3.7500      0.0000      0.0000      0.0000      3.8352      0.0000
 40      0.0000      0.6977      0.3434      0.0000      0.0000      1.8131      0.0000      0.0000      0.0000
 41      0.0000      0.7208      0.0000      0.0000      0.0000      0.0000      0.0000      3.0865      0.1829
 42      0.0000      0.4957      0.0000      0.1474      0.0000      0.0000      0.1063      0.0000      0.4166
 43      0.0000      0.6855      0.7414      2.0143      0.0000      0.0000      0.0000      0.8043      0.0000
 44      8.9826      1.7284      3.6270      1.1303      2.2876      2.7302      3.3388      8.7061      0.9340
 45      0.0000      3.8508      1.3871      3.7344      4.7630      1.9924      3.1019      3.8171      4.8053
 46      0.0006      1.2627      0.0000      1.0447      0.5517      3.6977      3.3059      3.9642      2.9493
