###################################################################
## OUTPUT of StarlightChains_v04.for    [Cid@UFSC - 01/Apr/2007] ##
###################################################################

## Some input info
1998ar.txt                               [arq_obs]
Base.CB07.vall.4m                        [arq_base]
Masks.EmLines.NEW.gm                     [arq_masks]
StCv04.C11.config                        [arq_config]
   66                                    [N_base]
    0                                    [N_YAV_components = # of components with extra extinction!]
    0                                    [i_FitPowerLaw (1/0 = Yes/No)]
-9.99                                    [alpha_PowerLaw]
CCM                                      [red_law_option]
 1.458241                                [q_norm = A(l_norm)/A(V)]

## (Re)Sampling Parameters
 3741.00                                 [l_ini (A)]
 7218.00                                 [l_fin (A)]
    1.00                                 [dl    (A)]     (OBS: dl_cushion =    50.00 A)

## Normalization info
 4020.00                                 [l_norm (A) - for base]
 4010.00                                 [llow_norm (A) - window for f_obs]
 4060.00                                 [lupp_norm (A) - window for f_obs]
3.348220E-17                             [fobs_norm (in input units)]

## S/N
 3691.00                                 [llow_SN (A) - window for S/N]
 7268.00                                 [lupp_SN (A) - window for S/N]
   5.025                                 [S/N in S/N window]
   5.206                                 [S/N in norm. window]
   0.000                                 [S/N_err in S/N window]
   0.000                                 [S/N_err in norm. window]
  1.0000                                 [fscale_chi2]

## etc...
    -2007231                             [idum_orig]
  2371                                   [NOl_eff]
  2283                                   [Nl_eff]
    88    NSIGMA                         [Ntot_cliped & clip_method]
   813330                                [Nglobal_steps]
   7                                     [N_chains]
  12                                     [NEX0s_base = N_base in EX0s-fits]
 0   0   1      210   2.0   1.621E+01    [Clip-Bug, RC-Crash & Burn-In warning-flags, n_censored_weights, wei_nsig_threshold & wei_limit]
    14     14.052     13.556      0.496  [idt_all, wdt_TotTime, wdt_UsrTime & wdt_SysTime (sec)]

## Synthesis Results - Best model ##

 3.97463E-01                             [chi2/Nl_eff]
    19.89707                             [adev (%)]

   120.78316                             [sum-of-x (%)]
 1.68831E-16                             [Flux_tot (units of input spectrum!)]
 2.68457E-13                             [Mini_tot (???)]
 1.73402E-13                             [Mcor_tot (???)]

  37.79                                  [v0_min  (km/s)]
   0.00                                  [vd_min  (km/s)]
 1.0640                                  [AV_min  (mag)]
 0.0000                                  [YAV_min (mag)]

# j     x_j(%)      Mini_j(%)     Mcor_j(%)     age_j(yr)     Z_j      (L/M)_j    YAV?  Mstars   component_j        a/Fe...       SSP_chi2r SSP_adev(%)   SSP_AV   SSP_x(%)
  1      0.0000     0.0000E+00    0.0000E+00    1.000000E+06  0.00400  1.094E-02    0   1.0000   age020_m42            0.0000     4.1114E-01    20.2911   3.1142    96.7379
  2      0.0000     0.0000E+00    0.0000E+00    3.160000E+06  0.00400  4.007E-02    0   0.9999   age045_m42            0.0000     4.0578E-01    20.2675   2.3090   107.9024
  3      0.0000     0.0000E+00    0.0000E+00    5.010000E+06  0.00400  2.539E-02    0   0.9488   age055_m42            0.0000     4.1110E-01    20.0542   2.6534   103.7642
  4      0.0000     0.0000E+00    0.0000E+00    6.610000E+06  0.00400  2.620E-02    0   0.9220   age061_m42            0.0000     4.0599E-01    21.3050   2.1692   112.0612
  5      0.9433     3.7152E-02    5.0972E-02    1.000000E+07  0.00400  1.322E-02    0   0.8862   age070_m42            0.0000     4.0425E-01    26.8268   1.6142   131.6010
  6      0.0000     0.0000E+00    0.0000E+00    1.445000E+07  0.00400  7.883E-03    0   0.8571   age078_m42            0.0000     4.0735E-01    27.5003   1.9417   128.7160
  7      0.7613     7.5485E-02    9.5524E-02    2.512000E+07  0.00400  5.251E-03    0   0.8174   age090_m42            0.0000     4.0322E-01    27.0984   1.4575   133.8512
  8      0.0000     0.0000E+00    0.0000E+00    4.000000E+07  0.00400  3.649E-03    0   0.7851   age104_m42            0.0000     4.0278E-01    25.8034   1.2712   131.9103
  9      0.0000     0.0000E+00    0.0000E+00    5.500000E+07  0.00400  3.098E-03    0   0.7629   age110_m42            0.0000     4.0210E-01    25.0859   1.4767   129.1118
 10      0.0000     0.0000E+00    0.0000E+00    1.015200E+08  0.00400  2.228E-03    0   0.7207   age116_m42            0.0000     4.0063E-01    23.6742   1.5603   125.2255
 11      0.0000     0.0000E+00    0.0000E+00    2.861200E+08  0.00400  1.093E-03    0   0.6648   age125_m42            0.0000     4.1022E-01    32.3272   0.6577   154.8168
 12      0.0000     0.0000E+00    0.0000E+00    5.088000E+08  0.00400  6.597E-04    0   0.6365   age130_m42            0.0000     4.0826E-01    27.0224   0.8404   140.6149
 13      0.0000     0.0000E+00    0.0000E+00    1.434000E+09  0.00400  2.132E-04    0   0.5798   age139_m42            0.0000     4.1607E-01    17.7064   0.2772   112.9693
 14      0.0000     0.0000E+00    0.0000E+00    4.250000E+09  0.00400  5.895E-05    0   0.5377   age158_m42            0.0000     4.1341E-01    17.6226   0.1338    92.5583
 15      0.0000     0.0000E+00    0.0000E+00    7.500000E+09  0.00400  3.510E-05    0   0.5212   age171_m42            0.0000     4.1191E-01    18.3036  -0.0772    93.7580
 16      0.0000     0.0000E+00    0.0000E+00    1.300000E+10  0.00400  2.005E-05    0   0.5034   age193_m42            0.0000     4.1147E-01    19.2180  -0.3030    97.1802
 17      0.0000     0.0000E+00    0.0000E+00    1.800000E+10  0.00400  1.525E-05    0   0.4967   age213_m42            0.0000     4.1663E-01    18.7009  -0.2542    92.4513
 18      2.6769     1.1259E-01    1.7431E-01    1.000000E+06  0.00800  1.238E-02    0   1.0000   age020_m52            0.0000     4.1111E-01    20.2758   3.1131    96.8070
 19      0.0000     0.0000E+00    0.0000E+00    3.160000E+06  0.00800  3.074E-02    0   0.9966   age045_m52            0.0000     4.1307E-01    19.5183   3.0959    94.3286
 20      0.0000     0.0000E+00    0.0000E+00    5.010000E+06  0.00800  2.668E-02    0   0.9443   age055_m52            0.0000     4.1179E-01    20.0246   2.7466   102.2284
 21     24.2905     5.9212E-01    8.4126E-01    6.610000E+06  0.00800  2.136E-02    0   0.9177   age061_m52            0.0000     4.0120E-01    21.8457   1.3031   119.5040
 22      0.0000     0.0000E+00    0.0000E+00    1.000000E+07  0.00800  1.215E-02    0   0.8827   age070_m52            0.0000     4.1006E-01    31.0597   1.6489   142.0645
 23      0.0000     0.0000E+00    0.0000E+00    1.445000E+07  0.00800  8.717E-03    0   0.8552   age078_m52            0.0000     4.0643E-01    26.2672   1.9358   128.0608
 24      0.0000     0.0000E+00    0.0000E+00    2.512000E+07  0.00800  5.592E-03    0   0.8162   age090_m52            0.0000     4.0599E-01    28.2876   1.4716   139.0111
 25      0.0000     0.0000E+00    0.0000E+00    4.000000E+07  0.00800  3.896E-03    0   0.7841   age104_m52            0.0000     4.0464E-01    29.6443   1.3502   143.4003
 26      0.0000     0.0000E+00    0.0000E+00    1.015200E+08  0.00800  2.148E-03    0   0.7226   age116_m52            0.0000     4.0131E-01    26.6841   1.4078   134.7967
 27      0.0000     0.0000E+00    0.0000E+00    2.861200E+08  0.00800  9.925E-04    0   0.6683   age125_m52            0.0000     4.0173E-01    29.4860   0.8322   148.4543
 28      0.0000     0.0000E+00    0.0000E+00    9.047900E+08  0.00800  3.141E-04    0   0.6138   age135_m52            0.0000     4.1135E-01    22.9128   0.3063   132.5501
 29      0.0000     0.0000E+00    0.0000E+00    1.434000E+09  0.00800  1.719E-04    0   0.5853   age139_m52            0.0000     4.2994E-01    19.1476  -0.1011   116.9210
 30      0.0000     0.0000E+00    0.0000E+00    2.500000E+09  0.00800  7.872E-05    0   0.5600   age150_m52            0.0000     4.1155E-01    18.6172  -0.1091    99.5556
 31      0.0000     0.0000E+00    0.0000E+00    4.250000E+09  0.00800  4.336E-05    0   0.5426   age158_m52            0.0000     4.0991E-01    18.6351  -0.0887    96.6434
 32      0.0000     0.0000E+00    0.0000E+00    6.250000E+09  0.00800  3.159E-05    0   0.5319   age166_m52            0.0000     4.1310E-01    19.2354  -0.2081    92.6697
 33      0.0000     0.0000E+00    0.0000E+00    1.300000E+10  0.00800  1.361E-05    0   0.5073   age193_m52            0.0000     4.1357E-01    20.1017  -0.5252    84.9934
 34      0.0000     0.0000E+00    0.0000E+00    1.800000E+10  0.00800  9.886E-06    0   0.4990   age213_m52            0.0000     4.1452E-01    20.7771  -0.5561    81.4220
 35      0.0000     0.0000E+00    0.0000E+00    1.000000E+06  0.02000  1.544E-02    0   1.0000   age020_m62            0.0000     4.1041E-01    20.2039   3.1160    96.6405
 36      0.0000     0.0000E+00    0.0000E+00    3.160000E+06  0.02000  3.762E-02    0   0.9858   age045_m62            0.0000     4.1509E-01    20.0660   3.0663    96.8997
 37      0.0000     0.0000E+00    0.0000E+00    5.010000E+06  0.02000  3.296E-02    0   0.9342   age055_m62            0.0000     4.0853E-01    20.1783   2.6091   105.5652
 38      0.0000     0.0000E+00    0.0000E+00    8.710000E+06  0.02000  1.154E-02    0   0.8861   age067_m62            0.0000     4.2519E-01    42.0647   0.6694   180.4106
 39      0.0000     0.0000E+00    0.0000E+00    1.445000E+07  0.02000  7.663E-03    0   0.8472   age078_m62            0.0000     4.1680E-01    36.4182   1.0920   161.1420
 40      0.0000     0.0000E+00    0.0000E+00    2.512000E+07  0.02000  4.532E-03    0   0.8099   age090_m62            0.0000     4.2063E-01    38.7978   1.0044   167.8206
 41      0.0000     0.0000E+00    0.0000E+00    5.500000E+07  0.02000  2.733E-03    0   0.7595   age110_m62            0.0000     4.0642E-01    28.2688   1.3734   138.9568
 42      0.0000     0.0000E+00    0.0000E+00    1.609000E+08  0.02000  1.369E-03    0   0.6985   age120_m62            0.0000     4.0046E-01    27.6539   1.2520   140.9644
 43      0.0000     0.0000E+00    0.0000E+00    2.861200E+08  0.02000  9.013E-04    0   0.6714   age125_m62            0.0000     3.9885E-01    24.5895   1.1150   136.0876
 44     80.3428     8.3200E+01    8.3068E+01    5.088000E+08  0.02000  5.028E-04    0   0.6449   age130_m62            0.0000     3.9691E-01    21.8648   0.9093   127.7400
 45      0.0000     0.0000E+00    0.0000E+00    9.047900E+08  0.02000  2.428E-04    0   0.6179   age135_m62            0.0000     4.0250E-01    20.0943   0.4564   118.0931
 46      0.0000     0.0000E+00    0.0000E+00    1.434000E+09  0.02000  1.263E-04    0   0.5908   age139_m62            0.0000     4.0572E-01    18.5967   0.1939   104.8478
 47      0.0000     0.0000E+00    0.0000E+00    2.500000E+09  0.02000  5.985E-05    0   0.5673   age150_m62            0.0000     4.0953E-01    19.2613   0.0130    93.7584
 48      0.0000     0.0000E+00    0.0000E+00    4.250000E+09  0.02000  3.271E-05    0   0.5468   age158_m62            0.0000     4.1157E-01    20.2712  -0.0933    83.6128
 49      0.0000     0.0000E+00    0.0000E+00    1.000000E+10  0.02000  1.360E-05    0   0.5167   age181_m62            0.0000     4.1557E-01    21.3785  -0.3351    79.0363
 50      0.0000     0.0000E+00    0.0000E+00    1.800000E+10  0.02000  7.124E-06    0   0.5013   age213_m62            0.0000     4.1987E-01    22.2241  -0.4711    75.7218
 51      0.0000     0.0000E+00    0.0000E+00    1.000000E+06  0.05000  2.592E-02    0   0.9998   age020_m72            0.0000     4.0901E-01    20.1247   3.1190    95.9670
 52      0.0000     0.0000E+00    0.0000E+00    3.160000E+06  0.05000  4.845E-02    0   0.9577   age045_m72            0.0000     4.1414E-01    19.7167   2.9526    98.1022
 53      0.0000     0.0000E+00    0.0000E+00    5.010000E+06  0.05000  3.072E-02    0   0.9147   age055_m72            0.0000     4.2978E-01    42.8728   1.5795   167.1888
 54      0.0000     0.0000E+00    0.0000E+00    6.610000E+06  0.05000  1.455E-02    0   0.8877   age061_m72            0.0000     5.2863E-01    90.5732  -0.2702   318.0257
 55      0.0000     0.0000E+00    0.0000E+00    1.000000E+07  0.05000  9.074E-03    0   0.8524   age070_m72            0.0000     5.0812E-01    76.1259   1.0770   250.4796
 56      0.0000     0.0000E+00    0.0000E+00    2.512000E+07  0.05000  4.250E-03    0   0.7902   age090_m72            0.0000     4.4505E-01    53.4045   1.1862   199.0402
 57      0.0000     0.0000E+00    0.0000E+00    4.000000E+07  0.05000  3.087E-03    0   0.7618   age104_m72            0.0000     4.4705E-01    49.1721   1.0185   193.6873
 58      0.0000     0.0000E+00    0.0000E+00    1.015200E+08  0.05000  1.700E-03    0   0.7096   age116_m72            0.0000     4.0650E-01    31.5809   1.2447   152.0319
 59      0.0946     6.6727E-02    6.8522E-02    2.861200E+08  0.05000  7.384E-04    0   0.6633   age125_m72            0.0000     3.9914E-01    22.6251   1.0801   130.8684
 60     11.6737     1.5916E+01    1.5701E+01    5.088000E+08  0.05000  3.819E-04    0   0.6372   age130_m72            0.0000     3.9981E-01    18.5253   0.8906   112.6967
 61      0.0000     0.0000E+00    0.0000E+00    9.047900E+08  0.05000  1.676E-04    0   0.6110   age135_m72            0.0000     4.0293E-01    19.1066   0.5426    91.7515
 62      0.0000     0.0000E+00    0.0000E+00    1.434000E+09  0.05000  8.837E-05    0   0.5874   age139_m72            0.0000     4.1138E-01    19.4147   0.0236    94.5806
 63      0.0000     0.0000E+00    0.0000E+00    2.500000E+09  0.05000  4.233E-05    0   0.5598   age150_m72            0.0000     4.1347E-01    20.6209  -0.0677    83.3280
 64      0.0000     0.0000E+00    0.0000E+00    6.250000E+09  0.05000  1.435E-05    0   0.5249   age166_m72            0.0000     4.2318E-01    21.7063  -0.3274    74.1686
 65      0.0000     0.0000E+00    0.0000E+00    1.300000E+10  0.05000  6.513E-06    0   0.5036   age193_m72            0.0000     4.2998E-01    22.7404  -0.5310    72.3448
 66      0.0000     0.0000E+00    0.0000E+00    1.800000E+10  0.05000  4.527E-06    0   0.4945   age213_m72            0.0000     4.3695E-01    23.3331  -0.6575    71.2117


## Synthesis Results - Average & Chains ##

# j      x_j: min, <> & last-chain-values for 1 ...  7 chains
  1      0.0000      0.2807      0.0000      0.0000      0.5116      2.2442      1.5993      0.0000      0.5239
  2      0.0000      0.8654      2.6471      1.3365      0.0000      1.2925      0.0000      0.0000      0.0000
  3      0.0000      0.7235      0.0000      4.6622      1.6542      0.0000      1.2699      0.0000      3.2171
  4      0.0000      0.9216      0.0000      0.0000      0.0000      0.0000      4.5980      0.0000      0.0000
  5      0.9433      1.2368      0.0000      0.0000      0.0000      0.0000      0.0000      2.3960      0.3788
  6      0.0000      0.2605      0.0000      0.0000      1.8674      0.4643      0.0000      0.0000      0.0000
  7      0.7613      1.3474      1.7692      8.7786      0.1463      2.0226      0.0000      7.4295      0.0000
  8      0.0000      2.6347      0.0000      0.0000      7.6169      1.8590      1.6433      0.0000      0.0000
  9      0.0000      1.4535      0.0000      5.3320      1.4809      0.0000      0.0000      0.0000      2.5827
 10      0.0000      2.3303      0.0000      0.0000     12.7118      0.2051      0.0000      0.0000      0.4854
 11      0.0000      3.0481      0.0000      0.0000      0.0000      0.0000      0.0000      0.0000      0.0000
 12      0.0000      5.4628      0.0000      1.0589      0.0000      0.0000      0.0000      0.0000      0.0000
 13      0.0000      0.2578      1.0480      0.0000      0.3467      0.2463      0.0000      0.0000      0.0000
 14      0.0000      0.0931      0.0000      0.0000      0.0000      0.7083      0.0000      0.0000      0.0000
 15      0.0000      0.0305      0.0000      0.0000      0.4650      0.0000      0.0000      0.0000      0.0000
 16      0.0000      0.0357      0.0000      0.4772      0.0000      0.0000      0.0000      0.0000      0.0000
 17      0.0000      0.0110      0.0000      0.0904      0.0000      0.0000      0.0000      0.0000      0.0000
 18      2.6769      0.1699      1.8019      0.0000      0.5607      1.5422      0.0000      1.6891      0.0000
 19      0.0000      0.2600      0.0000      0.0000      0.1408      0.0000      0.0000      0.0000      0.0000
 20      0.0000      0.1516      0.0000      0.0000      0.0000      0.0000      0.1009      0.0000      0.0000
 21     24.2905     10.1232     16.4641      5.9330      4.7243     14.0326     14.0196     25.1663     28.4222
 22      0.0000      0.5862      0.0000      0.0000      0.0000      0.0000      0.0000      0.0000      0.0000
 23      0.0000      0.4786      3.3751      0.0000      0.0000      0.0000      0.0000      2.2331      0.5767
 24      0.0000      0.6959      0.0000      0.0000      1.2308      0.0000      0.0000      0.0268      2.1611
 25      0.0000      1.1669      0.0000      0.0000      0.0000      5.7780      0.0000      0.0000      0.0000
 26      0.0000      0.7593      3.3745      0.0000      1.4181      2.7625      2.1210      0.0000      0.0000
 27      0.0000      4.9121      0.0000      0.0000      4.8269      0.0000      2.6933      2.7340      0.3999
 28      0.0000      0.6974      0.0000      0.0000      0.0909      0.5038      0.2879      0.0000      0.0000
 29      0.0000      0.0705      0.0000      0.0000      0.0000      0.0000      0.1729      0.0000      0.0000
 30      0.0000      0.0777      0.0000      0.5019      0.0000      0.2356      0.0000      0.0000      0.0000
 31      0.0000      0.0830      0.0000      0.0000      0.0445      0.0000      0.0000      0.0000      0.8711
 32      0.0000      0.1855      0.0000      0.0000      0.0000      0.0000      0.9277      0.0000      0.0000
 33      0.0000      0.0247      0.0000      0.0000      0.0000      0.6527      0.0082      0.0000      0.0000
 34      0.0000      0.0177      0.0000      0.0000      0.0000      0.0000      0.0000      0.0000      0.0000
 35      0.0000      0.5462      0.0000      0.0000      0.0000      0.0000      4.1949      0.0000      0.0000
 36      0.0000      0.1807      0.0000      0.0000      0.0000      0.3216      0.0000      0.0000      0.0000
 37      0.0000      0.1943      0.0000      0.0000      0.0000      0.4970      0.9021      0.0000      0.0000
 38      0.0000      0.9444      0.0000      0.0000      0.4886      0.0000      0.0000      0.0000      0.0000
 39      0.0000      0.9899      0.0000      0.0000      0.0000      0.0000      0.0000      0.0000      4.3011
 40      0.0000      0.9677      0.0000      0.0000      0.0000      0.0000      0.5301      0.7754      0.0000
 41      0.0000      1.0410      0.0000      0.0000      0.0000      0.5213      0.3346      0.8355      0.0000
 42      0.0000      1.6261      2.5410      4.8386      0.0000      0.4844      0.0000      0.0000      1.5891
 43      0.0000      6.7472      3.2989      6.4770      0.0000     13.3857      0.0000      0.7885     18.9719
 44     80.3428     27.2182     39.1410     40.4908     28.6749     39.2855     35.5694     45.6757     34.9898
 45      0.0000      2.6636      5.5738      1.4649      0.0000      2.1755      4.0792      2.0953      0.7683
 46      0.0000      0.3862      0.2117      0.0000      1.9291      0.0000      0.0000      0.0000      0.0000
