###################################################################
## OUTPUT of StarlightChains_v04.for    [Cid@UFSC - 01/Apr/2007] ##
###################################################################

## Some input info
1999dk.txt                               [arq_obs]
Base.CB07.vall.4m                        [arq_base]
Masks.EmLines.NEW.gm                     [arq_masks]
StCv04.C11.config                        [arq_config]
   66                                    [N_base]
    0                                    [N_YAV_components = # of components with extra extinction!]
    0                                    [i_FitPowerLaw (1/0 = Yes/No)]
-9.99                                    [alpha_PowerLaw]
CCM                                      [red_law_option]
 1.458241                                [q_norm = A(l_norm)/A(V)]

## (Re)Sampling Parameters
 3741.00                                 [l_ini (A)]
 7218.00                                 [l_fin (A)]
    1.00                                 [dl    (A)]     (OBS: dl_cushion =    50.00 A)

## Normalization info
 4020.00                                 [l_norm (A) - for base]
 4010.00                                 [llow_norm (A) - window for f_obs]
 4060.00                                 [lupp_norm (A) - window for f_obs]
3.256471E-17                             [fobs_norm (in input units)]

## S/N
 3691.00                                 [llow_SN (A) - window for S/N]
 7268.00                                 [lupp_SN (A) - window for S/N]
   4.779                                 [S/N in S/N window]
   6.106                                 [S/N in norm. window]
  10.000                                 [S/N_err in S/N window]
  12.778                                 [S/N_err in norm. window]
  1.0000                                 [fscale_chi2]

## etc...
    -2007238                             [idum_orig]
  2232                                   [NOl_eff]
  2035                                   [Nl_eff]
   197    NSIGMA                         [Ntot_cliped & clip_method]
   852180                                [Nglobal_steps]
   7                                     [N_chains]
  16                                     [NEX0s_base = N_base in EX0s-fits]
 0   0   1        6   2.0   5.607E+01    [Clip-Bug, RC-Crash & Burn-In warning-flags, n_censored_weights, wei_nsig_threshold & wei_limit]
    12     11.263     10.772      0.491  [idt_all, wdt_TotTime, wdt_UsrTime & wdt_SysTime (sec)]

## Synthesis Results - Best model ##

 1.58163E+00                             [chi2/Nl_eff]
    10.02209                             [adev (%)]

    93.73642                             [sum-of-x (%)]
 2.02822E-17                             [Flux_tot (units of input spectrum!)]
 2.91308E-13                             [Mini_tot (???)]
 1.55533E-13                             [Mcor_tot (???)]

 134.85                                  [v0_min  (km/s)]
 121.41                                  [vd_min  (km/s)]
-0.3044                                  [AV_min  (mag)]
 0.0000                                  [YAV_min (mag)]

# j     x_j(%)      Mini_j(%)     Mcor_j(%)     age_j(yr)     Z_j      (L/M)_j    YAV?  Mstars   component_j        a/Fe...       SSP_chi2r SSP_adev(%)   SSP_AV   SSP_x(%)
  1      0.0000     0.0000E+00    0.0000E+00    1.000000E+06  0.00400  1.094E-02    0   1.0000   age020_m42            0.0000     2.7960E+00    12.1489   2.7872    74.6443
  2      0.0000     0.0000E+00    0.0000E+00    3.160000E+06  0.00400  4.007E-02    0   0.9999   age045_m42            0.0000     2.3511E+00    11.3422   2.0399    80.6737
  3      0.0000     0.0000E+00    0.0000E+00    5.010000E+06  0.00400  2.539E-02    0   0.9488   age055_m42            0.0000     2.5742E+00    11.7090   2.3733    78.1718
  4      0.0000     0.0000E+00    0.0000E+00    6.610000E+06  0.00400  2.620E-02    0   0.9220   age061_m42            0.0000     2.3751E+00    11.3048   1.9691    80.7886
  5      0.0000     0.0000E+00    0.0000E+00    1.000000E+07  0.00400  1.322E-02    0   0.8862   age070_m42            0.0000     2.5620E+00    11.6045   1.7000    82.1573
  6      0.0000     0.0000E+00    0.0000E+00    1.445000E+07  0.00400  7.883E-03    0   0.8571   age078_m42            0.0000     2.6664E+00    11.7946   2.0326    79.8190
  7      0.0000     0.0000E+00    0.0000E+00    2.512000E+07  0.00400  5.251E-03    0   0.8174   age090_m42            0.0000     2.5751E+00    11.6372   1.5690    82.6745
  8      0.0000     0.0000E+00    0.0000E+00    4.000000E+07  0.00400  3.649E-03    0   0.7851   age104_m42            0.0000     2.4398E+00    11.4128   1.3324    83.7539
  9      0.0000     0.0000E+00    0.0000E+00    5.500000E+07  0.00400  3.098E-03    0   0.7629   age110_m42            0.0000     2.3538E+00    11.1938   1.4832    83.8252
 10      0.0000     0.0000E+00    0.0000E+00    1.015200E+08  0.00400  2.228E-03    0   0.7207   age116_m42            0.0000     2.3094E+00    11.0664   1.5013    84.0430
 11      0.0000     0.0000E+00    0.0000E+00    2.861200E+08  0.00400  1.093E-03    0   0.6648   age125_m42            0.0000     2.2136E+00    10.9813   0.9273    87.0236
 12      0.0000     0.0000E+00    0.0000E+00    5.088000E+08  0.00400  6.597E-04    0   0.6365   age130_m42            0.0000     2.0758E+00    10.7485   0.9039    88.2361
 13      0.0014     4.8201E-04    5.2343E-04    1.434000E+09  0.00400  2.132E-04    0   0.5798   age139_m42            0.0000     1.7147E+00    10.2332  -0.1076    91.6921
 14      0.0638     8.0449E-02    8.1019E-02    4.250000E+09  0.00400  5.895E-05    0   0.5377   age158_m42            0.0000     1.6267E+00    10.1350  -0.5755    89.1934
 15     11.8584     2.5094E+01    2.4497E+01    7.500000E+09  0.00400  3.510E-05    0   0.5212   age171_m42            0.0000     1.6644E+00    10.2714  -0.7709    88.9211
 16      1.4324     5.3065E+00    5.0033E+00    1.300000E+10  0.00400  2.005E-05    0   0.5034   age193_m42            0.0000     1.7265E+00    10.4619  -0.9412    88.6937
 17      3.7070     1.8056E+01    1.6797E+01    1.800000E+10  0.00400  1.525E-05    0   0.4967   age213_m42            0.0000     1.7222E+00    10.4452  -0.9632    88.2582
 18      0.0000     0.0000E+00    0.0000E+00    1.000000E+06  0.00800  1.238E-02    0   1.0000   age020_m52            0.0000     2.7959E+00    12.1552   2.7841    74.7741
 19      0.0000     0.0000E+00    0.0000E+00    3.160000E+06  0.00800  3.074E-02    0   0.9966   age045_m52            0.0000     2.7698E+00    12.1092   2.7059    75.4750
 20      0.0000     0.0000E+00    0.0000E+00    5.010000E+06  0.00800  2.668E-02    0   0.9443   age055_m52            0.0000     2.6238E+00    11.8081   2.4583    77.3805
 21      0.0000     0.0000E+00    0.0000E+00    6.610000E+06  0.00800  2.136E-02    0   0.9177   age061_m52            0.0000     2.2979E+00    11.2580   1.1721    84.2071
 22      0.0000     0.0000E+00    0.0000E+00    1.000000E+07  0.00800  1.215E-02    0   0.8827   age070_m52            0.0000     2.6746E+00    11.8493   1.8869    81.7482
 23      0.0000     0.0000E+00    0.0000E+00    1.445000E+07  0.00800  8.717E-03    0   0.8552   age078_m52            0.0000     2.6146E+00    11.7138   1.9947    81.0658
 24      0.0000     0.0000E+00    0.0000E+00    2.512000E+07  0.00800  5.592E-03    0   0.8162   age090_m52            0.0000     2.5444E+00    11.6116   1.6329    83.7189
 25      0.0000     0.0000E+00    0.0000E+00    4.000000E+07  0.00800  3.896E-03    0   0.7841   age104_m52            0.0000     2.4115E+00    11.3607   1.5380    84.6805
 26      0.0000     0.0000E+00    0.0000E+00    1.015200E+08  0.00800  2.148E-03    0   0.7226   age116_m52            0.0000     2.2298E+00    11.0211   1.4634    85.0093
 27      0.0000     0.0000E+00    0.0000E+00    2.861200E+08  0.00800  9.925E-04    0   0.6683   age125_m52            0.0000     2.0363E+00    10.6740   0.9677    89.1434
 28     46.9767     1.1109E+01    1.2771E+01    9.047900E+08  0.00800  3.141E-04    0   0.6138   age135_m52            0.0000     1.6108E+00    10.1012   0.1182    95.1290
 29      0.0000     0.0000E+00    0.0000E+00    1.434000E+09  0.00800  1.719E-04    0   0.5853   age139_m52            0.0000     1.6121E+00    10.0917  -0.4631    93.2997
 30      0.0052     4.9222E-03    5.1627E-03    2.500000E+09  0.00800  7.872E-05    0   0.5600   age150_m52            0.0000     1.6490E+00    10.2556  -0.7489    91.3880
 31      6.6793     1.1442E+01    1.1628E+01    4.250000E+09  0.00800  4.336E-05    0   0.5426   age158_m52            0.0000     1.6758E+00    10.3298  -0.7685    90.6876
 32     11.3620     2.6715E+01    2.6614E+01    6.250000E+09  0.00800  3.159E-05    0   0.5319   age166_m52            0.0000     1.7604E+00    10.6088  -0.9787    91.0180
 33      0.0000     0.0000E+00    0.0000E+00    1.300000E+10  0.00800  1.361E-05    0   0.5073   age193_m52            0.0000     2.6673E+00    12.5417  -1.0000    76.4618
 34      0.0000     0.0000E+00    0.0000E+00    1.800000E+10  0.00800  9.886E-06    0   0.4990   age213_m52            0.0000     3.1710E+00    13.4794  -1.0000    72.8353
 35      0.0000     0.0000E+00    0.0000E+00    1.000000E+06  0.02000  1.544E-02    0   1.0000   age020_m62            0.0000     2.8098E+00    12.1850   2.7804    74.9305
 36      0.0000     0.0000E+00    0.0000E+00    3.160000E+06  0.02000  3.762E-02    0   0.9858   age045_m62            0.0000     2.8049E+00    12.1775   2.7192    75.6016
 37      0.0000     0.0000E+00    0.0000E+00    5.010000E+06  0.02000  3.296E-02    0   0.9342   age055_m62            0.0000     2.4828E+00    11.5211   2.3268    79.3834
 38      0.0000     0.0000E+00    0.0000E+00    8.710000E+06  0.02000  1.154E-02    0   0.8861   age067_m62            0.0000     3.4234E+00    13.4540   1.3607    83.4219
 39      0.0000     0.0000E+00    0.0000E+00    1.445000E+07  0.02000  7.663E-03    0   0.8472   age078_m62            0.0000     2.7342E+00    12.0623   1.5343    83.7823
 40      0.0000     0.0000E+00    0.0000E+00    2.512000E+07  0.02000  4.532E-03    0   0.8099   age090_m62            0.0000     2.8118E+00    12.1738   1.5329    83.3442
 41      0.0000     0.0000E+00    0.0000E+00    5.500000E+07  0.02000  2.733E-03    0   0.7595   age110_m62            0.0000     2.4574E+00    11.4018   1.5242    83.9347
 42      0.0000     0.0000E+00    0.0000E+00    1.609000E+08  0.02000  1.369E-03    0   0.6985   age120_m62            0.0000     2.2517E+00    10.9793   1.3488    86.8107
 43      0.0000     0.0000E+00    0.0000E+00    2.861200E+08  0.02000  9.013E-04    0   0.6714   age125_m62            0.0000     2.0973E+00    10.7822   1.0803    90.0540
 44     10.0248     1.4809E+00    1.7888E+00    5.088000E+08  0.02000  5.028E-04    0   0.6449   age130_m62            0.0000     1.7552E+00    10.3573   0.6654    94.0665
 45      0.0672     2.0567E-02    2.3803E-02    9.047900E+08  0.02000  2.428E-04    0   0.6179   age135_m62            0.0000     1.5947E+00    10.0574   0.0561    94.5733
 46      0.0000     0.0000E+00    0.0000E+00    1.434000E+09  0.02000  1.263E-04    0   0.5908   age139_m62            0.0000     1.6458E+00    10.2203  -0.3947    93.4560
 47      0.0000     0.0000E+00    0.0000E+00    2.500000E+09  0.02000  5.985E-05    0   0.5673   age150_m62            0.0000     1.7400E+00    10.5582  -0.7740    92.7031
 48      0.0000     0.0000E+00    0.0000E+00    4.250000E+09  0.02000  3.271E-05    0   0.5468   age158_m62            0.0000     1.9486E+00    11.1063  -1.0000    89.4258
 49      0.0000     0.0000E+00    0.0000E+00    1.000000E+10  0.02000  1.360E-05    0   0.5167   age181_m62            0.0000     2.8994E+00    13.0030  -1.0000    78.0267
 50      0.0000     0.0000E+00    0.0000E+00    1.800000E+10  0.02000  7.124E-06    0   0.5013   age213_m62            0.0000     3.8457E+00    14.6441  -1.0000    71.0603
 51      0.0000     0.0000E+00    0.0000E+00    1.000000E+06  0.05000  2.592E-02    0   0.9998   age020_m72            0.0000     2.8592E+00    12.3033   2.7767    74.7891
 52      0.0000     0.0000E+00    0.0000E+00    3.160000E+06  0.05000  4.845E-02    0   0.9577   age045_m72            0.0000     2.6801E+00    11.9467   2.5958    76.8385
 53      0.0000     0.0000E+00    0.0000E+00    5.010000E+06  0.05000  3.072E-02    0   0.9147   age055_m72            0.0000     2.7469E+00    12.0252   2.1331    80.1458
 54      0.0000     0.0000E+00    0.0000E+00    6.610000E+06  0.05000  1.455E-02    0   0.8877   age061_m72            0.0000     3.8686E+00    14.4344   1.4479    83.4909
 55      0.0000     0.0000E+00    0.0000E+00    1.000000E+07  0.05000  9.074E-03    0   0.8524   age070_m72            0.0000     2.8115E+00    12.1487   2.3423    79.4271
 56      0.0000     0.0000E+00    0.0000E+00    2.512000E+07  0.05000  4.250E-03    0   0.7902   age090_m72            0.0000     2.6710E+00    11.8386   2.0199    81.4656
 57      0.0000     0.0000E+00    0.0000E+00    4.000000E+07  0.05000  3.087E-03    0   0.7618   age104_m72            0.0000     2.6463E+00    11.7967   1.7887    82.9823
 58      0.0000     0.0000E+00    0.0000E+00    1.015200E+08  0.05000  1.700E-03    0   0.7096   age116_m72            0.0000     2.3488E+00    11.1889   1.5018    86.1010
 59      0.0000     0.0000E+00    0.0000E+00    2.861200E+08  0.05000  7.384E-04    0   0.6633   age125_m72            0.0000     1.9166E+00    10.5676   0.9299    92.0696
 60      0.0000     0.0000E+00    0.0000E+00    5.088000E+08  0.05000  3.819E-04    0   0.6372   age130_m72            0.0000     1.6447E+00    10.1355   0.4016    95.0683
 61      1.5581     6.9054E-01    7.9024E-01    9.047900E+08  0.05000  1.676E-04    0   0.6110   age135_m72            0.0000     1.6884E+00    10.3874  -0.3174    94.3511
 62      0.0000     0.0000E+00    0.0000E+00    1.434000E+09  0.05000  8.837E-05    0   0.5874   age139_m72            0.0000     1.7951E+00    10.7095  -0.7756    94.1136
 63      0.0000     0.0000E+00    0.0000E+00    2.500000E+09  0.05000  4.233E-05    0   0.5598   age150_m72            0.0000     2.0259E+00    11.3163  -1.0000    90.1952
 64      0.0000     0.0000E+00    0.0000E+00    6.250000E+09  0.05000  1.435E-05    0   0.5249   age166_m72            0.0000     3.2590E+00    13.7007  -1.0000    74.7404
 65      0.0000     0.0000E+00    0.0000E+00    1.300000E+10  0.05000  6.513E-06    0   0.5036   age193_m72            0.0000     4.6922E+00    16.0585  -1.0000    67.0912
 66      0.0000     0.0000E+00    0.0000E+00    1.800000E+10  0.05000  4.527E-06    0   0.4945   age213_m72            0.0000     5.6455E+00    17.5037  -1.0000    62.4171


## Synthesis Results - Average & Chains ##

# j      x_j: min, <> & last-chain-values for 1 ...  7 chains
  1      0.0000      0.0460      0.0000      0.0000      0.0000      0.0000      0.0000      0.0000      0.0000
  2      0.0000      0.0974      0.0000      0.0000      0.0000      0.0000      0.0000      0.0000      0.0000
  3      0.0000      0.0779      0.0000      0.0000      0.0000      0.0000      0.0000      0.8445      0.0000
  4      0.0000      0.0669      0.0000      0.0000      0.0000      0.0000      0.0000      0.0000      0.0000
  5      0.0000      0.0672      0.0000      0.0000      0.0000      0.0000      0.0000      0.0000      0.0000
  6      0.0000      0.0328      0.0000      0.0000      0.0000      0.0000      0.0000      0.0000      0.0000
  7      0.0000      0.0324      0.0000      0.0000      0.0000      0.0000      0.0000      0.0000      0.0000
  8      0.0000      0.0776      0.0000      0.0000      0.0506      0.0000      0.0000      0.0000      0.0000
  9      0.0000      0.1344      0.0000      0.0000      0.0000      0.0000      0.0000      0.0000      0.0000
 10      0.0000      0.1260      0.0000      0.0000      0.0000      0.0000      0.0000      0.0000      0.0675
 11      0.0000      0.2970      0.0000      0.0000      0.0000      0.2892      0.0000      0.0000      0.0000
 12      0.0000      0.2728      0.0000      0.0000      0.0000      0.0000      0.0000      0.0000      0.0000
 13      0.0014      3.2650      1.2112     10.0612      1.7726      3.5659      2.1538      1.2113      2.6241
 14      0.0638      6.8089      6.6504      7.6136      6.8346      9.1829     10.1413      7.9343      3.0512
 15     11.8584      4.9332     10.3385      5.2182      5.3099      3.7254      7.4560      9.1388      3.2040
 16      1.4324      2.2952      4.2486      5.1108      3.6511      0.2844      5.3587      4.4594      0.0000
 17      3.7070      3.0310      0.0000      2.8936      2.8201      6.5118      1.8112      4.2765      5.6639
 18      0.0000      0.0362      0.0000      0.0000      0.0000      0.0000      0.0000      0.0000      0.0000
 19      0.0000      0.0171      0.0000      0.0000      0.0000      0.0000      0.0000      0.0000      0.0000
 20      0.0000      0.0319      0.0000      0.0000      0.0000      0.0000      0.0000      0.0000      0.0000
 21      0.0000      0.0901      0.0000      0.0000      0.0000      0.0000      0.0000      0.0000      0.0000
 22      0.0000      0.0557      0.0000      0.0000      0.0000      0.0000      0.0000      0.0000      0.0000
 23      0.0000      0.0770      0.0000      0.0000      0.0000      0.0000      0.0781      0.0000      0.0000
 24      0.0000      0.0528      0.2621      0.0000      0.0000      0.0000      0.0000      0.0000      0.1366
 25      0.0000      0.0605      0.0000      0.0000      0.7854      0.0000      0.1154      0.0968      0.0000
 26      0.0000      0.0881      0.0000      0.0000      0.0000      0.0000      0.0000      0.0000      0.0000
 27      0.0000      0.1942      0.0000      0.0000      0.0000      0.0000      0.0000      0.0548      0.0000
 28     46.9767      9.8947     12.3483     14.4310     10.8145     13.1667     12.1345     10.9274     18.7780
 29      0.0000      4.2939      3.2462      4.2063      6.1629      0.3612      0.0000      3.0950      0.0000
 30      0.0052      4.9684      4.8392      4.8305      6.8514      5.4509      4.1762      2.8241      7.9260
 31      6.6793      3.4203      8.0151      0.5551      1.9852      1.6576      3.3186      1.6412      7.1554
 32     11.3620      1.4827      4.4162      1.2753      1.1930      6.9800      1.8184      0.0000      0.0000
 33      0.0000      0.6755      0.0000      0.0000      0.0000      0.0000      0.6535      3.5859      0.0000
 34      0.0000      0.4488      0.0000      0.0000      1.4268      0.0000      0.0035      0.0000      2.5227
 35      0.0000      0.0181      0.0000      0.0000      0.0000      0.0000      0.0000      0.0000      0.0000
 36      0.0000      0.0331      0.0000      0.0000      0.0000      0.0000      0.0000      0.0000      0.0000
 37      0.0000      0.0827      0.0000      0.0000      0.0000      0.0000      0.0000      0.0000      0.0000
 38      0.0000      0.0425      0.0000      0.0000      0.0000      0.0000      0.0000      0.0000      0.0000
 39      0.0000      0.0717      0.0000      0.0000      0.0000      0.0748      0.0000      0.0000      0.0000
 40      0.0000      0.0764      0.0000      0.0000      0.0000      0.0000      0.0000      0.0000      0.0000
 41      0.0000      0.0778      0.0000      0.0000      0.0000      0.0000      0.0000      0.0291      0.0000
 42      0.0000      0.1771      0.0000      0.0000      0.0000      0.0000      0.0000      0.0000      0.3012
 43      0.0000      0.3592      0.0000      0.0000      0.0000      0.0000      0.6681      0.0000      1.4672
 44     10.0248      7.5615     12.4207      5.3100      6.2476     10.0178      9.8067      8.4603      7.9578
 45      0.0672      7.9907      5.9000      8.8080     16.1279      5.7219     11.7835     13.0135      3.3879
 46      0.0000      3.1710      0.0000      5.8298      3.0597      0.0000      1.5298      0.0000      1.3869
