###################################################################
## OUTPUT of StarlightChains_v04.for    [Cid@UFSC - 01/Apr/2007] ##
###################################################################

## Some input info
1999aa.txt                               [arq_obs]
Base.CB07.vall.4m                        [arq_base]
Masks.EmLines.NEW.gm                     [arq_masks]
StCv04.C11.config                        [arq_config]
   66                                    [N_base]
    0                                    [N_YAV_components = # of components with extra extinction!]
    0                                    [i_FitPowerLaw (1/0 = Yes/No)]
-9.99                                    [alpha_PowerLaw]
CCM                                      [red_law_option]
 1.458241                                [q_norm = A(l_norm)/A(V)]

## (Re)Sampling Parameters
 3741.00                                 [l_ini (A)]
 7218.00                                 [l_fin (A)]
    1.00                                 [dl    (A)]     (OBS: dl_cushion =    50.00 A)

## Normalization info
 4020.00                                 [l_norm (A) - for base]
 4010.00                                 [llow_norm (A) - window for f_obs]
 4060.00                                 [lupp_norm (A) - window for f_obs]
8.218929E-17                             [fobs_norm (in input units)]

## S/N
 3691.00                                 [llow_SN (A) - window for S/N]
 7268.00                                 [lupp_SN (A) - window for S/N]
   7.068                                 [S/N in S/N window]
   8.124                                 [S/N in norm. window]
   8.572                                 [S/N_err in S/N window]
   9.853                                 [S/N_err in norm. window]
  1.0000                                 [fscale_chi2]

## etc...
    -2007234                             [idum_orig]
  2384                                   [NOl_eff]
  2383                                   [Nl_eff]
     1    NSIGMA                         [Ntot_cliped & clip_method]
  1160950                                [Nglobal_steps]
   7                                     [N_chains]
  19                                     [NEX0s_base = N_base in EX0s-fits]
 0   0   1        1   2.0   1.594E+01    [Clip-Bug, RC-Crash & Burn-In warning-flags, n_censored_weights, wei_nsig_threshold & wei_limit]
    11     11.362     10.866      0.495  [idt_all, wdt_TotTime, wdt_UsrTime & wdt_SysTime (sec)]

## Synthesis Results - Best model ##

 3.49881E-01                             [chi2/Nl_eff]
     5.46132                             [adev (%)]

   111.90537                             [sum-of-x (%)]
 7.70847E-17                             [Flux_tot (units of input spectrum!)]
 5.64069E-13                             [Mini_tot (???)]
 3.25362E-13                             [Mcor_tot (???)]

  75.08                                  [v0_min  (km/s)]
 159.56                                  [vd_min  (km/s)]
-0.1315                                  [AV_min  (mag)]
 0.0000                                  [YAV_min (mag)]

# j     x_j(%)      Mini_j(%)     Mcor_j(%)     age_j(yr)     Z_j      (L/M)_j    YAV?  Mstars   component_j        a/Fe...       SSP_chi2r SSP_adev(%)   SSP_AV   SSP_x(%)
  1      0.0000     0.0000E+00    0.0000E+00    1.000000E+06  0.00400  1.094E-02    0   1.0000   age020_m42            0.0000     8.3849E-01     8.9520   2.6141    95.9593
  2      0.0000     0.0000E+00    0.0000E+00    3.160000E+06  0.00400  4.007E-02    0   0.9999   age045_m42            0.0000     6.5405E-01     7.4990   1.9157   100.9940
  3      0.0000     0.0000E+00    0.0000E+00    5.010000E+06  0.00400  2.539E-02    0   0.9488   age055_m42            0.0000     7.3040E-01     8.0501   2.2231    99.1938
  4      0.0000     0.0000E+00    0.0000E+00    6.610000E+06  0.00400  2.620E-02    0   0.9220   age061_m42            0.0000     6.4187E-01     7.3384   1.8426   101.1377
  5      0.0000     0.0000E+00    0.0000E+00    1.000000E+07  0.00400  1.322E-02    0   0.8862   age070_m42            0.0000     6.2961E-01     7.1829   1.5484   103.4032
  6      0.0000     0.0000E+00    0.0000E+00    1.445000E+07  0.00400  7.883E-03    0   0.8571   age078_m42            0.0000     6.7939E-01     7.5610   1.8691   101.2080
  7      0.0000     0.0000E+00    0.0000E+00    2.512000E+07  0.00400  5.251E-03    0   0.8174   age090_m42            0.0000     6.2608E-01     7.1141   1.4183   103.8532
  8      0.0000     0.0000E+00    0.0000E+00    4.000000E+07  0.00400  3.649E-03    0   0.7851   age104_m42            0.0000     5.8330E-01     6.8694   1.1953   104.5188
  9      0.0000     0.0000E+00    0.0000E+00    5.500000E+07  0.00400  3.098E-03    0   0.7629   age110_m42            0.0000     5.7146E-01     6.7471   1.3598   104.1675
 10      0.0000     0.0000E+00    0.0000E+00    1.015200E+08  0.00400  2.228E-03    0   0.7207   age116_m42            0.0000     5.7106E-01     6.7101   1.3881   104.0785
 11      0.0000     0.0000E+00    0.0000E+00    2.861200E+08  0.00400  1.093E-03    0   0.6648   age125_m42            0.0000     5.3959E-01     6.5420   0.8198   106.9388
 12      0.0000     0.0000E+00    0.0000E+00    5.088000E+08  0.00400  6.597E-04    0   0.6365   age130_m42            0.0000     5.1566E-01     6.5111   0.8203   107.4943
 13      0.0000     0.0000E+00    0.0000E+00    1.434000E+09  0.00400  2.132E-04    0   0.5798   age139_m42            0.0000     3.9547E-01     5.7924  -0.1466   109.3938
 14      0.0000     0.0000E+00    0.0000E+00    4.250000E+09  0.00400  5.895E-05    0   0.5377   age158_m42            0.0000     4.1592E-01     6.0292  -0.5948   106.0626
 15      0.0000     0.0000E+00    0.0000E+00    7.500000E+09  0.00400  3.510E-05    0   0.5212   age171_m42            0.0000     4.4958E-01     6.3205  -0.7802   105.4035
 16      0.0000     0.0000E+00    0.0000E+00    1.300000E+10  0.00400  2.005E-05    0   0.5034   age193_m42            0.0000     4.9813E-01     6.6867  -0.9431   104.8990
 17      0.0000     0.0000E+00    0.0000E+00    1.800000E+10  0.00400  1.525E-05    0   0.4967   age213_m42            0.0000     4.9281E-01     6.6456  -0.9682   104.4926
 18      0.0000     0.0000E+00    0.0000E+00    1.000000E+06  0.00800  1.238E-02    0   1.0000   age020_m52            0.0000     8.3926E-01     8.9566   2.6105    96.1525
 19      0.0000     0.0000E+00    0.0000E+00    3.160000E+06  0.00800  3.074E-02    0   0.9966   age045_m52            0.0000     8.2959E-01     8.8478   2.5351    96.9383
 20      0.0000     0.0000E+00    0.0000E+00    5.010000E+06  0.00800  2.668E-02    0   0.9443   age055_m52            0.0000     7.4835E-01     8.1953   2.3008    98.5444
 21      0.0000     0.0000E+00    0.0000E+00    6.610000E+06  0.00800  2.136E-02    0   0.9177   age061_m52            0.0000     5.5170E-01     7.0684   1.0400   105.1029
 22      0.0000     0.0000E+00    0.0000E+00    1.000000E+07  0.00800  1.215E-02    0   0.8827   age070_m52            0.0000     6.5958E-01     7.4006   1.7198   103.4498
 23      0.0000     0.0000E+00    0.0000E+00    1.445000E+07  0.00800  8.717E-03    0   0.8552   age078_m52            0.0000     6.5508E-01     7.3880   1.8367   102.4616
 24      0.0000     0.0000E+00    0.0000E+00    2.512000E+07  0.00800  5.592E-03    0   0.8162   age090_m52            0.0000     6.0589E-01     6.9826   1.4835   104.9509
 25      0.0000     0.0000E+00    0.0000E+00    4.000000E+07  0.00800  3.896E-03    0   0.7841   age104_m52            0.0000     5.6805E-01     6.7417   1.4027   105.4709
 26      0.0003     1.6669E-05    2.0882E-05    1.015200E+08  0.00800  2.148E-03    0   0.7226   age116_m52            0.0000     5.4134E-01     6.5629   1.3511   105.0201
 27      0.0000     0.0000E+00    0.0000E+00    2.861200E+08  0.00800  9.925E-04    0   0.6683   age125_m52            0.0000     4.9327E-01     6.3718   0.8852   108.4292
 28     42.8775     1.6670E+01    1.7739E+01    9.047900E+08  0.00800  3.141E-04    0   0.6138   age135_m52            0.0000     3.9826E-01     5.9021   0.1013   112.3280
 29      0.0000     0.0000E+00    0.0000E+00    1.434000E+09  0.00800  1.719E-04    0   0.5853   age139_m52            0.0000     3.7802E-01     5.7062  -0.4877   110.6741
 30      0.0000     0.0000E+00    0.0000E+00    2.500000E+09  0.00800  7.872E-05    0   0.5600   age150_m52            0.0000     4.3451E-01     6.2380  -0.7539   108.0372
 31      0.0056     1.5687E-02    1.4756E-02    4.250000E+09  0.00800  4.336E-05    0   0.5426   age158_m52            0.0000     4.5254E-01     6.3811  -0.7704   107.1343
 32      0.0093     3.5987E-02    3.3185E-02    6.250000E+09  0.00800  3.159E-05    0   0.5319   age166_m52            0.0000     5.2884E-01     6.9261  -0.9675   107.0616
 33      0.0000     0.0000E+00    0.0000E+00    1.300000E+10  0.00800  1.361E-05    0   0.5073   age193_m52            0.0000     1.3667E+00    10.6153  -1.0000    89.7622
 34      0.0000     0.0000E+00    0.0000E+00    1.800000E+10  0.00800  9.886E-06    0   0.4990   age213_m52            0.0000     1.8203E+00    12.1327  -1.0000    85.4575
 35      0.0000     0.0000E+00    0.0000E+00    1.000000E+06  0.02000  1.544E-02    0   1.0000   age020_m62            0.0000     8.4676E-01     9.0035   2.6045    96.4664
 36      0.0000     0.0000E+00    0.0000E+00    3.160000E+06  0.02000  3.762E-02    0   0.9858   age045_m62            0.0000     8.4926E-01     8.9829   2.5433    97.3577
 37      0.0000     0.0000E+00    0.0000E+00    5.010000E+06  0.02000  3.296E-02    0   0.9342   age055_m62            0.0000     7.0236E-01     7.7874   2.1870   100.2467
 38     16.3738     1.7327E-01    2.6618E-01    8.710000E+06  0.02000  1.154E-02    0   0.8861   age067_m62            0.0000     9.0253E-01     8.9448   1.1391   107.0130
 39      0.0000     0.0000E+00    0.0000E+00    1.445000E+07  0.02000  7.663E-03    0   0.8472   age078_m62            0.0000     6.7014E-01     7.5714   1.3575   105.9468
 40      0.0000     0.0000E+00    0.0000E+00    2.512000E+07  0.02000  4.532E-03    0   0.8099   age090_m62            0.0000     6.9255E-01     7.5736   1.3519   105.4621
 41      0.0000     0.0000E+00    0.0000E+00    5.500000E+07  0.02000  2.733E-03    0   0.7595   age110_m62            0.0000     5.7751E-01     6.8004   1.3821   104.9168
 42      0.0000     0.0000E+00    0.0000E+00    1.609000E+08  0.02000  1.369E-03    0   0.6985   age120_m62            0.0000     5.3866E-01     6.5261   1.2401   106.9843
 43      0.0000     0.0000E+00    0.0000E+00    2.861200E+08  0.02000  9.013E-04    0   0.6714   age125_m62            0.0000     5.1635E-01     6.5452   1.0007   109.5043
 44      0.0000     0.0000E+00    0.0000E+00    5.088000E+08  0.02000  5.028E-04    0   0.6449   age130_m62            0.0000     4.7295E-01     6.5430   0.6382   111.9010
 45      0.0000     0.0000E+00    0.0000E+00    9.047900E+08  0.02000  2.428E-04    0   0.6179   age135_m62            0.0000     4.0410E-01     6.0102   0.0492   111.6171
 46      0.4824     4.6646E-01    4.7777E-01    1.434000E+09  0.02000  1.263E-04    0   0.5908   age139_m62            0.0000     4.1760E-01     6.0908  -0.3999   110.3905
 47      6.0657     1.2377E+01    1.2173E+01    2.500000E+09  0.02000  5.985E-05    0   0.5673   age150_m62            0.0000     5.1054E-01     6.8327  -0.7639   109.1209
 48      0.0000     0.0000E+00    0.0000E+00    4.250000E+09  0.02000  3.271E-05    0   0.5468   age158_m62            0.0000     6.7888E-01     7.8926  -1.0000   105.6526
 49      0.0000     0.0000E+00    0.0000E+00    1.000000E+10  0.02000  1.360E-05    0   0.5167   age181_m62            0.0000     1.4795E+00    11.1706  -1.0000    91.8515
 50      0.0000     0.0000E+00    0.0000E+00    1.800000E+10  0.02000  7.124E-06    0   0.5013   age213_m62            0.0000     2.3534E+00    13.6927  -1.0000    83.4775
 51      0.0000     0.0000E+00    0.0000E+00    1.000000E+06  0.05000  2.592E-02    0   0.9998   age020_m72            0.0000     8.7020E-01     9.1350   2.5935    96.6091
 52      0.0000     0.0000E+00    0.0000E+00    3.160000E+06  0.05000  4.845E-02    0   0.9577   age045_m72            0.0000     8.0027E-01     8.5519   2.4355    98.2030
 53      0.0000     0.0000E+00    0.0000E+00    5.010000E+06  0.05000  3.072E-02    0   0.9147   age055_m72            0.0000     7.2154E-01     7.9892   1.9468   102.3437
 54      7.1228     5.9783E-02    9.2004E-02    6.610000E+06  0.05000  1.455E-02    0   0.8877   age061_m72            0.0000     1.3397E+00    11.0086   1.1780   108.2710
 55      0.0000     0.0000E+00    0.0000E+00    1.000000E+07  0.05000  9.074E-03    0   0.8524   age070_m72            0.0000     8.2391E-01     8.5722   2.1354   102.0241
 56      0.0000     0.0000E+00    0.0000E+00    2.512000E+07  0.05000  4.250E-03    0   0.7902   age090_m72            0.0000     7.0596E-01     7.6588   1.8426   103.2069
 57      0.0000     0.0000E+00    0.0000E+00    4.000000E+07  0.05000  3.087E-03    0   0.7618   age104_m72            0.0000     6.9464E-01     7.4871   1.6173   104.6029
 58      0.0000     0.0000E+00    0.0000E+00    1.015200E+08  0.05000  1.700E-03    0   0.7096   age116_m72            0.0000     5.6917E-01     6.6390   1.3776   106.6462
 59      0.0000     0.0000E+00    0.0000E+00    2.861200E+08  0.05000  7.384E-04    0   0.6633   age125_m72            0.0000     4.8107E-01     6.4802   0.8768   110.6752
 60     11.2148     3.5861E+00    3.9616E+00    5.088000E+08  0.05000  3.819E-04    0   0.6372   age130_m72            0.0000     4.2340E-01     6.1800   0.3899   112.4644
 61      0.0000     0.0000E+00    0.0000E+00    9.047900E+08  0.05000  1.676E-04    0   0.6110   age135_m72            0.0000     4.9473E-01     6.7322  -0.3061   111.0455
 62      8.9490     1.2367E+01    1.2594E+01    1.434000E+09  0.05000  8.837E-05    0   0.5874   age139_m72            0.0000     5.4280E-01     6.9772  -0.7616   110.5395
 63     18.8042     5.4249E+01    5.2649E+01    2.500000E+09  0.05000  4.233E-05    0   0.5598   age150_m72            0.0000     7.3199E-01     8.2349  -1.0000   106.5918
 64      0.0000     0.0000E+00    0.0000E+00    6.250000E+09  0.05000  1.435E-05    0   0.5249   age166_m72            0.0000     1.8381E+00    12.2775  -1.0000    87.8867
 65      0.0000     0.0000E+00    0.0000E+00    1.300000E+10  0.05000  6.513E-06    0   0.5036   age193_m72            0.0000     3.1896E+00    15.5960  -1.0000    78.6193
 66      0.0000     0.0000E+00    0.0000E+00    1.800000E+10  0.05000  4.527E-06    0   0.4945   age213_m72            0.0000     4.1171E+00    17.4014  -1.0000    72.9668


## Synthesis Results - Average & Chains ##

# j      x_j: min, <> & last-chain-values for 1 ...  7 chains
  1      0.0000      0.3001      0.0000      0.0000      0.0000      0.0251      0.0000      0.0000      0.0000
  2      0.0000      0.3159      0.0000      0.0000      0.0000      0.0000      0.0000      0.3877      0.6411
  3      0.0000      0.2360      0.0000      0.0000      0.0000      0.0000      0.7602      0.0000      0.1984
  4      0.0000      0.4691      0.9484      0.5334      0.0000      0.1620      0.0000      2.2698      0.3825
  5      0.0000      0.5065      0.0000      0.0000      0.0000      0.0000      3.3854      0.0000      0.0000
  6      0.0000      0.8220      0.1722      0.0000      1.4518      0.0000      0.0000      0.0000      0.8837
  7      0.0000      0.8161      4.0385      0.3899      0.0000      1.2771      0.0000      0.0000      0.0000
  8      0.0000      0.5015      0.0000      0.0000      0.1923      0.0000      0.0000      0.0000      0.0000
  9      0.0000      0.4810      0.4463      0.0000      0.0000      0.0000      0.0000      2.3262      0.0000
 10      0.0000      0.4081      0.0000      0.0000      0.0000      0.0000      0.0000      0.0000      0.0000
 11      0.0000      0.5759      0.0000      0.0000      0.0000      0.2664      0.0000      0.0000      0.0000
 12      0.0000      0.6054      0.0000      0.1522      0.0000      0.0000      0.0312      0.0000      0.0000
 13      0.0000      2.2807      0.0000      1.4088      0.0000      0.8312      0.0000      0.0000      2.7987
 14      0.0000      0.6060      0.0000      1.7231      0.0000      0.0000      0.4447      0.0000      0.0000
 15      0.0000      0.2883      0.0000      0.0892      0.0000      0.0000      0.0000      0.0000      0.0000
 16      0.0000      0.3868      0.7296      0.2043      0.0000      0.5076      0.4147      0.0000      0.0000
 17      0.0000      0.1772      0.0000      0.0000      0.0000      0.0000      0.0000      0.0000      0.0000
 18      0.0000      0.4188      0.2787      0.0000      0.0000      0.0000      0.0000      0.0000      0.0000
 19      0.0000      0.3965      0.0000      0.0000      0.0000      0.0000      0.0257      0.0000      0.0000
 20      0.0000      0.3031      0.0000      0.0740      0.0000      1.4531      0.0000      0.0000      1.3269
 21      0.0000      0.6503      1.5843      0.0000      0.0765      0.0000      0.0000      0.0000      0.0000
 22      0.0000      0.8284      3.3542      1.5314      0.0000      1.6973      2.1064      1.7751      0.0000
 23      0.0000      0.5196      0.0000      0.0000      0.8224      0.0000      3.2716      0.0000      0.0000
 24      0.0000      0.4230      3.0506      0.0000      0.0000      1.2648      1.0768      0.0000      0.0000
 25      0.0000      0.7829      0.0000      0.1221      0.0000      0.0000      0.0385      0.4713      0.0000
 26      0.0003      0.7038      0.0000      0.0000      0.0000      0.0000      1.0619      2.2279      1.2478
 27      0.0000      0.9317      0.0000      0.0756      5.3483      0.0000      0.4663      0.0000      0.0000
 28     42.8775     24.3671     29.3800     22.2851     29.0398     27.7564     34.5640     32.1796     28.2460
 29      0.0000      1.1679      2.0132      0.0000      0.0000      1.9314      0.0000      0.0000      0.0000
 30      0.0000      0.7653      2.9399      1.1525      0.0000      0.6301      0.0000      0.0000      0.0000
 31      0.0056      1.2979      0.0000      2.1450      0.1574      0.6922      0.0000      3.9432      0.0000
 32      0.0093      0.5820      0.0000      0.5598      0.9067      0.5813      0.0000      2.3823      0.0494
 33      0.0000      0.2870      0.1756      0.4873      1.4501      0.0000      0.0000      0.0000      0.0000
 34      0.0000      0.3478      0.0000      0.0000      0.2325      0.0000      3.3441      0.0000      0.0000
 35      0.0000      0.2954      0.0000      0.0000      0.0000      0.7580      0.0000      0.0000      0.9666
 36      0.0000      0.3122      0.0000      0.0000      1.4902      0.0000      0.0000      0.0000      0.0000
 37      0.0000      0.5598      0.0000      1.1452      5.4401      0.0000      0.0000      0.0000      0.0000
 38     16.3738      1.4361      3.1608      3.6719      2.4478      0.2414      4.8977      0.9882      1.6940
 39      0.0000      1.4247      0.0000      1.8706      0.0000      1.3857      3.8494      0.0000      1.4470
 40      0.0000      2.3603      0.0000      5.1396      0.0000      9.6370      3.0376      0.0000      0.5031
 41      0.0000      0.3525      0.0000      0.0000      0.0000      1.4451      1.7428      0.9904      0.0000
 42      0.0000      0.5048      0.0000      0.0000      0.0000      0.0000      0.0000      0.0000      0.0000
 43      0.0000      0.5575      0.0000      0.0000      0.0000      1.2908      0.0000      0.0000      1.7182
 44      0.0000      1.1459      0.0000      0.9166      0.0000      3.6624      0.0000      0.1524      1.0917
 45      0.0000      6.8346      0.0000      2.2712      0.0000      2.7679      1.1225      0.0000      5.2506
 46      0.4824     11.6428     13.9343     11.9322     13.8343     13.3420     12.3461     11.2894      6.1686
