###################################################################
## OUTPUT of StarlightChains_v04.for    [Cid@UFSC - 01/Apr/2007] ##
###################################################################

## Some input info
1999ge.txt                               [arq_obs]
Base.CB07.vall.4m                        [arq_base]
Masks.EmLines.NEW.gm                     [arq_masks]
StCv04.C11.config                        [arq_config]
   66                                    [N_base]
    0                                    [N_YAV_components = # of components with extra extinction!]
    0                                    [i_FitPowerLaw (1/0 = Yes/No)]
-9.99                                    [alpha_PowerLaw]
CCM                                      [red_law_option]
 1.458241                                [q_norm = A(l_norm)/A(V)]

## (Re)Sampling Parameters
 3741.00                                 [l_ini (A)]
 7218.00                                 [l_fin (A)]
    1.00                                 [dl    (A)]     (OBS: dl_cushion =    50.00 A)

## Normalization info
 4020.00                                 [l_norm (A) - for base]
 4010.00                                 [llow_norm (A) - window for f_obs]
 4060.00                                 [lupp_norm (A) - window for f_obs]
7.238119E-17                             [fobs_norm (in input units)]

## S/N
 3691.00                                 [llow_SN (A) - window for S/N]
 7268.00                                 [lupp_SN (A) - window for S/N]
   8.858                                 [S/N in S/N window]
   8.943                                 [S/N in norm. window]
  19.600                                 [S/N_err in S/N window]
  19.789                                 [S/N_err in norm. window]
  1.0000                                 [fscale_chi2]

## etc...
    -2007244                             [idum_orig]
  2383                                   [NOl_eff]
  2383                                   [Nl_eff]
     0    NSIGMA                         [Ntot_cliped & clip_method]
  1984360                                [Nglobal_steps]
   7                                     [N_chains]
  37                                     [NEX0s_base = N_base in EX0s-fits]
 0   0   1        3   2.0   2.796E+01    [Clip-Bug, RC-Crash & Burn-In warning-flags, n_censored_weights, wei_nsig_threshold & wei_limit]
    16     16.231     15.738      0.493  [idt_all, wdt_TotTime, wdt_UsrTime & wdt_SysTime (sec)]

## Synthesis Results - Best model ##

 5.81091E-01                             [chi2/Nl_eff]
     3.13635                             [adev (%)]

   112.40252                             [sum-of-x (%)]
 9.52418E-17                             [Flux_tot (units of input spectrum!)]
 1.13422E-12                             [Mini_tot (???)]
 6.24350E-13                             [Mcor_tot (???)]

 -49.93                                  [v0_min  (km/s)]
 165.94                                  [vd_min  (km/s)]
 0.1173                                  [AV_min  (mag)]
 0.0000                                  [YAV_min (mag)]

# j     x_j(%)      Mini_j(%)     Mcor_j(%)     age_j(yr)     Z_j      (L/M)_j    YAV?  Mstars   component_j        a/Fe...       SSP_chi2r SSP_adev(%)   SSP_AV   SSP_x(%)
  1      0.0000     0.0000E+00    0.0000E+00    1.000000E+06  0.00400  1.094E-02    0   1.0000   age020_m42            0.0000     2.2447E+00     6.4060   2.9284    96.6383
  2      0.0000     0.0000E+00    0.0000E+00    3.160000E+06  0.00400  4.007E-02    0   0.9999   age045_m42            0.0000     1.6999E+00     5.2589   2.2268   102.0613
  3      0.3364     9.8976E-04    1.7060E-03    5.010000E+06  0.00400  2.539E-02    0   0.9488   age055_m42            0.0000     1.8921E+00     5.6475   2.5351   100.1170
  4      0.3395     9.6797E-04    1.6213E-03    6.610000E+06  0.00400  2.620E-02    0   0.9220   age061_m42            0.0000     1.6462E+00     5.1709   2.1523   102.3177
  5      0.0000     0.0000E+00    0.0000E+00    1.000000E+07  0.00400  1.322E-02    0   0.8862   age070_m42            0.0000     1.7032E+00     5.3620   1.8536   105.1934
  6      0.0000     0.0000E+00    0.0000E+00    1.445000E+07  0.00400  7.883E-03    0   0.8571   age078_m42            0.0000     1.8272E+00     5.5737   2.1765   102.7526
  7      0.2274     3.2357E-03    4.8048E-03    2.512000E+07  0.00400  5.251E-03    0   0.8174   age090_m42            0.0000     1.7470E+00     5.4461   1.7220   105.8203
  8      0.6524     1.3356E-02    1.9049E-02    4.000000E+07  0.00400  3.649E-03    0   0.7851   age104_m42            0.0000     1.5975E+00     5.2121   1.4990   106.4938
  9      2.5058     6.0426E-02    8.3745E-02    5.500000E+07  0.00400  3.098E-03    0   0.7629   age110_m42            0.0000     1.5176E+00     5.0183   1.6653   105.9230
 10      1.0092     3.3838E-02    4.4303E-02    1.015200E+08  0.00400  2.228E-03    0   0.7207   age116_m42            0.0000     1.5014E+00     4.9885   1.6941   105.7365
 11      0.0000     0.0000E+00    0.0000E+00    2.861200E+08  0.00400  1.093E-03    0   0.6648   age125_m42            0.0000     1.5095E+00     5.1412   1.1232   108.9554
 12      0.0000     0.0000E+00    0.0000E+00    5.088000E+08  0.00400  6.597E-04    0   0.6365   age130_m42            0.0000     1.3424E+00     4.9295   1.1246   109.3561
 13      0.0000     0.0000E+00    0.0000E+00    1.434000E+09  0.00400  2.132E-04    0   0.5798   age139_m42            0.0000     8.3227E-01     3.9130   0.1600   111.2366
 14      0.0000     0.0000E+00    0.0000E+00    4.250000E+09  0.00400  5.895E-05    0   0.5377   age158_m42            0.0000     7.2165E-01     3.5400  -0.2817   107.1803
 15      0.0000     0.0000E+00    0.0000E+00    7.500000E+09  0.00400  3.510E-05    0   0.5212   age171_m42            0.0000     8.1970E-01     3.7422  -0.4655   106.3459
 16      0.0000     0.0000E+00    0.0000E+00    1.300000E+10  0.00400  2.005E-05    0   0.5034   age193_m42            0.0000     9.8521E-01     4.0425  -0.6266   105.6613
 17      0.0000     0.0000E+00    0.0000E+00    1.800000E+10  0.00400  1.525E-05    0   0.4967   age213_m42            0.0000     9.6387E-01     4.0067  -0.6517   105.2761
 18      0.0515     3.1077E-04    5.6455E-04    1.000000E+06  0.00800  1.238E-02    0   1.0000   age020_m52            0.0000     2.2454E+00     6.4094   2.9247    96.8277
 19      0.0000     0.0000E+00    0.0000E+00    3.160000E+06  0.00800  3.074E-02    0   0.9966   age045_m52            0.0000     2.2034E+00     6.3047   2.8507    97.5653
 20      0.4134     1.1575E-03    1.9857E-03    5.010000E+06  0.00800  2.668E-02    0   0.9443   age055_m52            0.0000     1.9326E+00     5.7676   2.6141    99.3910
 21      8.9097     3.1161E-02    5.1950E-02    6.610000E+06  0.00800  2.136E-02    0   0.9177   age061_m52            0.0000     1.3064E+00     4.9342   1.3466   106.7996
 22      0.0766     4.7070E-04    7.5479E-04    1.000000E+07  0.00800  1.215E-02    0   0.8827   age070_m52            0.0000     1.8552E+00     5.6794   2.0244   105.3421
 23      0.0000     0.0000E+00    0.0000E+00    1.445000E+07  0.00800  8.717E-03    0   0.8552   age078_m52            0.0000     1.7520E+00     5.4506   2.1427   104.1254
 24      0.7925     1.0587E-02    1.5698E-02    2.512000E+07  0.00800  5.592E-03    0   0.8162   age090_m52            0.0000     1.7171E+00     5.4253   1.7869   107.0083
 25      2.1229     4.0707E-02    5.7984E-02    4.000000E+07  0.00800  3.896E-03    0   0.7841   age104_m52            0.0000     1.5823E+00     5.1903   1.7074   107.4551
 26      0.0057     1.9884E-04    2.6102E-04    1.015200E+08  0.00800  2.148E-03    0   0.7226   age116_m52            0.0000     1.4198E+00     4.9114   1.6571   106.7831
 27      0.0000     0.0000E+00    0.0000E+00    2.861200E+08  0.00800  9.925E-04    0   0.6683   age125_m52            0.0000     1.2796E+00     4.8388   1.1899   110.3341
 28      4.2107     1.0015E+00    1.1167E+00    9.047900E+08  0.00800  3.141E-04    0   0.6138   age135_m52            0.0000     9.0886E-01     4.1797   0.4093   114.0806
 29      0.0000     0.0000E+00    0.0000E+00    1.434000E+09  0.00800  1.719E-04    0   0.5853   age139_m52            0.0000     7.3150E-01     3.6146  -0.1776   112.1817
 30      0.0395     3.7525E-02    3.8175E-02    2.500000E+09  0.00800  7.872E-05    0   0.5600   age150_m52            0.0000     8.1190E-01     3.7744  -0.4384   108.9804
 31      0.0000     0.0000E+00    0.0000E+00    4.250000E+09  0.00800  4.336E-05    0   0.5426   age158_m52            0.0000     8.5924E-01     3.8271  -0.4547   108.0228
 32      0.0000     0.0000E+00    0.0000E+00    6.250000E+09  0.00800  3.159E-05    0   0.5319   age166_m52            0.0000     1.1195E+00     4.3782  -0.6486   107.7100
 33      0.0000     0.0000E+00    0.0000E+00    1.300000E+10  0.00800  1.361E-05    0   0.5073   age193_m52            0.0000     1.8127E+00     5.5858  -1.0000   102.2750
 34      0.0000     0.0000E+00    0.0000E+00    1.800000E+10  0.00800  9.886E-06    0   0.4990   age213_m52            0.0000     2.7197E+00     6.8564  -1.0000    97.5120
 35      0.1809     8.7523E-04    1.5900E-03    1.000000E+06  0.02000  1.544E-02    0   1.0000   age020_m62            0.0000     2.2696E+00     6.4450   2.9202    97.0817
 36      0.0000     0.0000E+00    0.0000E+00    3.160000E+06  0.02000  3.762E-02    0   0.9858   age045_m62            0.0000     2.2663E+00     6.4048   2.8594    97.9225
 37      0.2016     4.5686E-04    7.7534E-04    5.010000E+06  0.02000  3.296E-02    0   0.9342   age055_m62            0.0000     1.7953E+00     5.4459   2.5004   101.1142
 38      2.8335     1.8343E-02    2.9527E-02    8.710000E+06  0.02000  1.154E-02    0   0.8861   age067_m62            0.0000     3.3938E+00     8.3834   1.4361   110.0737
 39      1.6619     1.6201E-02    2.4935E-02    1.445000E+07  0.02000  7.663E-03    0   0.8472   age078_m62            0.0000     2.0598E+00     6.2339   1.6599   108.2352
 40      0.0000     0.0000E+00    0.0000E+00    2.512000E+07  0.02000  4.532E-03    0   0.8099   age090_m62            0.0000     2.2113E+00     6.4066   1.6534   107.8522
 41      0.0000     0.0000E+00    0.0000E+00    5.500000E+07  0.02000  2.733E-03    0   0.7595   age110_m62            0.0000     1.5473E+00     5.1396   1.6868   106.8626
 42      3.8573     2.1049E-01    2.6710E-01    1.609000E+08  0.02000  1.369E-03    0   0.6985   age120_m62            0.0000     1.4173E+00     4.9407   1.5453   108.8529
 43      0.6093     5.0507E-02    6.1603E-02    2.861200E+08  0.02000  9.013E-04    0   0.6714   age125_m62            0.0000     1.3639E+00     5.0099   1.3054   111.4459
 44      1.3928     2.0693E-01    2.4243E-01    5.088000E+08  0.02000  5.028E-04    0   0.6449   age130_m62            0.0000     1.1846E+00     4.8451   0.9451   113.6055
 45      0.0000     0.0000E+00    0.0000E+00    9.047900E+08  0.02000  2.428E-04    0   0.6179   age135_m62            0.0000     8.0296E-01     3.9069   0.3602   112.9973
 46      0.0022     1.3164E-03    1.4128E-03    1.434000E+09  0.02000  1.263E-04    0   0.5908   age139_m62            0.0000     7.7983E-01     3.7308  -0.0864   111.5430
 47     10.3902     1.2969E+01    1.3366E+01    2.500000E+09  0.02000  5.985E-05    0   0.5673   age150_m62            0.0000     1.0559E+00     4.2940  -0.4466   109.8666
 48      6.9375     1.5844E+01    1.5739E+01    4.250000E+09  0.02000  3.271E-05    0   0.5468   age158_m62            0.0000     1.5924E+00     5.3674  -0.7395   108.4683
 49      0.0000     0.0000E+00    0.0000E+00    1.000000E+10  0.02000  1.360E-05    0   0.5167   age181_m62            0.0000     2.5634E+00     6.7680  -1.0000   104.4237
 50      0.0000     0.0000E+00    0.0000E+00    1.800000E+10  0.02000  7.124E-06    0   0.5013   age213_m62            0.0000     4.3136E+00     8.6251  -1.0000    95.2700
 51      0.0003     8.7821E-07    1.5951E-06    1.000000E+06  0.05000  2.592E-02    0   0.9998   age020_m72            0.0000     2.3443E+00     6.5671   2.9092    97.2186
 52      0.0000     0.0000E+00    0.0000E+00    3.160000E+06  0.05000  4.845E-02    0   0.9577   age045_m72            0.0000     2.1015E+00     6.0271   2.7516    98.7993
 53      3.4058     8.2823E-03    1.3763E-02    5.010000E+06  0.05000  3.072E-02    0   0.9147   age055_m72            0.0000     2.0486E+00     6.1366   2.2542   103.9137
 54      3.5545     1.8250E-02    2.9431E-02    6.610000E+06  0.05000  1.455E-02    0   0.8877   age061_m72            0.0000     5.6810E+00    10.9095   1.4722   111.6891
 55      1.8628     1.5336E-02    2.3748E-02    1.000000E+07  0.05000  9.074E-03    0   0.8524   age070_m72            0.0000     2.5815E+00     6.7991   2.4428   103.5067
 56      0.0000     0.0000E+00    0.0000E+00    2.512000E+07  0.05000  4.250E-03    0   0.7902   age090_m72            0.0000     2.1616E+00     6.1246   2.1478   105.0216
 57      0.0000     0.0000E+00    0.0000E+00    4.000000E+07  0.05000  3.087E-03    0   0.7618   age104_m72            0.0000     2.2110E+00     6.1943   1.9202   106.6849
 58      0.0000     0.0000E+00    0.0000E+00    1.015200E+08  0.05000  1.700E-03    0   0.7096   age116_m72            0.0000     1.6129E+00     5.2615   1.6814   108.6635
 59      1.7681     1.7888E-01    2.1555E-01    2.861200E+08  0.05000  7.384E-04    0   0.6633   age125_m72            0.0000     1.2186E+00     4.8665   1.1825   112.5312
 60      3.3007     6.4566E-01    7.4740E-01    5.088000E+08  0.05000  3.819E-04    0   0.6372   age130_m72            0.0000     8.9864E-01     4.1751   0.6996   113.9921
 61     31.0211     1.3827E+01    1.5348E+01    9.047900E+08  0.05000  1.676E-04    0   0.6110   age135_m72            0.0000     1.0026E+00     4.3430   0.0107   111.8853
 62      4.2787     3.6171E+00    3.8598E+00    1.434000E+09  0.05000  8.837E-05    0   0.5874   age139_m72            0.0000     1.1742E+00     4.5363  -0.4442   111.3226
 63     10.9352     1.9299E+01    1.9626E+01    2.500000E+09  0.05000  4.233E-05    0   0.5598   age150_m72            0.0000     1.8110E+00     5.7174  -0.7364   109.2438
 64      0.0000     0.0000E+00    0.0000E+00    6.250000E+09  0.05000  1.435E-05    0   0.5249   age166_m72            0.0000     3.1469E+00     7.4671  -1.0000   100.0941
 65      1.9213     2.2038E+01    2.0162E+01    1.300000E+10  0.05000  6.513E-06    0   0.5036   age193_m72            0.0000     6.3834E+00    10.4382  -1.0000    90.0496
 66      0.5937     9.7970E+00    8.8010E+00    1.800000E+10  0.05000  4.527E-06    0   0.4945   age213_m72            0.0000     9.0326E+00    12.4613  -1.0000    83.8678


## Synthesis Results - Average & Chains ##

# j      x_j: min, <> & last-chain-values for 1 ...  7 chains
  1      0.0000      0.2803      0.4191      0.0000      0.0000      0.0000      0.2568      0.0015      0.0000
  2      0.0000      0.2970      0.0000      1.8223      0.0000      0.0000      0.7909      0.0000      0.3725
  3      0.3364      0.8284      1.2033      0.2336      1.4322      1.1744      0.7473      0.2070      1.2102
  4      0.3395      0.3544      0.0000      0.0000      0.0000      0.2361      0.1582      0.5438      1.1400
  5      0.0000      0.3824      0.0000      0.0000      0.5913      0.0000      0.3445      0.2784      0.0000
  6      0.0000      0.4883      0.3756      0.0000      0.1590      0.0184      0.0000      1.4611      0.0000
  7      0.2274      0.5037      0.3778      0.1879      0.8344      0.0000      0.0000      0.2747      3.2493
  8      0.6524      0.5149      0.0000      0.0000      0.4937      0.0000      1.0966      0.6913      0.8347
  9      2.5058      1.4908      0.9237      1.3045      1.0804      1.6425      2.2608      2.0496      1.9185
 10      1.0092      0.6590      0.0000      1.0401      0.0000      1.2782      0.0404      1.1191      1.1458
 11      0.0000      0.3388      0.0000      0.2618      1.5522      0.0000      0.0000      0.0000      0.3261
 12      0.0000      0.6287      0.7134      1.4684      0.0000      1.3957      0.7919      0.6143      0.0000
 13      0.0000      1.7070      2.0539      0.0000      3.1946      0.5016      0.9539      0.0000      0.0000
 14      0.0000      0.3040      0.0000      0.0000      0.0000      0.0000      0.0000      0.0000      0.0000
 15      0.0000      0.4468      0.0000      0.2418      0.0361      0.0000      0.0000      0.5606      0.0000
 16      0.0000      0.2044      0.0000      0.0000      0.0000      0.0000      0.0000      0.0000      0.0000
 17      0.0000      0.2798      0.0000      0.0000      0.2253      0.0000      0.0000      1.2686      0.0000
 18      0.0515      0.4986      0.0000      0.0000      0.2450      0.6176      0.0000      0.3081      1.0577
 19      0.0000      0.3969      1.3420      0.8246      0.4746      0.0000      0.2674      0.5965      0.0000
 20      0.4134      0.2739      0.0344      0.8563      0.0836      0.1383      0.0000      0.6587      0.8370
 21      8.9097      3.6667      4.0172      4.9095      3.3173      5.5411      4.9997      3.6928      2.5646
 22      0.0766      0.4933      0.0000      0.4031      0.0451      0.5114      0.5626      0.0000      0.7938
 23      0.0000      0.4029      0.0836      0.0000      0.6353      0.0000      0.7054      0.0000      0.0000
 24      0.7925      0.2943      0.8675      0.4792      0.7914      0.0000      0.1027      1.5114      0.5114
 25      2.1229      1.1328      0.0463      0.4355      1.4027      0.7446      1.5892      2.2240      0.7234
 26      0.0057      0.2793      0.0000      0.1738      0.3570      0.0000      0.0000      0.0000      1.0405
 27      0.0000      0.3095      0.0000      0.6622      0.4800      0.0000      0.0000      0.0000      0.0000
 28      4.2107      1.4550      0.4707      1.6376      0.0000      0.9467      0.2894      0.8964      1.9908
 29      0.0000      0.9249      0.6130      0.2145      0.0000      0.4601      0.2275      0.3524      1.6949
 30      0.0395      2.9090      3.3316      1.9673      2.4787      2.0947      1.7114      3.0690      4.7014
 31      0.0000      0.4773      1.0655      0.7371      0.0000      0.6068      0.0000      0.3331      0.0000
 32      0.0000      0.3715      0.2150      0.1189      0.0000      0.0000      1.1839      0.0000      0.0000
 33      0.0000      0.0904      0.0000      0.0000      0.2906      0.0451      0.1916      0.0000      0.0000
 34      0.0000      0.0526      0.0000      0.0366      0.0000      0.0000      0.0000      0.0000      0.0000
 35      0.1809      0.3126      0.0000      1.1342      1.0964      0.3196      0.0000      0.4487      0.8327
 36      0.0000      0.1492      0.0000      0.0000      0.3200      0.0000      0.4264      0.7570      0.0000
 37      0.2016      1.0084      1.2589      0.3341      1.0023      1.1623      0.7584      1.0851      1.5153
 38      2.8335      2.7755      3.1729      4.2363      3.0913      3.6387      2.1307      3.2242      1.7596
 39      1.6619      0.5342      0.3467      1.3411      0.4832      0.0000      2.6199      1.3240      1.0530
 40      0.0000      0.5994      1.4919      0.0000      1.1129      0.3088      0.3937      0.0772      0.2770
 41      0.0000      0.7853      0.8573      1.5807      1.6450      1.7702      0.8423      0.0000      0.0000
 42      3.8573      3.4573      4.3967      3.9525      0.0000      4.9964      3.7402      3.6594      3.3528
 43      0.6093      0.4576      1.6245      1.2370      0.6624      0.0000      0.8005      0.0000      0.4924
 44      1.3928      0.5055      0.0000      0.3088      0.4412      0.5003      3.7346      0.0000      1.6969
 45      0.0000      1.4958      0.0000      1.2176      0.0000      0.5801      0.0000      0.0000      0.0854
 46      0.0022     10.4721      6.5771      7.7376     10.2157     11.2190     11.8937     11.0719      4.4557
