###################################################################
## OUTPUT of StarlightChains_v04.for    [Cid@UFSC - 01/Apr/2007] ##
###################################################################

## Some input info
1999ej.txt                               [arq_obs]
Base.CB07.vall.4m                        [arq_base]
Masks.EmLines.NEW.gm                     [arq_masks]
StCv04.C11.config                        [arq_config]
   66                                    [N_base]
    0                                    [N_YAV_components = # of components with extra extinction!]
    0                                    [i_FitPowerLaw (1/0 = Yes/No)]
-9.99                                    [alpha_PowerLaw]
CCM                                      [red_law_option]
 1.458241                                [q_norm = A(l_norm)/A(V)]

## (Re)Sampling Parameters
 3741.00                                 [l_ini (A)]
 7218.00                                 [l_fin (A)]
    1.00                                 [dl    (A)]     (OBS: dl_cushion =    50.00 A)

## Normalization info
 4020.00                                 [l_norm (A) - for base]
 4010.00                                 [llow_norm (A) - window for f_obs]
 4060.00                                 [lupp_norm (A) - window for f_obs]
2.358061E-17                             [fobs_norm (in input units)]

## S/N
 3691.00                                 [llow_SN (A) - window for S/N]
 7268.00                                 [lupp_SN (A) - window for S/N]
   4.433                                 [S/N in S/N window]
   3.084                                 [S/N in norm. window]
   4.268                                 [S/N_err in S/N window]
   2.969                                 [S/N_err in norm. window]
  1.0000                                 [fscale_chi2]

## etc...
    -2007241                             [idum_orig]
  2370                                   [NOl_eff]
  2349                                   [Nl_eff]
    21    NSIGMA                         [Ntot_cliped & clip_method]
   650230                                [Nglobal_steps]
   7                                     [N_chains]
  13                                     [NEX0s_base = N_base in EX0s-fits]
 0   0   1       20   2.0   1.670E+01    [Clip-Bug, RC-Crash & Burn-In warning-flags, n_censored_weights, wei_nsig_threshold & wei_limit]
     9      9.596      9.100      0.496  [idt_all, wdt_TotTime, wdt_UsrTime & wdt_SysTime (sec)]

## Synthesis Results - Best model ##

 2.60893E-01                             [chi2/Nl_eff]
    14.02453                             [adev (%)]

   120.03252                             [sum-of-x (%)]
 2.06913E-17                             [Flux_tot (units of input spectrum!)]
 1.34461E-12                             [Mini_tot (???)]
 6.91108E-13                             [Mcor_tot (???)]

  20.00                                  [v0_min  (km/s)]
 122.01                                  [vd_min  (km/s)]
-0.2333                                  [AV_min  (mag)]
 0.0000                                  [YAV_min (mag)]

# j     x_j(%)      Mini_j(%)     Mcor_j(%)     age_j(yr)     Z_j      (L/M)_j    YAV?  Mstars   component_j        a/Fe...       SSP_chi2r SSP_adev(%)   SSP_AV   SSP_x(%)
  1      0.0000     0.0000E+00    0.0000E+00    1.000000E+06  0.00400  1.094E-02    0   1.0000   age020_m42            0.0000     5.8991E-01    18.3269   3.8374    96.1633
  2      0.0000     0.0000E+00    0.0000E+00    3.160000E+06  0.00400  4.007E-02    0   0.9999   age045_m42            0.0000     5.3281E-01    17.7956   3.0374   106.8374
  3      0.0000     0.0000E+00    0.0000E+00    5.010000E+06  0.00400  2.539E-02    0   0.9488   age055_m42            0.0000     5.6463E-01    18.1088   3.3939   102.2113
  4      0.0000     0.0000E+00    0.0000E+00    6.610000E+06  0.00400  2.620E-02    0   0.9220   age061_m42            0.0000     5.3635E-01    17.8803   2.9552   107.4701
  5      0.0000     0.0000E+00    0.0000E+00    1.000000E+07  0.00400  1.322E-02    0   0.8862   age070_m42            0.0000     6.0439E-01    18.8231   2.6223   112.0355
  6      0.0000     0.0000E+00    0.0000E+00    1.445000E+07  0.00400  7.883E-03    0   0.8571   age078_m42            0.0000     6.1996E-01    18.8958   2.9801   107.5093
  7      0.0000     0.0000E+00    0.0000E+00    2.512000E+07  0.00400  5.251E-03    0   0.8174   age090_m42            0.0000     6.1710E-01    19.0361   2.4766   113.4673
  8      0.0000     0.0000E+00    0.0000E+00    4.000000E+07  0.00400  3.649E-03    0   0.7851   age104_m42            0.0000     5.8769E-01    18.7845   2.2373   115.2276
  9      0.0000     0.0000E+00    0.0000E+00    5.500000E+07  0.00400  3.098E-03    0   0.7629   age110_m42            0.0000     5.4046E-01    18.2667   2.3939   115.3470
 10      0.0000     0.0000E+00    0.0000E+00    1.015200E+08  0.00400  2.228E-03    0   0.7207   age116_m42            0.0000     5.1250E-01    17.9174   2.4145   115.7409
 11      0.0000     0.0000E+00    0.0000E+00    2.861200E+08  0.00400  1.093E-03    0   0.6648   age125_m42            0.0000     5.1819E-01    18.1581   1.7909   122.3631
 12      0.0000     0.0000E+00    0.0000E+00    5.088000E+08  0.00400  6.597E-04    0   0.6365   age130_m42            0.0000     4.5913E-01    17.4786   1.7813   123.7327
 13      0.0000     0.0000E+00    0.0000E+00    1.434000E+09  0.00400  2.132E-04    0   0.5798   age139_m42            0.0000     3.7318E-01    16.6161   0.7915   127.7262
 14      0.0000     0.0000E+00    0.0000E+00    4.250000E+09  0.00400  5.895E-05    0   0.5377   age158_m42            0.0000     3.3641E-01    15.5346   0.4199   119.0364
 15      0.0000     0.0000E+00    0.0000E+00    7.500000E+09  0.00400  3.510E-05    0   0.5212   age171_m42            0.0000     3.1152E-01    15.1954   0.2348   118.2845
 16      0.0638     4.0795E-02    3.9955E-02    1.300000E+10  0.00400  2.005E-05    0   0.5034   age193_m42            0.0000     2.9396E-01    14.9688   0.0736   117.6002
 17      0.0000     0.0000E+00    0.0000E+00    1.800000E+10  0.00400  1.525E-05    0   0.4967   age213_m42            0.0000     2.9878E-01    15.0214   0.0526   116.9145
 18      0.0000     0.0000E+00    0.0000E+00    1.000000E+06  0.00800  1.238E-02    0   1.0000   age020_m52            0.0000     5.9098E-01    18.3133   3.8374    96.1767
 19      0.0000     0.0000E+00    0.0000E+00    3.160000E+06  0.00800  3.074E-02    0   0.9966   age045_m52            0.0000     5.8978E-01    18.2904   3.7657    96.8133
 20      0.0000     0.0000E+00    0.0000E+00    5.010000E+06  0.00800  2.668E-02    0   0.9443   age055_m52            0.0000     5.7395E-01    18.2039   3.4893   100.5985
 21      0.0000     0.0000E+00    0.0000E+00    6.610000E+06  0.00800  2.136E-02    0   0.9177   age061_m52            0.0000     5.6456E-01    18.3752   2.1294   113.0650
 22      0.0000     0.0000E+00    0.0000E+00    1.000000E+07  0.00800  1.215E-02    0   0.8827   age070_m52            0.0000     6.4616E-01    19.2231   2.8019   111.5364
 23      0.0000     0.0000E+00    0.0000E+00    1.445000E+07  0.00800  8.717E-03    0   0.8552   age078_m52            0.0000     6.1429E-01    18.8438   2.9380   109.4064
 24      0.0000     0.0000E+00    0.0000E+00    2.512000E+07  0.00800  5.592E-03    0   0.8162   age090_m52            0.0000     6.1706E-01    19.0355   2.5328   115.2145
 25      0.0000     0.0000E+00    0.0000E+00    4.000000E+07  0.00800  3.896E-03    0   0.7841   age104_m52            0.0000     5.8244E-01    18.7188   2.4332   116.9813
 26      0.0000     0.0000E+00    0.0000E+00    1.015200E+08  0.00800  2.148E-03    0   0.7226   age116_m52            0.0000     5.3039E-01    18.1007   2.3770   116.8031
 27      0.0000     0.0000E+00    0.0000E+00    2.861200E+08  0.00800  9.925E-04    0   0.6683   age125_m52            0.0000     4.5247E-01    17.4823   1.8375   125.3892
 28      0.0000     0.0000E+00    0.0000E+00    9.047900E+08  0.00800  3.141E-04    0   0.6138   age135_m52            0.0000     3.5522E-01    16.1589   1.0236   132.2383
 29      0.0000     0.0000E+00    0.0000E+00    1.434000E+09  0.00800  1.719E-04    0   0.5853   age139_m52            0.0000     3.3953E-01    15.8496   0.4736   127.6491
 30      0.0000     0.0000E+00    0.0000E+00    2.500000E+09  0.00800  7.872E-05    0   0.5600   age150_m52            0.0000     2.9650E-01    14.9339   0.2473   122.1456
 31      0.0668     1.9754E-02    2.0854E-02    4.250000E+09  0.00800  4.336E-05    0   0.5426   age158_m52            0.0000     2.9658E-01    14.9032   0.2387   120.6276
 32     65.3497     2.6521E+01    2.7445E+01    6.250000E+09  0.00800  3.159E-05    0   0.5319   age166_m52            0.0000     2.7491E-01    14.5165   0.0422   120.5762
 33      0.0000     0.0000E+00    0.0000E+00    1.300000E+10  0.00800  1.361E-05    0   0.5073   age193_m52            0.0000     2.6239E-01    14.1837  -0.4195   119.7592
 34      6.9656     9.0330E+00    8.7696E+00    1.800000E+10  0.00800  9.886E-06    0   0.4990   age213_m52            0.0000     2.6385E-01    13.9597  -0.5092   118.3752
 35      0.0000     0.0000E+00    0.0000E+00    1.000000E+06  0.02000  1.544E-02    0   1.0000   age020_m62            0.0000     5.9534E-01    18.3266   3.8397    96.0941
 36      0.0000     0.0000E+00    0.0000E+00    3.160000E+06  0.02000  3.762E-02    0   0.9858   age045_m62            0.0000     5.9762E-01    18.3616   3.7849    96.6414
 37      0.0000     0.0000E+00    0.0000E+00    5.010000E+06  0.02000  3.296E-02    0   0.9342   age055_m62            0.0000     5.4590E-01    17.8967   3.3482   103.8547
 38      0.0000     0.0000E+00    0.0000E+00    8.710000E+06  0.02000  1.154E-02    0   0.8861   age067_m62            0.0000     9.3249E-01    22.0643   2.1966   116.6630
 39      0.0000     0.0000E+00    0.0000E+00    1.445000E+07  0.02000  7.663E-03    0   0.8472   age078_m62            0.0000     7.0688E-01    19.9245   2.4154   115.6400
 40      0.0000     0.0000E+00    0.0000E+00    2.512000E+07  0.02000  4.532E-03    0   0.8099   age090_m62            0.0000     7.2267E-01    20.1374   2.3962   115.9192
 41      0.0000     0.0000E+00    0.0000E+00    5.500000E+07  0.02000  2.733E-03    0   0.7595   age110_m62            0.0000     5.8442E-01    18.6839   2.4273   115.4567
 42      0.0000     0.0000E+00    0.0000E+00    1.609000E+08  0.02000  1.369E-03    0   0.6985   age120_m62            0.0000     5.0112E-01    17.8623   2.2359   120.9148
 43      0.0000     0.0000E+00    0.0000E+00    2.861200E+08  0.02000  9.013E-04    0   0.6714   age125_m62            0.0000     4.4442E-01    17.4199   1.9504   126.8767
 44      0.0000     0.0000E+00    0.0000E+00    5.088000E+08  0.02000  5.028E-04    0   0.6449   age130_m62            0.0000     3.7043E-01    16.4317   1.5676   131.1508
 45      0.0000     0.0000E+00    0.0000E+00    9.047900E+08  0.02000  2.428E-04    0   0.6179   age135_m62            0.0000     3.2929E-01    15.4837   1.0154   128.4672
 46      0.0000     0.0000E+00    0.0000E+00    1.434000E+09  0.02000  1.263E-04    0   0.5908   age139_m62            0.0000     3.0994E-01    15.0505   0.5951   125.2205
 47      0.0000     0.0000E+00    0.0000E+00    2.500000E+09  0.02000  5.985E-05    0   0.5673   age150_m62            0.0000     2.8162E-01    14.5454   0.2540   122.3811
 48      0.0000     0.0000E+00    0.0000E+00    4.250000E+09  0.02000  3.271E-05    0   0.5468   age158_m62            0.0000     2.6549E-01    14.1178  -0.0393   121.0781
 49      3.2592     3.0723E+00    3.0886E+00    1.000000E+10  0.02000  1.360E-05    0   0.5167   age181_m62            0.0000     2.7232E-01    13.7870  -0.3657   119.7190
 50     23.9594     4.3117E+01    4.2053E+01    1.800000E+10  0.02000  7.124E-06    0   0.5013   age213_m62            0.0000     2.9078E-01    13.6295  -0.5427   117.1718
 51      0.0000     0.0000E+00    0.0000E+00    1.000000E+06  0.05000  2.592E-02    0   0.9998   age020_m72            0.0000     6.0870E-01    18.3948   3.8411    95.6027
 52      0.0000     0.0000E+00    0.0000E+00    3.160000E+06  0.05000  4.845E-02    0   0.9577   age045_m72            0.0000     5.7804E-01    18.1546   3.6565    98.5770
 53      0.0000     0.0000E+00    0.0000E+00    5.010000E+06  0.05000  3.072E-02    0   0.9147   age055_m72            0.0000     6.7822E-01    19.3203   3.0663   108.0036
 54      0.0000     0.0000E+00    0.0000E+00    6.610000E+06  0.05000  1.455E-02    0   0.8877   age061_m72            0.0000     1.2467E+00    24.3779   2.2025   119.5688
 55      0.0000     0.0000E+00    0.0000E+00    1.000000E+07  0.05000  9.074E-03    0   0.8524   age070_m72            0.0000     7.4335E-01    19.7758   3.2358   108.4656
 56      0.0000     0.0000E+00    0.0000E+00    2.512000E+07  0.05000  4.250E-03    0   0.7902   age090_m72            0.0000     6.7707E-01    19.4392   2.9010   112.4516
 57      0.0000     0.0000E+00    0.0000E+00    4.000000E+07  0.05000  3.087E-03    0   0.7618   age104_m72            0.0000     6.7632E-01    19.5401   2.6438   115.9693
 58      0.0000     0.0000E+00    0.0000E+00    1.015200E+08  0.05000  1.700E-03    0   0.7096   age116_m72            0.0000     5.4205E-01    18.3235   2.3725   120.5123
 59      0.0000     0.0000E+00    0.0000E+00    2.861200E+08  0.05000  7.384E-04    0   0.6633   age125_m72            0.0000     4.0282E-01    16.8991   1.8138   129.1875
 60      0.0000     0.0000E+00    0.0000E+00    5.088000E+08  0.05000  3.819E-04    0   0.6372   age130_m72            0.0000     3.4559E-01    15.8061   1.3525   129.7368
 61      0.0000     0.0000E+00    0.0000E+00    9.047900E+08  0.05000  1.676E-04    0   0.6110   age135_m72            0.0000     3.0310E-01    14.6602   0.7266   123.6667
 62      0.0000     0.0000E+00    0.0000E+00    1.434000E+09  0.05000  8.837E-05    0   0.5874   age139_m72            0.0000     2.7922E-01    14.4297   0.2573   123.9688
 63      0.0000     0.0000E+00    0.0000E+00    2.500000E+09  0.05000  4.233E-05    0   0.5598   age150_m72            0.0000     2.6516E-01    13.9802  -0.0301   121.6227
 64     20.3679     1.8197E+01    1.8583E+01    6.250000E+09  0.05000  1.435E-05    0   0.5249   age166_m72            0.0000     2.7766E-01    13.7329  -0.4463   118.3657
 65      0.0000     0.0000E+00    0.0000E+00    1.300000E+10  0.05000  6.513E-06    0   0.5036   age193_m72            0.0000     3.0648E-01    13.6420  -0.6838   117.4016
 66      0.0000     0.0000E+00    0.0000E+00    1.800000E+10  0.05000  4.527E-06    0   0.4945   age213_m72            0.0000     3.2619E-01    13.6492  -0.8101   115.3929


## Synthesis Results - Average & Chains ##

# j      x_j: min, <> & last-chain-values for 1 ...  7 chains
  1      0.0000      0.0636      0.0000      0.0000      0.0000      0.0000      0.0000      0.0000      0.0000
  2      0.0000      0.1069      0.0000      0.0000      0.0000      0.0000      0.0000      0.0000      0.0000
  3      0.0000      0.1017      0.0000      0.0000      0.0000      0.0000      0.0000      0.0000      0.1069
  4      0.0000      0.0281      0.0000      0.0000      0.0000      0.0000      0.0000      0.0000      0.0000
  5      0.0000      0.1126      0.1389      0.0000      0.0000      0.0000      0.0000      0.0000      0.0000
  6      0.0000      0.0946      0.0000      0.0000      0.0000      1.3169      0.0000      0.0000      0.0000
  7      0.0000      0.1580      0.0000      0.0000      0.0000      0.0000      0.0000      0.0000      0.0000
  8      0.0000      0.1017      0.0000      0.0000      0.0000      0.0000      0.0000      0.0000      0.0000
  9      0.0000      0.0509      0.0000      0.0000      0.8606      0.3421      0.0000      0.0000      0.0000
 10      0.0000      0.1271      0.0000      0.0000      0.0000      0.0000      0.0000      0.0000      0.0000
 11      0.0000      0.0961      0.0000      1.4013      0.0000      0.0000      0.0000      0.0000      0.2536
 12      0.0000      0.1057      0.0000      0.0000      0.0000      0.0000      0.1612      0.0000      0.0000
 13      0.0000      0.4377      0.0000      0.0000      0.0000      0.0000      1.8803      1.9776      0.0000
 14      0.0000      0.7285      0.0000      0.0000      0.0000      0.0000      0.0000      0.0000      0.0000
 15      0.0000      2.0889      0.0000      2.7982      0.0302      0.5899      0.9849      0.0000      0.0000
 16      0.0638      6.7088      4.6027     12.0383      9.3788      5.3961      4.4957      4.8626      0.0000
 17      0.0000      6.6776     12.0228      0.0000      5.0694     10.7206     12.4587      3.4452      6.5527
 18      0.0000      0.0614      0.0000      0.0000      0.0000      0.0000      0.0000      0.0000      0.0000
 19      0.0000      0.0630      0.0000      0.0000      0.0000      0.0000      0.0000      0.0000      0.0000
 20      0.0000      0.0759      0.0000      0.3406      0.7752      0.0000      0.0000      0.0000      0.0000
 21      0.0000      0.1090      0.0000      3.2316      0.0000      0.0000      0.0000      0.0000      0.0000
 22      0.0000      0.0697      0.0000      0.0000      0.0000      0.0982      0.0000      0.0000      0.0000
 23      0.0000      0.0593      0.0000      0.0000      0.0000      0.0000      0.0000      0.0000      0.0000
 24      0.0000      0.1000      0.0000      0.0000      0.0000      0.0000      0.0000      0.0000      0.0000
 25      0.0000      0.1399      0.0000      0.0000      0.0000      0.0000      0.0000      1.0399      0.0000
 26      0.0000      0.1019      0.0000      0.0000      0.0000      0.0000      0.0000      0.0000      0.0000
 27      0.0000      0.2000      0.0000      0.0000      0.0000      0.0000      0.0000      0.0000      0.0000
 28      0.0000      0.2930      2.7142      0.0000      0.0000      1.4758      0.0000      0.0000      0.2901
 29      0.0000      0.8838      2.1300      0.0000      2.7524      0.0000      0.0000      3.4432      0.0000
 30      0.0000      1.7339      1.1737      0.0000      0.0000      0.0000      1.2119      0.0000     14.1746
 31      0.0668      2.1877      0.9823      4.5867      1.5048      0.0000      6.4113      5.3944      0.0000
 32     65.3497      7.7749      9.1615      7.6048      6.6688      9.4215      2.4457     14.1654      9.7050
 33      0.0000      6.4016      4.4187      0.0000      4.8622      3.2098      9.6779      0.0000      0.0000
 34      6.9656      5.0645      4.2532      5.6540      4.6308      0.0000      5.3666      0.3329      9.8317
 35      0.0000      0.1340      0.0000      0.6116      0.0000      0.0000      0.1291      0.0000      0.0000
 36      0.0000      0.0958      0.0000      0.0000      0.0000      0.0000      0.0000      0.0000      0.0000
 37      0.0000      0.0448      0.0000      0.0000      0.0000      0.0000      0.0000      0.0000      1.7083
 38      0.0000      0.0585      0.0000      0.0000      0.0000      0.0000      0.0000      0.0000      0.0000
 39      0.0000      0.0887      0.0000      0.0000      0.0000      0.0000      0.0000      0.0000      0.0000
 40      0.0000      0.0790      0.0000      0.0000      0.0000      0.0000      0.0000      0.0000      0.0000
 41      0.0000      0.0749      0.0000      0.0000      0.0000      0.0000      0.0000      0.0000      0.0000
 42      0.0000      0.1708      0.0000      0.0000      1.3703      1.1589      0.0000      0.0000      0.0000
 43      0.0000      0.1307      0.0000      0.0000      0.0000      0.0000      0.0000      0.0000      0.0000
 44      0.0000      0.1344      0.0000      0.0000      0.5257      0.0000      0.0000      0.0000      0.0000
 45      0.0000      0.3651      1.2880      0.0000      0.0000      0.0000      0.0000      0.0000      2.7391
 46      0.0000      0.4904      0.0000      0.0000      0.0000      1.1401      0.0000      0.3972      0.0000
