###################################################################
## OUTPUT of StarlightChains_v04.for    [Cid@UFSC - 01/Apr/2007] ##
###################################################################

## Some input info
1999dq.txt                               [arq_obs]
Base.CB07.vall.4m                        [arq_base]
Masks.EmLines.NEW.gm                     [arq_masks]
StCv04.C11.config                        [arq_config]
   66                                    [N_base]
    0                                    [N_YAV_components = # of components with extra extinction!]
    0                                    [i_FitPowerLaw (1/0 = Yes/No)]
-9.99                                    [alpha_PowerLaw]
CCM                                      [red_law_option]
 1.458241                                [q_norm = A(l_norm)/A(V)]

## (Re)Sampling Parameters
 3741.00                                 [l_ini (A)]
 7218.00                                 [l_fin (A)]
    1.00                                 [dl    (A)]     (OBS: dl_cushion =    50.00 A)

## Normalization info
 4020.00                                 [l_norm (A) - for base]
 4010.00                                 [llow_norm (A) - window for f_obs]
 4060.00                                 [lupp_norm (A) - window for f_obs]
4.760557E-16                             [fobs_norm (in input units)]

## S/N
 3691.00                                 [llow_SN (A) - window for S/N]
 7268.00                                 [lupp_SN (A) - window for S/N]
  10.432                                 [S/N in S/N window]
  10.873                                 [S/N in norm. window]
   9.988                                 [S/N_err in S/N window]
  10.410                                 [S/N_err in norm. window]
  1.0000                                 [fscale_chi2]

## etc...
    -2007239                             [idum_orig]
  2384                                   [NOl_eff]
  2384                                   [Nl_eff]
     0    NSIGMA                         [Ntot_cliped & clip_method]
  1257130                                [Nglobal_steps]
   7                                     [N_chains]
  22                                     [NEX0s_base = N_base in EX0s-fits]
 0   0   1        1   2.0   8.479E+01    [Clip-Bug, RC-Crash & Burn-In warning-flags, n_censored_weights, wei_nsig_threshold & wei_limit]
    11     10.873     10.379      0.494  [idt_all, wdt_TotTime, wdt_UsrTime & wdt_SysTime (sec)]

## Synthesis Results - Best model ##

 3.58794E-01                             [chi2/Nl_eff]
     4.62923                             [adev (%)]

   104.94733                             [sum-of-x (%)]
 8.40205E-16                             [Flux_tot (units of input spectrum!)]
 1.38083E-11                             [Mini_tot (???)]
 7.28666E-12                             [Mcor_tot (???)]

 -51.58                                  [v0_min  (km/s)]
 186.79                                  [vd_min  (km/s)]
 0.3870                                  [AV_min  (mag)]
 0.0000                                  [YAV_min (mag)]

# j     x_j(%)      Mini_j(%)     Mcor_j(%)     age_j(yr)     Z_j      (L/M)_j    YAV?  Mstars   component_j        a/Fe...       SSP_chi2r SSP_adev(%)   SSP_AV   SSP_x(%)
  1      7.5209     3.9859E-02    7.5533E-02    1.000000E+06  0.00400  1.094E-02    0   1.0000   age020_m42            0.0000     2.7863E+00     7.7731   3.0503    92.6303
  2      0.0000     0.0000E+00    0.0000E+00    3.160000E+06  0.00400  4.007E-02    0   0.9999   age045_m42            0.0000     1.9995E+00     6.6321   2.3282    97.0144
  3      0.0000     0.0000E+00    0.0000E+00    5.010000E+06  0.00400  2.539E-02    0   0.9488   age055_m42            0.0000     2.3348E+00     6.9696   2.6525    95.4143
  4      0.0000     0.0000E+00    0.0000E+00    6.610000E+06  0.00400  2.620E-02    0   0.9220   age061_m42            0.0000     2.1000E+00     6.6126   2.2624    96.9926
  5      0.0000     0.0000E+00    0.0000E+00    1.000000E+07  0.00400  1.322E-02    0   0.8862   age070_m42            0.0000     2.1988E+00     6.3930   2.0199    98.2389
  6      0.0000     0.0000E+00    0.0000E+00    1.445000E+07  0.00400  7.883E-03    0   0.8571   age078_m42            0.0000     2.4407E+00     6.6737   2.3400    96.3548
  7      0.0000     0.0000E+00    0.0000E+00    2.512000E+07  0.00400  5.251E-03    0   0.8174   age090_m42            0.0000     2.2241E+00     6.3395   1.8979    98.4299
  8      0.0000     0.0000E+00    0.0000E+00    4.000000E+07  0.00400  3.649E-03    0   0.7851   age104_m42            0.0000     1.9717E+00     6.1396   1.6636    99.0994
  9      0.0000     0.0000E+00    0.0000E+00    5.500000E+07  0.00400  3.098E-03    0   0.7629   age110_m42            0.0000     2.1352E+00     6.2483   1.8019    99.0860
 10      0.0000     0.0000E+00    0.0000E+00    1.015200E+08  0.00400  2.228E-03    0   0.7207   age116_m42            0.0000     2.3684E+00     6.4233   1.8138    99.1857
 11      0.0000     0.0000E+00    0.0000E+00    2.861200E+08  0.00400  1.093E-03    0   0.6648   age125_m42            0.0000     2.2952E+00     6.4385   1.2551   101.3840
 12      0.0000     0.0000E+00    0.0000E+00    5.088000E+08  0.00400  6.597E-04    0   0.6365   age130_m42            0.0000     2.5101E+00     6.5884   1.2246   102.2995
 13      0.0000     0.0000E+00    0.0000E+00    1.434000E+09  0.00400  2.132E-04    0   0.5798   age139_m42            0.0000     1.6824E+00     6.1166   0.2046   104.4176
 14      0.0000     0.0000E+00    0.0000E+00    4.250000E+09  0.00400  5.895E-05    0   0.5377   age158_m42            0.0000     1.5122E+00     6.8119  -0.3028   102.2719
 15      0.0000     0.0000E+00    0.0000E+00    7.500000E+09  0.00400  3.510E-05    0   0.5212   age171_m42            0.0000     2.1236E+00     7.4882  -0.5181   101.9882
 16      0.0000     0.0000E+00    0.0000E+00    1.300000E+10  0.00400  2.005E-05    0   0.5034   age193_m42            0.0000     2.8604E+00     8.1359  -0.7063   101.8332
 17      0.0000     0.0000E+00    0.0000E+00    1.800000E+10  0.00400  1.525E-05    0   0.4967   age213_m42            0.0000     2.7206E+00     8.0039  -0.7276   101.3622
 18     12.7403     5.9667E-02    1.1307E-01    1.000000E+06  0.00800  1.238E-02    0   1.0000   age020_m52            0.0000     2.7993E+00     7.7839   3.0458    92.8375
 19      0.0000     0.0000E+00    0.0000E+00    3.160000E+06  0.00800  3.074E-02    0   0.9966   age045_m52            0.0000     2.7603E+00     7.6701   2.9690    93.5710
 20      0.0000     0.0000E+00    0.0000E+00    5.010000E+06  0.00800  2.668E-02    0   0.9443   age055_m52            0.0000     2.4399E+00     7.1083   2.7347    94.8227
 21      0.0000     0.0000E+00    0.0000E+00    6.610000E+06  0.00800  2.136E-02    0   0.9177   age061_m52            0.0000     1.1846E+00     5.7692   1.4936   100.1258
 22      0.0000     0.0000E+00    0.0000E+00    1.000000E+07  0.00800  1.215E-02    0   0.8827   age070_m52            0.0000     2.3736E+00     6.5365   2.2048    98.0875
 23      0.0000     0.0000E+00    0.0000E+00    1.445000E+07  0.00800  8.717E-03    0   0.8552   age078_m52            0.0000     2.3262E+00     6.5368   2.3067    97.4978
 24      0.0000     0.0000E+00    0.0000E+00    2.512000E+07  0.00800  5.592E-03    0   0.8162   age090_m52            0.0000     2.1601E+00     6.2234   1.9600    99.3822
 25      0.0000     0.0000E+00    0.0000E+00    4.000000E+07  0.00800  3.896E-03    0   0.7841   age104_m52            0.0000     2.0202E+00     6.1081   1.8632    99.9266
 26      0.0000     0.0000E+00    0.0000E+00    1.015200E+08  0.00800  2.148E-03    0   0.7226   age116_m52            0.0000     1.9977E+00     6.2032   1.7869    99.8643
 27      0.0000     0.0000E+00    0.0000E+00    2.861200E+08  0.00800  9.925E-04    0   0.6683   age125_m52            0.0000     2.4271E+00     6.4486   1.2876   103.1574
 28     23.7540     4.3847E+00    5.1001E+00    9.047900E+08  0.00800  3.141E-04    0   0.6138   age135_m52            0.0000     2.3821E+00     7.0725   0.4107   107.5506
 29      0.0000     0.0000E+00    0.0000E+00    1.434000E+09  0.00800  1.719E-04    0   0.5853   age139_m52            0.0000     1.6501E+00     6.8130  -0.1937   106.2429
 30      0.0000     0.0000E+00    0.0000E+00    2.500000E+09  0.00800  7.872E-05    0   0.5600   age150_m52            0.0000     2.3770E+00     8.0228  -0.5202   104.7123
 31      0.0000     0.0000E+00    0.0000E+00    4.250000E+09  0.00800  4.336E-05    0   0.5426   age158_m52            0.0000     2.5883E+00     8.1540  -0.5410   103.9267
 32      0.0000     0.0000E+00    0.0000E+00    6.250000E+09  0.00800  3.159E-05    0   0.5319   age166_m52            0.0000     3.7730E+00     9.3066  -0.7814   104.3729
 33      0.0000     0.0000E+00    0.0000E+00    1.300000E+10  0.00800  1.361E-05    0   0.5073   age193_m52            0.0000     6.5999E+00     8.9817  -1.0000   100.3264
 34      5.4874     3.2182E+01    3.0432E+01    1.800000E+10  0.00800  9.886E-06    0   0.4990   age213_m52            0.0000     9.0792E+00    10.5810  -1.0000    98.3020
 35      7.8887     2.9623E-02    5.6137E-02    1.000000E+06  0.02000  1.544E-02    0   1.0000   age020_m62            0.0000     2.8469E+00     7.8522   3.0421    93.1248
 36      2.7673     4.2649E-03    7.9673E-03    3.160000E+06  0.02000  3.762E-02    0   0.9858   age045_m62            0.0000     2.8791E+00     7.8540   2.9800    94.0115
 37      0.0000     0.0000E+00    0.0000E+00    5.010000E+06  0.02000  3.296E-02    0   0.9342   age055_m62            0.0000     2.2545E+00     6.9046   2.6082    96.4401
 38      0.0065     3.2666E-05    5.4852E-05    8.710000E+06  0.02000  1.154E-02    0   0.8861   age067_m62            0.0000     3.5960E+00     8.0101   1.7116    99.9792
 39      0.0000     0.0000E+00    0.0000E+00    1.445000E+07  0.02000  7.663E-03    0   0.8472   age078_m62            0.0000     2.2497E+00     6.5747   1.8640    99.8961
 40      0.0000     0.0000E+00    0.0000E+00    2.512000E+07  0.02000  4.532E-03    0   0.8099   age090_m62            0.0000     2.4989E+00     6.7058   1.8640    99.2646
 41      0.0000     0.0000E+00    0.0000E+00    5.500000E+07  0.02000  2.733E-03    0   0.7595   age110_m62            0.0000     2.0244E+00     6.1414   1.8463    99.4649
 42      0.0000     0.0000E+00    0.0000E+00    1.609000E+08  0.02000  1.369E-03    0   0.6985   age120_m62            0.0000     2.4652E+00     6.3652   1.6690   101.6787
 43      0.0000     0.0000E+00    0.0000E+00    2.861200E+08  0.02000  9.013E-04    0   0.6714   age125_m62            0.0000     2.9744E+00     6.5908   1.4041   104.2026
 44      0.0000     0.0000E+00    0.0000E+00    5.088000E+08  0.02000  5.028E-04    0   0.6449   age130_m62            0.0000     3.1911E+00     7.2348   0.9733   107.1591
 45      4.0660     9.7095E-01    1.1369E+00    9.047900E+08  0.02000  2.428E-04    0   0.6179   age135_m62            0.0000     2.3049E+00     7.4798   0.3238   107.5471
 46      0.0070     3.2190E-03    3.6039E-03    1.434000E+09  0.02000  1.263E-04    0   0.5908   age139_m62            0.0000     2.3734E+00     7.8308  -0.1567   106.8127
 47     14.0257     1.3587E+01    1.4607E+01    2.500000E+09  0.02000  5.985E-05    0   0.5673   age150_m62            0.0000     3.4914E+00     9.2568  -0.5827   106.4823
 48      0.0000     0.0000E+00    0.0000E+00    4.250000E+09  0.02000  3.271E-05    0   0.5468   age158_m62            0.0000     5.5938E+00    11.2382  -0.9582   106.3839
 49      4.5056     1.9208E+01    1.8808E+01    1.000000E+10  0.02000  1.360E-05    0   0.5167   age181_m62            0.0000     1.0106E+01    10.3187  -1.0000   101.5519
 50      0.0000     0.0000E+00    0.0000E+00    1.800000E+10  0.02000  7.124E-06    0   0.5013   age213_m62            0.0000     1.4861E+01    12.9623  -1.0000    97.5975
 51      7.6990     1.7222E-02    3.2628E-02    1.000000E+06  0.05000  2.592E-02    0   0.9998   age020_m72            0.0000     3.0338E+00     8.0423   3.0348    93.2924
 52      0.0000     0.0000E+00    0.0000E+00    3.160000E+06  0.05000  4.845E-02    0   0.9577   age045_m72            0.0000     2.6330E+00     7.4460   2.8626    94.7741
 53      0.0000     0.0000E+00    0.0000E+00    5.010000E+06  0.05000  3.072E-02    0   0.9147   age055_m72            0.0000     2.5622E+00     7.0523   2.4241    97.2796
 54      0.0000     0.0000E+00    0.0000E+00    6.610000E+06  0.05000  1.455E-02    0   0.8877   age061_m72            0.0000     5.0290E+00     9.7276   1.7759   100.4333
 55      0.0000     0.0000E+00    0.0000E+00    1.000000E+07  0.05000  9.074E-03    0   0.8524   age070_m72            0.0000     2.8806E+00     7.5296   2.6068    96.8911
 56      0.0000     0.0000E+00    0.0000E+00    2.512000E+07  0.05000  4.250E-03    0   0.7902   age090_m72            0.0000     2.6100E+00     6.9232   2.3163    97.7257
 57      0.0000     0.0000E+00    0.0000E+00    4.000000E+07  0.05000  3.087E-03    0   0.7618   age104_m72            0.0000     2.6182E+00     6.8783   2.0961    98.7730
 58      0.0000     0.0000E+00    0.0000E+00    1.015200E+08  0.05000  1.700E-03    0   0.7096   age116_m72            0.0000     2.5836E+00     6.4911   1.8262   101.0797
 59      0.0000     0.0000E+00    0.0000E+00    2.861200E+08  0.05000  7.384E-04    0   0.6633   age125_m72            0.0000     3.0892E+00     6.8352   1.2401   105.6371
 60      0.0168     2.5496E-03    3.0787E-03    5.088000E+08  0.05000  3.819E-04    0   0.6372   age130_m72            0.0000     2.6026E+00     7.3813   0.6780   108.2030
 61      3.2360     1.1195E+00    1.2962E+00    9.047900E+08  0.05000  1.676E-04    0   0.6110   age135_m72            0.0000     3.1468E+00     9.0526  -0.1115   108.2576
 62      2.7243     1.7874E+00    1.9896E+00    1.434000E+09  0.05000  8.837E-05    0   0.5874   age139_m72            0.0000     4.1036E+00     9.7464  -0.5982   107.9892
 63      6.5159     8.9249E+00    9.4678E+00    2.500000E+09  0.05000  4.233E-05    0   0.5598   age150_m72            0.0000     6.3332E+00    11.9705  -0.9876   107.6628
 64      0.0000     0.0000E+00    0.0000E+00    6.250000E+09  0.05000  1.435E-05    0   0.5249   age166_m72            0.0000     1.1482E+01    11.0756  -1.0000    99.8100
 65      1.9859     1.7678E+01    1.6871E+01    1.300000E+10  0.05000  6.513E-06    0   0.5036   age193_m72            0.0000     1.8759E+01    16.8269  -1.0000    96.3250
 66      0.0000     0.0000E+00    0.0000E+00    1.800000E+10  0.05000  4.527E-06    0   0.4945   age213_m72            0.0000     2.4096E+01    21.3067  -1.0000    93.3815


## Synthesis Results - Average & Chains ##

# j      x_j: min, <> & last-chain-values for 1 ...  7 chains
  1      7.5209      6.3922      7.5594      7.2268      7.5689      4.3594      7.0759      6.4684      6.8513
  2      0.0000      0.3270      0.0000      0.0759      0.0000      0.0000      0.0000      0.0000      0.0000
  3      0.0000      0.2465      0.0000      0.5612      0.0000      0.0000      0.0000      0.8458      0.0000
  4      0.0000      0.1554      0.0000      0.0000      0.0000      0.0000      0.0000      0.0000      0.0000
  5      0.0000      0.1572      0.1076      0.0000      0.0000      0.0000      0.0000      0.0000      0.0488
  6      0.0000      0.2308      0.0000      0.0000      0.0000      0.0000      0.0000      0.0000      0.0000
  7      0.0000      0.1392      0.0033      0.0000      0.0000      1.0479      0.1970      0.0000      0.0000
  8      0.0000      0.1824      0.0000      1.2970      0.0000      0.0000      0.0000      0.0000      0.0000
  9      0.0000      0.1471      0.0000      0.0000      0.0000      0.3291      0.0000      0.0000      0.4033
 10      0.0000      0.1170      0.0000      0.0000      0.0000      0.0000      0.0000      0.0000      0.0861
 11      0.0000      0.0854      0.0000      0.0000      0.0000      0.0000      0.0000      0.0000      0.0000
 12      0.0000      0.0741      0.0000      0.0000      0.0000      0.0000      0.0140      0.0000      0.1491
 13      0.0000      0.3640      0.0000      0.0000      0.0000      0.4465      0.0000      0.0000      0.8499
 14      0.0000      0.3436      0.0000      0.0000      0.0000      0.0000      0.0000      0.0000      0.0000
 15      0.0000      0.3019      0.2978      1.6927      1.0225      0.0000      0.0000      0.0000      0.1426
 16      0.0000      0.6166      1.5559      0.0000      0.1822      0.0000      1.3815      0.0000      0.4730
 17      0.0000      1.0174      0.1696      0.9960      0.5732      1.4156      0.0000      0.8685      0.0000
 18     12.7403      8.4941     10.2584     12.9676      6.2788     10.8579     10.0361      9.6948      8.2668
 19      0.0000      2.1588      3.3071      0.0000      0.0000      2.7892      4.1364      0.2686      2.6888
 20      0.0000      0.2118      0.0000      0.0000      0.0000      0.0000      0.1019      0.0000      0.0000
 21      0.0000      0.9526      0.1080      0.2963      0.0000      0.1337      0.0000      3.1761      0.7947
 22      0.0000      0.1733      0.0000      0.0000      0.0000      0.0000      0.3098      0.0000      0.0000
 23      0.0000      0.1678      0.0000      0.0000      0.0000      0.0000      0.0000      0.0000      0.0829
 24      0.0000      0.1302      0.0000      0.0000      0.1092      0.0000      0.0000      0.2354      0.0000
 25      0.0000      0.1781      0.0000      0.0000      0.0000      0.0000      0.0000      0.0000      0.0000
 26      0.0000      0.0980      0.0000      0.0000      0.0000      0.0000      0.0000      0.0000      0.0000
 27      0.0000      0.1351      0.0000      0.0000      0.0000      0.0000      0.0000      0.0000      0.0000
 28     23.7540     10.2648      8.8643     15.8201     15.7420     14.2766      9.0842     13.1554     10.4093
 29      0.0000      0.5190      0.0000      0.1725      0.0000      0.0000      0.0000      0.0000      0.0000
 30      0.0000      2.3820      2.2524      0.0000      1.0690      0.0000      1.2719      0.9296      0.9448
 31      0.0000      1.3837      0.0000      0.0000      1.7354      0.0000      3.0001      1.8351      0.0000
 32      0.0000      5.3863      5.2132      4.7990      7.2801      5.5433      6.6860      5.8397      5.9151
 33      0.0000      0.7209      0.6410      1.3620      2.0614      1.3590      0.4465      0.5138      0.0000
 34      5.4874      1.8719      3.0967      2.6430      1.1361      1.1136      1.8434      2.1891      1.7095
 35      7.8887      5.4260      5.5928      4.5890      9.1318      7.6335      3.1830      6.9069      6.6064
 36      2.7673      2.9063      3.2921      2.1192      2.4998      4.6971      3.5599      5.2478      3.2934
 37      0.0000      0.1504      0.0000      0.0000      0.4253      0.0000      0.0000      0.0000      0.0000
 38      0.0065      2.2220      2.6593      1.7386      3.9333      1.0211      2.8830      1.0099      0.8358
 39      0.0000      0.4342      0.0000      0.0000      0.0000      0.0000      0.0000      0.0000      0.0000
 40      0.0000      0.1569      0.0000      0.0000      0.0000      0.0000      0.0000      0.0000      0.1036
 41      0.0000      0.0871      0.0000      0.0009      0.0606      0.0000      0.0813      0.0000      0.0000
 42      0.0000      0.0595      0.0000      0.0000      0.0000      0.0000      0.0000      0.0000      0.0000
 43      0.0000      0.1458      0.0000      0.0000      0.0000      0.0000      0.0000      0.1012      0.4770
 44      0.0000      0.6723      0.0000      0.3466      0.0000      0.0000      3.3409      0.4352      0.0000
 45      4.0660      5.9925      7.3319      5.1211      4.6435      6.4836      8.9015      4.9200      5.8551
 46      0.0070      2.4273      1.2509      0.0000      3.3649      1.9058      3.4013      2.9810      6.7509
