###################################################################
## OUTPUT of StarlightChains_v04.for    [Cid@UFSC - 01/Apr/2007] ##
###################################################################

## Some input info
1999ac.txt                               [arq_obs]
Base.CB07.vall.4m                        [arq_base]
Masks.EmLines.NEW.gm                     [arq_masks]
StCv04.C11.config                        [arq_config]
   66                                    [N_base]
    0                                    [N_YAV_components = # of components with extra extinction!]
    0                                    [i_FitPowerLaw (1/0 = Yes/No)]
-9.99                                    [alpha_PowerLaw]
CCM                                      [red_law_option]
 1.458241                                [q_norm = A(l_norm)/A(V)]

## (Re)Sampling Parameters
 3741.00                                 [l_ini (A)]
 7218.00                                 [l_fin (A)]
    1.00                                 [dl    (A)]     (OBS: dl_cushion =    50.00 A)

## Normalization info
 4020.00                                 [l_norm (A) - for base]
 4010.00                                 [llow_norm (A) - window for f_obs]
 4060.00                                 [lupp_norm (A) - window for f_obs]
1.610870E-16                             [fobs_norm (in input units)]

## S/N
 3691.00                                 [llow_SN (A) - window for S/N]
 7268.00                                 [lupp_SN (A) - window for S/N]
   8.060                                 [S/N in S/N window]
   9.386                                 [S/N in norm. window]
  10.463                                 [S/N_err in S/N window]
  12.186                                 [S/N_err in norm. window]
  1.0000                                 [fscale_chi2]

## etc...
    -2007235                             [idum_orig]
  2384                                   [NOl_eff]
  2379                                   [Nl_eff]
     5    NSIGMA                         [Ntot_cliped & clip_method]
  1387680                                [Nglobal_steps]
   7                                     [N_chains]
  24                                     [NEX0s_base = N_base in EX0s-fits]
 0   0   1       38   2.0   1.589E+01    [Clip-Bug, RC-Crash & Burn-In warning-flags, n_censored_weights, wei_nsig_threshold & wei_limit]
    13     13.320     12.825      0.495  [idt_all, wdt_TotTime, wdt_UsrTime & wdt_SysTime (sec)]

## Synthesis Results - Best model ##

 3.01640E-01                             [chi2/Nl_eff]
     4.12379                             [adev (%)]

   104.07429                             [sum-of-x (%)]
 2.70351E-16                             [Flux_tot (units of input spectrum!)]
 1.41768E-12                             [Mini_tot (???)]
 7.93216E-13                             [Mcor_tot (???)]

  94.32                                  [v0_min  (km/s)]
 240.86                                  [vd_min  (km/s)]
 0.3558                                  [AV_min  (mag)]
 0.0000                                  [YAV_min (mag)]

# j     x_j(%)      Mini_j(%)     Mcor_j(%)     age_j(yr)     Z_j      (L/M)_j    YAV?  Mstars   component_j        a/Fe...       SSP_chi2r SSP_adev(%)   SSP_AV   SSP_x(%)
  1      0.0000     0.0000E+00    0.0000E+00    1.000000E+06  0.00400  1.094E-02    0   1.0000   age020_m42            0.0000     7.3043E-01     6.1160   2.7945    86.0497
  2      1.5851     7.2486E-03    1.2954E-02    3.160000E+06  0.00400  4.007E-02    0   0.9999   age045_m42            0.0000     4.5750E-01     5.0165   2.0303    93.7201
  3      0.0056     4.0529E-05    6.8728E-05    5.010000E+06  0.00400  2.539E-02    0   0.9488   age055_m42            0.0000     5.5342E-01     5.3965   2.3665    90.7037
  4      0.0000     0.0000E+00    0.0000E+00    6.610000E+06  0.00400  2.620E-02    0   0.9220   age061_m42            0.0000     4.5035E-01     4.9233   1.9535    94.0842
  5      0.0000     0.0000E+00    0.0000E+00    1.000000E+07  0.00400  1.322E-02    0   0.8862   age070_m42            0.0000     5.2730E-01     5.2204   1.6805    95.6280
  6      0.0000     0.0000E+00    0.0000E+00    1.445000E+07  0.00400  7.883E-03    0   0.8571   age078_m42            0.0000     5.8027E-01     5.4424   2.0171    92.7687
  7      0.0000     0.0000E+00    0.0000E+00    2.512000E+07  0.00400  5.251E-03    0   0.8174   age090_m42            0.0000     5.4469E-01     5.3139   1.5484    96.2452
  8      0.0000     0.0000E+00    0.0000E+00    4.000000E+07  0.00400  3.649E-03    0   0.7851   age104_m42            0.0000     4.8933E-01     5.0645   1.3127    97.4612
  9      0.0000     0.0000E+00    0.0000E+00    5.500000E+07  0.00400  3.098E-03    0   0.7629   age110_m42            0.0000     4.3697E-01     4.7695   1.4561    97.9758
 10      0.0000     0.0000E+00    0.0000E+00    1.015200E+08  0.00400  2.228E-03    0   0.7207   age116_m42            0.0000     4.3272E-01     4.7175   1.4685    98.5542
 11      0.0031     5.2099E-04    6.1903E-04    2.861200E+08  0.00400  1.093E-03    0   0.6648   age125_m42            0.0000     4.5321E-01     4.8293   0.8901   101.9716
 12     23.2600     6.4605E+00    7.3494E+00    5.088000E+08  0.00400  6.597E-04    0   0.6365   age130_m42            0.0000     4.4810E-01     4.7843   0.8686   103.4300
 13      0.0000     0.0000E+00    0.0000E+00    1.434000E+09  0.00400  2.132E-04    0   0.5798   age139_m42            0.0000     3.7535E-01     4.4895  -0.1125   106.0816
 14      0.0000     0.0000E+00    0.0000E+00    4.250000E+09  0.00400  5.895E-05    0   0.5377   age158_m42            0.0000     4.1010E-01     4.6041  -0.5410   101.5219
 15      0.0000     0.0000E+00    0.0000E+00    7.500000E+09  0.00400  3.510E-05    0   0.5212   age171_m42            0.0000     4.9301E-01     4.8867  -0.7288   100.8977
 16      4.8279     4.4121E+01    3.9696E+01    1.300000E+10  0.00400  2.005E-05    0   0.5034   age193_m42            0.0000     5.8957E-01     5.2152  -0.8931   100.3742
 17      0.0000     0.0000E+00    0.0000E+00    1.800000E+10  0.00400  1.525E-05    0   0.4967   age213_m42            0.0000     5.7782E-01     5.1821  -0.9146    99.8440
 18      0.0000     0.0000E+00    0.0000E+00    1.000000E+06  0.00800  1.238E-02    0   1.0000   age020_m52            0.0000     7.3186E-01     6.1174   2.7909    86.2172
 19      0.0000     0.0000E+00    0.0000E+00    3.160000E+06  0.00800  3.074E-02    0   0.9966   age045_m52            0.0000     7.0487E-01     6.0229   2.7118    87.1039
 20      0.0000     0.0000E+00    0.0000E+00    5.010000E+06  0.00800  2.668E-02    0   0.9443   age055_m52            0.0000     5.8852E-01     5.5297   2.4546    89.6500
 21     32.6567     2.8014E-01    4.5948E-01    6.610000E+06  0.00800  2.136E-02    0   0.9177   age061_m52            0.0000     4.9046E-01     5.1005   1.1848    96.5728
 22      0.0000     0.0000E+00    0.0000E+00    1.000000E+07  0.00800  1.215E-02    0   0.8827   age070_m52            0.0000     6.0719E-01     5.5885   1.8677    95.0058
 23      0.0000     0.0000E+00    0.0000E+00    1.445000E+07  0.00800  8.717E-03    0   0.8552   age078_m52            0.0000     5.5737E-01     5.3395   1.9792    94.2000
 24      0.0000     0.0000E+00    0.0000E+00    2.512000E+07  0.00800  5.592E-03    0   0.8162   age090_m52            0.0000     5.4103E-01     5.3071   1.6097    97.4928
 25      0.0000     0.0000E+00    0.0000E+00    4.000000E+07  0.00800  3.896E-03    0   0.7841   age104_m52            0.0000     4.8132E-01     5.0251   1.5128    98.7195
 26      0.0000     0.0000E+00    0.0000E+00    1.015200E+08  0.00800  2.148E-03    0   0.7226   age116_m52            0.0000     4.1848E-01     4.6951   1.4392    99.1862
 27      0.0000     0.0000E+00    0.0000E+00    2.861200E+08  0.00800  9.925E-04    0   0.6683   age125_m52            0.0000     4.5074E-01     4.7726   0.9318   104.4714
 28      0.0000     0.0000E+00    0.0000E+00    9.047900E+08  0.00800  3.141E-04    0   0.6138   age135_m52            0.0000     4.6784E-01     4.8696   0.1162   109.8416
 29      0.0000     0.0000E+00    0.0000E+00    1.434000E+09  0.00800  1.719E-04    0   0.5853   age139_m52            0.0000     4.1332E-01     4.6672  -0.4542   107.1716
 30      0.0000     0.0000E+00    0.0000E+00    2.500000E+09  0.00800  7.872E-05    0   0.5600   age150_m52            0.0000     5.1094E-01     5.0561  -0.7206   104.3091
 31      0.0000     0.0000E+00    0.0000E+00    4.250000E+09  0.00800  4.336E-05    0   0.5426   age158_m52            0.0000     5.4412E-01     5.1283  -0.7326   103.1822
 32      0.4024     2.3341E+00    2.2189E+00    6.250000E+09  0.00800  3.159E-05    0   0.5319   age166_m52            0.0000     6.9400E-01     5.6837  -0.9404   103.5192
 33      0.0000     0.0000E+00    0.0000E+00    1.300000E+10  0.00800  1.361E-05    0   0.5073   age193_m52            0.0000     1.6553E+00     8.5799  -1.0000    87.7142
 34      0.0000     0.0000E+00    0.0000E+00    1.800000E+10  0.00800  9.886E-06    0   0.4990   age213_m52            0.0000     2.2492E+00    10.0262  -1.0000    83.4749
 35      0.0000     0.0000E+00    0.0000E+00    1.000000E+06  0.02000  1.544E-02    0   1.0000   age020_m62            0.0000     7.4169E-01     6.1537   2.7886    86.3546
 36      0.0000     0.0000E+00    0.0000E+00    3.160000E+06  0.02000  3.762E-02    0   0.9858   age045_m62            0.0000     7.3270E-01     6.1215   2.7265    87.1845
 37      0.0000     0.0000E+00    0.0000E+00    5.010000E+06  0.02000  3.296E-02    0   0.9342   age055_m62            0.0000     5.0203E-01     5.1665   2.3163    92.2887
 38      0.0000     0.0000E+00    0.0000E+00    8.710000E+06  0.02000  1.154E-02    0   0.8861   age067_m62            0.0000     1.3111E+00     8.6144   1.3443    96.2100
 39      0.0000     0.0000E+00    0.0000E+00    1.445000E+07  0.02000  7.663E-03    0   0.8472   age078_m62            0.0000     7.3544E-01     6.2319   1.5182    96.9394
 40      0.0000     0.0000E+00    0.0000E+00    2.512000E+07  0.02000  4.532E-03    0   0.8099   age090_m62            0.0000     7.6372E-01     6.3485   1.5069    96.8251
 41      0.0000     0.0000E+00    0.0000E+00    5.500000E+07  0.02000  2.733E-03    0   0.7595   age110_m62            0.0000     4.9295E-01     5.0306   1.4982    97.8860
 42      0.0000     0.0000E+00    0.0000E+00    1.609000E+08  0.02000  1.369E-03    0   0.6985   age120_m62            0.0000     4.6065E-01     4.7659   1.3104   101.9357
 43      0.0038     7.8013E-04    9.3613E-04    2.861200E+08  0.02000  9.013E-04    0   0.6714   age125_m62            0.0000     5.2027E-01     4.9706   1.0414   105.8182
 44      9.6018     3.4991E+00    4.0331E+00    5.088000E+08  0.02000  5.028E-04    0   0.6449   age130_m62            0.0000     5.5549E-01     5.1019   0.6484   109.5143
 45      0.0527     3.9749E-02    4.3897E-02    9.047900E+08  0.02000  2.428E-04    0   0.6179   age135_m62            0.0000     4.6948E-01     4.8363   0.0631   108.9410
 46      0.0052     7.5695E-03    7.9927E-03    1.434000E+09  0.02000  1.263E-04    0   0.5908   age139_m62            0.0000     5.0217E-01     4.9703  -0.3746   107.0789
 47      2.1136     6.4708E+00    6.5608E+00    2.500000E+09  0.02000  5.985E-05    0   0.5673   age150_m62            0.0000     6.6514E-01     5.6718  -0.7400   105.6720
 48      0.0000     0.0000E+00    0.0000E+00    4.250000E+09  0.02000  3.271E-05    0   0.5468   age158_m62            0.0000     9.4408E-01     6.6112  -1.0000   103.1892
 49      0.0000     0.0000E+00    0.0000E+00    1.000000E+10  0.02000  1.360E-05    0   0.5167   age181_m62            0.0000     2.0080E+00     9.2848  -1.0000    89.6955
 50      0.0000     0.0000E+00    0.0000E+00    1.800000E+10  0.02000  7.124E-06    0   0.5013   age213_m62            0.0000     3.1067E+00    11.6336  -1.0000    81.4818
 51      0.0000     0.0000E+00    0.0000E+00    1.000000E+06  0.05000  2.592E-02    0   0.9998   age020_m72            0.0000     7.8329E-01     6.2920   2.7841    86.2050
 52      0.0000     0.0000E+00    0.0000E+00    3.160000E+06  0.05000  4.845E-02    0   0.9577   age045_m72            0.0000     6.3350E-01     5.7395   2.5963    88.9194
 53      0.0000     0.0000E+00    0.0000E+00    5.010000E+06  0.05000  3.072E-02    0   0.9147   age055_m72            0.0000     7.0882E-01     5.9621   2.1153    92.8705
 54      0.0000     0.0000E+00    0.0000E+00    6.610000E+06  0.05000  1.455E-02    0   0.8877   age061_m72            0.0000     1.9905E+00    10.8653   1.4005    96.5920
 55      0.0000     0.0000E+00    0.0000E+00    1.000000E+07  0.05000  9.074E-03    0   0.8524   age070_m72            0.0000     8.2659E-01     6.4046   2.3016    92.5925
 56      0.0000     0.0000E+00    0.0000E+00    2.512000E+07  0.05000  4.250E-03    0   0.7902   age090_m72            0.0000     6.5744E-01     5.7749   1.9787    95.2607
 57      0.0000     0.0000E+00    0.0000E+00    4.000000E+07  0.05000  3.087E-03    0   0.7618   age104_m72            0.0000     6.5946E-01     5.8116   1.7412    97.2630
 58      0.0000     0.0000E+00    0.0000E+00    1.015200E+08  0.05000  1.700E-03    0   0.7096   age116_m72            0.0000     4.9343E-01     4.9521   1.4580   101.2180
 59      0.0000     0.0000E+00    0.0000E+00    2.861200E+08  0.05000  7.384E-04    0   0.6633   age125_m72            0.0000     5.4222E-01     5.0239   0.8994   107.8110
 60      0.0000     0.0000E+00    0.0000E+00    5.088000E+08  0.05000  3.819E-04    0   0.6372   age130_m72            0.0000     4.9898E-01     4.9243   0.3990   110.0739
 61     28.1763     3.0805E+01    3.3639E+01    9.047900E+08  0.05000  1.676E-04    0   0.6110   age135_m72            0.0000     6.2062E-01     5.5865  -0.2922   108.0776
 62      0.0000     0.0000E+00    0.0000E+00    1.434000E+09  0.05000  8.837E-05    0   0.5874   age139_m72            0.0000     7.3409E-01     5.9069  -0.7462   107.5058
 63      1.3801     5.9739E+00    5.9770E+00    2.500000E+09  0.05000  4.233E-05    0   0.5598   age150_m72            0.0000     1.0536E+00     6.9674  -1.0000   104.1012
 64      0.0000     0.0000E+00    0.0000E+00    6.250000E+09  0.05000  1.435E-05    0   0.5249   age166_m72            0.0000     2.4118E+00    10.2968  -1.0000    85.8120
 65      0.0000     0.0000E+00    0.0000E+00    1.300000E+10  0.05000  6.513E-06    0   0.5036   age193_m72            0.0000     4.0494E+00    13.5355  -1.0000    76.7473
 66      0.0000     0.0000E+00    0.0000E+00    1.800000E+10  0.05000  4.527E-06    0   0.4945   age213_m72            0.0000     5.1387E+00    15.4516  -1.0000    71.2456


## Synthesis Results - Average & Chains ##

# j      x_j: min, <> & last-chain-values for 1 ...  7 chains
  1      0.0000      0.3444      0.0000      1.5225      1.1353      1.3485      1.5710      0.0000      0.0000
  2      1.5851      0.9443      4.1441      0.0375      6.9164      0.3096      0.0000      0.7648      0.0000
  3      0.0056      0.3021      0.0000      0.0000      0.6435      0.0000      0.0000      0.0000      0.0000
  4      0.0000      0.8773      0.7465      0.8318      0.0000      0.0000      3.1247      0.0000      0.5497
  5      0.0000      0.6194      0.0000      0.0000      0.0000      3.8815      0.0000      1.5563      1.2820
  6      0.0000      1.0206      1.1172      4.3454      0.4038      3.1935      1.8689      0.0000      0.7763
  7      0.0000      1.3924      1.7420      0.0000      3.1437      2.1359      0.0000      0.0000      0.0000
  8      0.0000      1.2352      0.0000      0.9847      0.0000      0.0083      0.0000      0.1298      0.0000
  9      0.0000      1.8136      4.3256      6.2226      0.5181      0.0000      4.4757      6.5931      1.7827
 10      0.0000      0.6630      1.6421      0.5383      0.0000      0.6198      0.0000      0.0000      5.8536
 11      0.0031      1.8283      0.0000      0.0000      2.6501      0.0000      0.0000      1.0648      3.2376
 12     23.2600      5.0404      6.1876      6.9049     10.4425      4.6862      8.5060      7.7703      6.0598
 13      0.0000      1.0628      0.0000      0.4535      0.8755      1.6847      0.0000      2.3473      1.3152
 14      0.0000      1.1766      2.8818      0.5724      0.0000      1.4912      2.6817      0.0000      0.1399
 15      0.0000      0.2623      0.0000      0.0000      0.0000      0.7603      0.0000      0.4729      0.7999
 16      4.8279      0.2336      1.7285      0.0000      0.7982      0.0000      0.0000      0.1488      0.0000
 17      0.0000      0.1766      0.0000      0.0000      0.0000      0.0000      0.0000      0.0000      1.0108
 18      0.0000      0.1549      1.1609      0.0000      0.0000      0.9949      0.9772      0.0000      0.0000
 19      0.0000      0.7331      0.0000      0.0000      0.0000      1.4831      1.7620      1.6133      0.8808
 20      0.0000      0.3092      1.4576      0.0000      0.0000      0.0000      0.0000      0.0000      0.0000
 21     32.6567     14.5910     16.4415     19.2006     14.7080     17.3955     12.5725     21.0843     18.8346
 22      0.0000      0.4585      0.0000      0.0000      0.0000      0.4939      0.0000      0.0000      0.0000
 23      0.0000      0.8210      0.0000      0.0000      0.0000      0.0000      0.0000      0.0000      0.9282
 24      0.0000      0.6044      0.2206      0.0000      0.0753      0.0000      0.0000      0.4561      0.0000
 25      0.0000      0.5427      0.0000      1.3710      0.8961      0.0000      0.0000      0.0000      0.0000
 26      0.0000      0.8054      0.0000      0.1621      0.0000      0.0000      0.0000      0.8069      0.3882
 27      0.0000      1.8002      1.1057      0.9756      0.0000      4.4562      3.2872      2.5374      0.0000
 28      0.0000      2.0519      0.0000      0.0000      0.0000      0.0000      0.1824      0.0000      0.0000
 29      0.0000      0.2606      0.0000      0.1074      0.0000      0.0000      0.0000      0.0797      0.0000
 30      0.0000      0.4463      0.0000      0.0000      0.0000      0.0000      0.6987      0.8922      2.8613
 31      0.0000      0.3266      0.0000      0.9780      0.0000      0.0000      1.2282      0.0000      0.0814
 32      0.4024      0.2545      0.5984      0.0000      2.2684      0.0000      0.5683      1.6419      0.0000
 33      0.0000      0.0542      0.0000      0.2104      0.0000      0.0000      0.0000      0.0000      0.0000
 34      0.0000      0.1068      0.0000      0.0000      0.0000      0.0000      0.0000      0.0000      0.0000
 35      0.0000      0.2917      0.6465      0.0000      0.0000      0.0000      1.4872      0.7128      1.9781
 36      0.0000      0.4626      0.0000      0.0000      2.3899      0.0000      0.9005      0.0000      0.0000
 37      0.0000      0.4560      0.0000      0.0000      1.0050      1.2171      1.7299      0.0000      1.3254
 38      0.0000      0.3874      0.0000      0.0000      0.0000      0.0000      0.0000      0.1273      0.0000
 39      0.0000      0.5900      0.0000      0.2211      0.0000      0.2505      0.0000      0.1789      0.0000
 40      0.0000      0.3617      0.0646      0.0000      0.9772      0.0000      1.0695      0.0000      0.0000
 41      0.0000      0.4413      0.0000      0.0000      0.0000      0.0000      0.0000      0.4261      0.0000
 42      0.0000      0.7053      0.0000      0.2757      1.6903      0.0000      0.0000      2.2291      0.0000
 43      0.0038      1.2486      0.0000      0.0000      2.2542      0.0000      0.0000      1.1927      0.8331
 44      9.6018      3.6583      3.0601      1.4191      3.8434      6.4236      0.0000      0.0000      2.3397
 45      0.0527     15.8475     20.3223     15.0975     12.8447     15.9019     15.5712     18.9715     15.0041
 46      0.0052      4.4662      4.2729      4.3789      4.0892      6.8118      4.0567      5.9535      4.7766
