###################################################################
## OUTPUT of StarlightChains_v04.for    [Cid@UFSC - 01/Apr/2007] ##
###################################################################

## Some input info
1999gd.txt                               [arq_obs]
Base.CB07.vall.4m                        [arq_base]
Masks.EmLines.NEW.gm                     [arq_masks]
StCv04.C11.config                        [arq_config]
   66                                    [N_base]
    0                                    [N_YAV_components = # of components with extra extinction!]
    0                                    [i_FitPowerLaw (1/0 = Yes/No)]
-9.99                                    [alpha_PowerLaw]
CCM                                      [red_law_option]
 1.458241                                [q_norm = A(l_norm)/A(V)]

## (Re)Sampling Parameters
 3741.00                                 [l_ini (A)]
 7218.00                                 [l_fin (A)]
    1.00                                 [dl    (A)]     (OBS: dl_cushion =    50.00 A)

## Normalization info
 4020.00                                 [l_norm (A) - for base]
 4010.00                                 [llow_norm (A) - window for f_obs]
 4060.00                                 [lupp_norm (A) - window for f_obs]
4.774062E-17                             [fobs_norm (in input units)]

## S/N
 3691.00                                 [llow_SN (A) - window for S/N]
 7268.00                                 [lupp_SN (A) - window for S/N]
   6.191                                 [S/N in S/N window]
   7.713                                 [S/N in norm. window]
   9.159                                 [S/N_err in S/N window]
  11.409                                 [S/N_err in norm. window]
  1.0000                                 [fscale_chi2]

## etc...
    -2007243                             [idum_orig]
  2383                                   [NOl_eff]
  2383                                   [Nl_eff]
     0    NSIGMA                         [Ntot_cliped & clip_method]
   650580                                [Nglobal_steps]
   7                                     [N_chains]
  12                                     [NEX0s_base = N_base in EX0s-fits]
 0   0   1       19   2.0   1.749E+01    [Clip-Bug, RC-Crash & Burn-In warning-flags, n_censored_weights, wei_nsig_threshold & wei_limit]
    12     11.260     10.770      0.490  [idt_all, wdt_TotTime, wdt_UsrTime & wdt_SysTime (sec)]

## Synthesis Results - Best model ##

 4.11567E-01                             [chi2/Nl_eff]
     5.64008                             [adev (%)]

   106.48492                             [sum-of-x (%)]
 1.21334E-16                             [Flux_tot (units of input spectrum!)]
 1.79994E-13                             [Mini_tot (???)]
 1.17493E-13                             [Mcor_tot (???)]

 -60.80                                  [v0_min  (km/s)]
 132.73                                  [vd_min  (km/s)]
 0.6477                                  [AV_min  (mag)]
 0.0000                                  [YAV_min (mag)]

# j     x_j(%)      Mini_j(%)     Mcor_j(%)     age_j(yr)     Z_j      (L/M)_j    YAV?  Mstars   component_j        a/Fe...       SSP_chi2r SSP_adev(%)   SSP_AV   SSP_x(%)
  1      0.0000     0.0000E+00    0.0000E+00    1.000000E+06  0.00400  1.094E-02    0   1.0000   age020_m42            0.0000     7.8207E-01     8.8073   2.4885    91.8467
  2      0.0000     0.0000E+00    0.0000E+00    3.160000E+06  0.00400  4.007E-02    0   0.9999   age045_m42            0.0000     5.6945E-01     7.2179   1.7850    97.0742
  3      0.0000     0.0000E+00    0.0000E+00    5.010000E+06  0.00400  2.539E-02    0   0.9488   age055_m42            0.0000     6.5231E-01     7.8656   2.0938    95.2027
  4      0.0000     0.0000E+00    0.0000E+00    6.610000E+06  0.00400  2.620E-02    0   0.9220   age061_m42            0.0000     5.5112E-01     7.0048   1.7116    97.2666
  5      0.0000     0.0000E+00    0.0000E+00    1.000000E+07  0.00400  1.322E-02    0   0.8862   age070_m42            0.0000     5.5232E-01     7.1403   1.4183    99.6926
  6      0.0000     0.0000E+00    0.0000E+00    1.445000E+07  0.00400  7.883E-03    0   0.8571   age078_m42            0.0000     6.0102E-01     7.5280   1.7412    97.4102
  7      0.0000     0.0000E+00    0.0000E+00    2.512000E+07  0.00400  5.251E-03    0   0.8174   age090_m42            0.0000     5.4796E-01     7.0983   1.2884   100.1993
  8      0.0000     0.0000E+00    0.0000E+00    4.000000E+07  0.00400  3.649E-03    0   0.7851   age104_m42            0.0000     5.1636E-01     6.8412   1.0642   100.8819
  9      0.0000     0.0000E+00    0.0000E+00    5.500000E+07  0.00400  3.098E-03    0   0.7629   age110_m42            0.0000     4.8078E-01     6.4247   1.2269   100.5368
 10     11.4366     3.2495E+00    3.5877E+00    1.015200E+08  0.00400  2.228E-03    0   0.7207   age116_m42            0.0000     4.6336E-01     6.1323   1.2537   100.4549
 11      7.0706     4.0952E+00    4.1707E+00    2.861200E+08  0.00400  1.093E-03    0   0.6648   age125_m42            0.0000     4.5774E-01     6.0563   0.6868   103.3085
 12      0.0000     0.0000E+00    0.0000E+00    5.088000E+08  0.00400  6.597E-04    0   0.6365   age130_m42            0.0000     4.3676E-01     5.8426   0.6849   103.8459
 13      0.0000     0.0000E+00    0.0000E+00    1.434000E+09  0.00400  2.132E-04    0   0.5798   age139_m42            0.0000     4.4958E-01     6.0044  -0.2810   105.5526
 14      0.0000     0.0000E+00    0.0000E+00    4.250000E+09  0.00400  5.895E-05    0   0.5377   age158_m42            0.0000     6.0030E-01     7.1487  -0.7230   101.7198
 15      0.0000     0.0000E+00    0.0000E+00    7.500000E+09  0.00400  3.510E-05    0   0.5212   age171_m42            0.0000     6.9092E-01     7.5946  -0.9064   100.9182
 16      0.0000     0.0000E+00    0.0000E+00    1.300000E+10  0.00400  2.005E-05    0   0.5034   age193_m42            0.0000     8.0642E-01     7.9158  -1.0000    97.7367
 17      0.0000     0.0000E+00    0.0000E+00    1.800000E+10  0.00400  1.525E-05    0   0.4967   age213_m42            0.0000     8.0855E-01     7.8881  -1.0000    96.4345
 18      0.0000     0.0000E+00    0.0000E+00    1.000000E+06  0.00800  1.238E-02    0   1.0000   age020_m52            0.0000     7.8492E-01     8.8169   2.4848    92.0246
 19      0.0000     0.0000E+00    0.0000E+00    3.160000E+06  0.00800  3.074E-02    0   0.9966   age045_m52            0.0000     7.7359E-01     8.7133   2.4095    92.7758
 20      0.0000     0.0000E+00    0.0000E+00    5.010000E+06  0.00800  2.668E-02    0   0.9443   age055_m52            0.0000     6.8173E-01     8.0803   2.1729    94.5009
 21      0.0000     0.0000E+00    0.0000E+00    6.610000E+06  0.00800  2.136E-02    0   0.9177   age061_m52            0.0000     5.6695E-01     7.4207   0.9130   101.0943
 22      0.0000     0.0000E+00    0.0000E+00    1.000000E+07  0.00800  1.215E-02    0   0.8827   age070_m52            0.0000     5.9514E-01     7.5045   1.5913    99.7227
 23      0.0000     0.0000E+00    0.0000E+00    1.445000E+07  0.00800  8.717E-03    0   0.8552   age078_m52            0.0000     5.8262E-01     7.3993   1.7074    98.6892
 24      0.0000     0.0000E+00    0.0000E+00    2.512000E+07  0.00800  5.592E-03    0   0.8162   age090_m52            0.0000     5.3935E-01     7.0425   1.3533   101.3020
 25      0.0000     0.0000E+00    0.0000E+00    4.000000E+07  0.00800  3.896E-03    0   0.7841   age104_m52            0.0000     5.0299E-01     6.7007   1.2720   101.8171
 26      0.0000     0.0000E+00    0.0000E+00    1.015200E+08  0.00800  2.148E-03    0   0.7226   age116_m52            0.0000     4.6704E-01     6.2575   1.2187   101.3395
 27      0.0000     0.0000E+00    0.0000E+00    2.861200E+08  0.00800  9.925E-04    0   0.6683   age125_m52            0.0000     4.2491E-01     5.7451   0.7503   104.7526
 28      0.0000     0.0000E+00    0.0000E+00    9.047900E+08  0.00800  3.141E-04    0   0.6138   age135_m52            0.0000     4.7629E-01     6.1265  -0.0324   108.3445
 29      0.0000     0.0000E+00    0.0000E+00    1.434000E+09  0.00800  1.719E-04    0   0.5853   age139_m52            0.0000     5.5570E-01     6.7617  -0.6180   106.4163
 30      0.0000     0.0000E+00    0.0000E+00    2.500000E+09  0.00800  7.872E-05    0   0.5600   age150_m52            0.0000     6.9258E-01     7.4803  -0.8819   103.5203
 31      0.0000     0.0000E+00    0.0000E+00    4.250000E+09  0.00800  4.336E-05    0   0.5426   age158_m52            0.0000     7.2649E-01     7.6672  -0.8971   102.5748
 32      0.0000     0.0000E+00    0.0000E+00    6.250000E+09  0.00800  3.159E-05    0   0.5319   age166_m52            0.0000     8.8761E-01     8.0975  -1.0000    98.7916
 33      0.0000     0.0000E+00    0.0000E+00    1.300000E+10  0.00800  1.361E-05    0   0.5073   age193_m52            0.0000     2.1109E+00    11.5608  -1.0000    80.9487
 34      0.0000     0.0000E+00    0.0000E+00    1.800000E+10  0.00800  9.886E-06    0   0.4990   age213_m52            0.0000     2.6272E+00    12.8507  -1.0000    76.8788
 35      0.0000     0.0000E+00    0.0000E+00    1.000000E+06  0.02000  1.544E-02    0   1.0000   age020_m62            0.0000     7.9343E-01     8.8579   2.4798    92.2851
 36      0.0000     0.0000E+00    0.0000E+00    3.160000E+06  0.02000  3.762E-02    0   0.9858   age045_m62            0.0000     7.9415E-01     8.8355   2.4191    93.0944
 37      0.0000     0.0000E+00    0.0000E+00    5.010000E+06  0.02000  3.296E-02    0   0.9342   age055_m62            0.0000     6.1598E-01     7.5187   2.0577    96.2049
 38      9.7219     5.3331E-01    7.2395E-01    8.710000E+06  0.02000  1.154E-02    0   0.8861   age067_m62            0.0000     9.2022E-01     9.5351   1.0143   103.5240
 39      0.0000     0.0000E+00    0.0000E+00    1.445000E+07  0.02000  7.663E-03    0   0.8472   age078_m62            0.0000     6.4677E-01     7.9299   1.2305   102.2514
 40      0.0000     0.0000E+00    0.0000E+00    2.512000E+07  0.02000  4.532E-03    0   0.8099   age090_m62            0.0000     6.6387E-01     7.9475   1.2241   101.8806
 41      0.0000     0.0000E+00    0.0000E+00    5.500000E+07  0.02000  2.733E-03    0   0.7595   age110_m62            0.0000     5.1632E-01     6.7936   1.2514   101.2411
 42      0.0000     0.0000E+00    0.0000E+00    1.609000E+08  0.02000  1.369E-03    0   0.6985   age120_m62            0.0000     4.4561E-01     5.8991   1.1063   103.3189
 43      4.5275     3.1800E+00    3.2708E+00    2.861200E+08  0.02000  9.013E-04    0   0.6714   age125_m62            0.0000     4.2551E-01     5.7547   0.8638   105.8849
 44      0.0000     0.0000E+00    0.0000E+00    5.088000E+08  0.02000  5.028E-04    0   0.6449   age130_m62            0.0000     4.4952E-01     5.9769   0.5000   108.1123
 45      0.0000     0.0000E+00    0.0000E+00    9.047900E+08  0.02000  2.428E-04    0   0.6179   age135_m62            0.0000     5.2545E-01     6.4088  -0.0836   107.4092
 46      0.0000     0.0000E+00    0.0000E+00    1.434000E+09  0.02000  1.263E-04    0   0.5908   age139_m62            0.0000     6.3353E-01     7.1021  -0.5300   105.9597
 47      0.0000     0.0000E+00    0.0000E+00    2.500000E+09  0.02000  5.985E-05    0   0.5673   age150_m62            0.0000     8.1807E-01     7.9659  -0.8912   104.4101
 48      0.0000     0.0000E+00    0.0000E+00    4.250000E+09  0.02000  3.271E-05    0   0.5468   age158_m62            0.0000     1.1767E+00     9.0584  -1.0000    95.9855
 49      0.0000     0.0000E+00    0.0000E+00    1.000000E+10  0.02000  1.360E-05    0   0.5167   age181_m62            0.0000     2.2639E+00    11.9738  -1.0000    82.7621
 50      0.0000     0.0000E+00    0.0000E+00    1.800000E+10  0.02000  7.124E-06    0   0.5013   age213_m62            0.0000     3.2313E+00    14.2453  -1.0000    74.9225
 51      0.0000     0.0000E+00    0.0000E+00    1.000000E+06  0.05000  2.592E-02    0   0.9998   age020_m72            0.0000     8.2059E-01     9.0050   2.4693    92.3901
 52      0.0000     0.0000E+00    0.0000E+00    3.160000E+06  0.05000  4.845E-02    0   0.9577   age045_m72            0.0000     7.3251E-01     8.3844   2.3090    94.0126
 53      0.0000     0.0000E+00    0.0000E+00    5.010000E+06  0.05000  3.072E-02    0   0.9147   age055_m72            0.0000     6.8227E-01     8.1767   1.8220    98.3976
 54      0.0000     0.0000E+00    0.0000E+00    6.610000E+06  0.05000  1.455E-02    0   0.8877   age061_m72            0.0000     1.3979E+00    11.6423   1.0574   104.8231
 55      0.0000     0.0000E+00    0.0000E+00    1.000000E+07  0.05000  9.074E-03    0   0.8524   age070_m72            0.0000     7.8162E-01     8.6857   2.0125    98.0278
 56      0.0000     0.0000E+00    0.0000E+00    2.512000E+07  0.05000  4.250E-03    0   0.7902   age090_m72            0.0000     6.4430E-01     7.7237   1.7156    99.4647
 57      0.0000     0.0000E+00    0.0000E+00    4.000000E+07  0.05000  3.087E-03    0   0.7618   age104_m72            0.0000     6.2705E-01     7.4971   1.4891   100.9571
 58      0.0000     0.0000E+00    0.0000E+00    1.015200E+08  0.05000  1.700E-03    0   0.7096   age116_m72            0.0000     4.7019E-01     6.1364   1.2447   103.0346
 59     41.5741     3.5642E+01    3.6218E+01    2.861200E+08  0.05000  7.384E-04    0   0.6633   age125_m72            0.0000     4.2405E-01     5.7809   0.7390   106.9961
 60     32.1541     5.3299E+01    5.2029E+01    5.088000E+08  0.05000  3.819E-04    0   0.6372   age130_m72            0.0000     4.7680E-01     6.1127   0.2541   108.4225
 61      0.0000     0.0000E+00    0.0000E+00    9.047900E+08  0.05000  1.676E-04    0   0.6110   age135_m72            0.0000     7.2433E-01     7.4745  -0.4365   106.4547
 62      0.0000     0.0000E+00    0.0000E+00    1.434000E+09  0.05000  8.837E-05    0   0.5874   age139_m72            0.0000     8.6000E-01     8.1074  -0.8893   105.7841
 63      0.0000     0.0000E+00    0.0000E+00    2.500000E+09  0.05000  4.233E-05    0   0.5598   age150_m72            0.0000     1.2486E+00     9.3544  -1.0000    96.7874
 64      0.0000     0.0000E+00    0.0000E+00    6.250000E+09  0.05000  1.435E-05    0   0.5249   age166_m72            0.0000     2.6707E+00    12.9862  -1.0000    79.0224
 65      0.0000     0.0000E+00    0.0000E+00    1.300000E+10  0.05000  6.513E-06    0   0.5036   age193_m72            0.0000     4.1047E+00    16.0784  -1.0000    70.3840
 66      0.0000     0.0000E+00    0.0000E+00    1.800000E+10  0.05000  4.527E-06    0   0.4945   age213_m72            0.0000     5.0353E+00    17.8202  -1.0000    65.2071


## Synthesis Results - Average & Chains ##

# j      x_j: min, <> & last-chain-values for 1 ...  7 chains
  1      0.0000      0.1798      0.0000      0.0000      0.0000      0.0000      1.1763      0.0000      0.2375
  2      0.0000      0.3198      0.0000      1.9447      0.0000      0.7863      0.1302      0.0000      0.5109
  3      0.0000      0.1419      0.0000      0.0000      0.0000      0.0000      0.0000      0.3501      0.0000
  4      0.0000      0.4676      0.0000      0.0000      0.0000      0.4214      0.0000      0.0000      0.0000
  5      0.0000      0.3787      0.0000      0.0000      0.0000      0.1098      0.0000      0.5562      0.0000
  6      0.0000      0.2495      0.0000      0.0000      0.0000      0.0000      0.0000      2.9692      0.0000
  7      0.0000      0.4891      0.0000      0.0000      0.0000      0.0000      0.1261      0.0000      1.6041
  8      0.0000      1.8418      2.3128      0.5287      0.1649      2.9897      1.7010      5.3478      0.0000
  9      0.0000      2.1926      0.0000      0.0000      7.8174      0.0000      0.0000      0.0000      0.0000
 10     11.4366      1.4090      0.0000      3.7880      7.3241      0.0000      0.2947      4.3774      4.0401
 11      7.0706      4.5501      3.7009      0.5833      3.8316      9.7678      3.4075      9.0825      2.0108
 12      0.0000      6.0333      6.3515      0.0000      0.0000      4.3497      7.4840      0.0000      0.0000
 13      0.0000      0.2940      1.7190      0.2773      0.0000      0.0000      0.0000      0.0000      0.4037
 14      0.0000      0.0821      0.0000      0.3917      0.0000      0.0000      0.0000      0.0000      0.0000
 15      0.0000      0.2121      0.0000      0.0000      1.0861      0.0000      0.0000      0.0000      0.0000
 16      0.0000      0.0584      0.0000      0.0000      0.0000      0.0000      0.0000      0.0000      0.0000
 17      0.0000      0.0349      0.0000      0.0000      0.0000      0.0000      0.0000      0.0000      0.0000
 18      0.0000      0.1054      1.0051      0.0000      0.0000      0.0000      0.0000      0.0000      0.0000
 19      0.0000      0.1723      0.0000      0.0000      0.0401      0.0000      0.0000      0.0999      0.4852
 20      0.0000      0.1158      0.0000      0.0000      1.4366      0.0000      0.0000      0.0000      0.0000
 21      0.0000      0.9879      0.8701      0.0000      0.0000      0.6019      0.0000      0.0000      0.0000
 22      0.0000      0.5319      0.0000      4.4073      0.5921      0.0000      0.0000      0.0000      0.3356
 23      0.0000      0.5511      0.0000      0.0000      0.0000      0.3927      0.5600      0.8459      0.0000
 24      0.0000      0.7705      1.8458      0.8103      0.0000      1.7786      0.0000      0.0000      0.0000
 25      0.0000      0.7717      0.0000      0.0000      0.0000      0.0000      0.0000      0.0000      0.4807
 26      0.0000      0.6887      0.0679      0.0000      0.0000      0.1407      0.8705      0.0000      0.2200
 27      0.0000      5.4847      0.0000     11.8528      6.2318      6.7472      2.8329      0.0000      5.3138
 28      0.0000      1.6197      0.1506      0.0000      3.4559      0.0000      2.7169      2.9818      4.0971
 29      0.0000      0.1078      0.0000      0.0000      0.0000      0.0000      0.0000      0.0000      0.0000
 30      0.0000      0.2598      0.6637      0.0000      0.1641      0.0000      0.0000      0.4689      0.4911
 31      0.0000      0.1138      0.0000      0.0000      0.0000      0.0000      0.0000      0.0000      0.2241
 32      0.0000      0.0392      0.0000      0.3670      0.0000      0.0000      0.0000      0.0000      0.0000
 33      0.0000      0.0180      0.0000      0.0000      0.0000      0.0000      0.0000      0.0000      0.0808
 34      0.0000      0.0067      0.0000      0.0000      0.0000      0.0000      0.0000      0.0154      0.0000
 35      0.0000      0.1453      0.0000      0.0000      0.0000      0.0000      0.0477      0.0000      0.0000
 36      0.0000      0.2260      0.0000      0.0000      1.1174      0.0000      0.0000      0.0000      0.0000
 37      0.0000      0.1344      0.0000      0.0000      0.0000      0.0000      0.0000      0.0000      0.0000
 38      9.7219      1.0060      2.8409      2.3254      2.2106      3.7891      8.4775      3.5814      3.0467
 39      0.0000      0.3916      0.0867      0.0000      0.0000      0.0000      0.0000      0.0000      0.0000
 40      0.0000      0.5248      1.4347      0.5283      0.6043      0.1141      0.0000      0.0000      0.4968
 41      0.0000      0.9805      0.0000      0.5290      0.0000      0.0000      0.0000      0.0000      0.0000
 42      0.0000      1.4217      0.4622      2.0396      0.0000      1.3810      1.7344      2.4882      2.1071
 43      4.5275      8.5254     17.1721      6.4337      0.0000      0.0000      6.1907      4.3492      9.4566
 44      0.0000     14.4270     13.6046     10.9466     13.5522     10.5851     13.5716      8.0452     11.3243
 45      0.0000      0.7219      0.0000      0.0000      0.4571      0.0000      0.0000      0.0000      0.0000
 46      0.0000      0.4105      0.0000      0.4229      0.4953      2.4372      0.0000      0.0000      0.0000
