###################################################################
## OUTPUT of StarlightChains_v04.for    [Cid@UFSC - 01/Apr/2007] ##
###################################################################

## Some input info
1999di.txt                               [arq_obs]
Base.CB07.vall.4m                        [arq_base]
Masks.EmLines.NEW.gm                     [arq_masks]
StCv04.C11.config                        [arq_config]
   66                                    [N_base]
    0                                    [N_YAV_components = # of components with extra extinction!]
    0                                    [i_FitPowerLaw (1/0 = Yes/No)]
-9.99                                    [alpha_PowerLaw]
CCM                                      [red_law_option]
 1.458241                                [q_norm = A(l_norm)/A(V)]

## (Re)Sampling Parameters
 3741.00                                 [l_ini (A)]
 7218.00                                 [l_fin (A)]
    1.00                                 [dl    (A)]     (OBS: dl_cushion =    50.00 A)

## Normalization info
 4020.00                                 [l_norm (A) - for base]
 4010.00                                 [llow_norm (A) - window for f_obs]
 4060.00                                 [lupp_norm (A) - window for f_obs]
7.682685E-17                             [fobs_norm (in input units)]

## S/N
 3691.00                                 [llow_SN (A) - window for S/N]
 7268.00                                 [lupp_SN (A) - window for S/N]
   9.472                                 [S/N in S/N window]
   9.416                                 [S/N in norm. window]
  12.701                                 [S/N_err in S/N window]
  12.627                                 [S/N_err in norm. window]
  1.0000                                 [fscale_chi2]

## etc...
    -2007237                             [idum_orig]
  2384                                   [NOl_eff]
  2384                                   [Nl_eff]
     0    NSIGMA                         [Ntot_cliped & clip_method]
  1695680                                [Nglobal_steps]
   7                                     [N_chains]
  29                                     [NEX0s_base = N_base in EX0s-fits]
 0   0   1        0   2.0   2.049E+01    [Clip-Bug, RC-Crash & Burn-In warning-flags, n_censored_weights, wei_nsig_threshold & wei_limit]
    15     15.304     14.806      0.499  [idt_all, wdt_TotTime, wdt_UsrTime & wdt_SysTime (sec)]

## Synthesis Results - Best model ##

 3.94484E-01                             [chi2/Nl_eff]
     4.09664                             [adev (%)]

   108.21912                             [sum-of-x (%)]
 1.74838E-16                             [Flux_tot (units of input spectrum!)]
 1.39216E-12                             [Mini_tot (???)]
 7.60390E-13                             [Mcor_tot (???)]

 -99.97                                  [v0_min  (km/s)]
 162.62                                  [vd_min  (km/s)]
 0.5534                                  [AV_min  (mag)]
 0.0000                                  [YAV_min (mag)]

# j     x_j(%)      Mini_j(%)     Mcor_j(%)     age_j(yr)     Z_j      (L/M)_j    YAV?  Mstars   component_j        a/Fe...       SSP_chi2r SSP_adev(%)   SSP_AV   SSP_x(%)
  1      0.0000     0.0000E+00    0.0000E+00    1.000000E+06  0.00400  1.094E-02    0   1.0000   age020_m42            0.0000     1.0022E+00     6.6964   3.1113    91.2990
  2      0.0000     0.0000E+00    0.0000E+00    3.160000E+06  0.00400  4.007E-02    0   0.9999   age045_m42            0.0000     8.0446E-01     5.7789   2.4013    96.8272
  3      0.0000     0.0000E+00    0.0000E+00    5.010000E+06  0.00400  2.539E-02    0   0.9488   age055_m42            0.0000     8.6930E-01     6.0888   2.7118    94.8772
  4      0.0000     0.0000E+00    0.0000E+00    6.610000E+06  0.00400  2.620E-02    0   0.9220   age061_m42            0.0000     7.6201E-01     5.6494   2.3222    97.2842
  5      0.0000     0.0000E+00    0.0000E+00    1.000000E+07  0.00400  1.322E-02    0   0.8862   age070_m42            0.0000     6.3738E-01     5.3926   1.9933   101.4553
  6      0.0000     0.0000E+00    0.0000E+00    1.445000E+07  0.00400  7.883E-03    0   0.8571   age078_m42            0.0000     6.9453E-01     5.6443   2.3222    98.8299
  7      0.0000     0.0000E+00    0.0000E+00    2.512000E+07  0.00400  5.251E-03    0   0.8174   age090_m42            0.0000     6.2492E-01     5.3625   1.8558   102.3560
  8      0.0000     0.0000E+00    0.0000E+00    4.000000E+07  0.00400  3.649E-03    0   0.7851   age104_m42            0.0000     5.9207E-01     5.1720   1.6348   102.9047
  9      0.0000     0.0000E+00    0.0000E+00    5.500000E+07  0.00400  3.098E-03    0   0.7629   age110_m42            0.0000     6.1070E-01     5.1530   1.8124   101.8163
 10      0.0000     0.0000E+00    0.0000E+00    1.015200E+08  0.00400  2.228E-03    0   0.7207   age116_m42            0.0000     6.3292E-01     5.2825   1.8485   101.2929
 11      0.0000     0.0000E+00    0.0000E+00    2.861200E+08  0.00400  1.093E-03    0   0.6648   age125_m42            0.0000     6.0094E-01     5.2681   1.2661   104.9929
 12      0.0000     0.0000E+00    0.0000E+00    5.088000E+08  0.00400  6.597E-04    0   0.6365   age130_m42            0.0000     5.8884E-01     5.2849   1.2808   104.7111
 13      7.3418     3.9963E+00    4.2422E+00    1.434000E+09  0.00400  2.132E-04    0   0.5798   age139_m42            0.0000     4.5022E-01     4.4596   0.3204   106.2462
 14      0.0000     0.0000E+00    0.0000E+00    4.250000E+09  0.00400  5.895E-05    0   0.5377   age158_m42            0.0000     5.3049E-01     4.7332  -0.0944   101.0563
 15      0.0000     0.0000E+00    0.0000E+00    7.500000E+09  0.00400  3.510E-05    0   0.5212   age171_m42            0.0000     5.8898E-01     5.0581  -0.2681    99.8070
 16      2.4534     1.4200E+01    1.3088E+01    1.300000E+10  0.00400  2.005E-05    0   0.5034   age193_m42            0.0000     6.6314E-01     5.4204  -0.4202    98.7540
 17      0.0000     0.0000E+00    0.0000E+00    1.800000E+10  0.00400  1.525E-05    0   0.4967   age213_m42            0.0000     6.5724E-01     5.3567  -0.4475    98.4855
 18      0.0000     0.0000E+00    0.0000E+00    1.000000E+06  0.00800  1.238E-02    0   1.0000   age020_m52            0.0000     1.0022E+00     6.7029   3.1084    91.4468
 19      0.0000     0.0000E+00    0.0000E+00    3.160000E+06  0.00800  3.074E-02    0   0.9966   age045_m52            0.0000     9.9335E-01     6.6448   3.0338    92.1606
 20      0.0000     0.0000E+00    0.0000E+00    5.010000E+06  0.00800  2.668E-02    0   0.9443   age055_m52            0.0000     8.7553E-01     6.1715   2.7895    94.2392
 21      0.0000     0.0000E+00    0.0000E+00    6.610000E+06  0.00800  2.136E-02    0   0.9177   age061_m52            0.0000     5.5247E-01     5.1227   1.4936   102.6018
 22      0.0000     0.0000E+00    0.0000E+00    1.000000E+07  0.00800  1.215E-02    0   0.8827   age070_m52            0.0000     6.5101E-01     5.5722   2.1573   101.9555
 23      0.0000     0.0000E+00    0.0000E+00    1.445000E+07  0.00800  8.717E-03    0   0.8552   age078_m52            0.0000     6.5972E-01     5.5064   2.2861   100.2608
 24      0.0000     0.0000E+00    0.0000E+00    2.512000E+07  0.00800  5.592E-03    0   0.8162   age090_m52            0.0000     6.0456E-01     5.2887   1.9180   103.6635
 25      0.0000     0.0000E+00    0.0000E+00    4.000000E+07  0.00800  3.896E-03    0   0.7841   age104_m52            0.0000     5.8378E-01     5.1329   1.8426   103.9023
 26      0.0000     0.0000E+00    0.0000E+00    1.015200E+08  0.00800  2.148E-03    0   0.7226   age116_m52            0.0000     5.8718E-01     5.0995   1.8047   102.6354
 27      0.0000     0.0000E+00    0.0000E+00    2.861200E+08  0.00800  9.925E-04    0   0.6683   age125_m52            0.0000     5.5980E-01     5.1918   1.3443   105.7428
 28      0.0000     0.0000E+00    0.0000E+00    9.047900E+08  0.00800  3.141E-04    0   0.6138   age135_m52            0.0000     5.0551E-01     4.8445   0.5797   108.5142
 29      0.0000     0.0000E+00    0.0000E+00    1.434000E+09  0.00800  1.719E-04    0   0.5853   age139_m52            0.0000     5.0344E-01     4.6746  -0.0018   106.4191
 30      0.0000     0.0000E+00    0.0000E+00    2.500000E+09  0.00800  7.872E-05    0   0.5600   age150_m52            0.0000     6.0920E-01     5.1858  -0.2377   102.1348
 31      0.0000     0.0000E+00    0.0000E+00    4.250000E+09  0.00800  4.336E-05    0   0.5426   age158_m52            0.0000     6.2779E-01     5.2709  -0.2519   101.1316
 32      0.0011     4.0955E-03    3.9883E-03    6.250000E+09  0.00800  3.159E-05    0   0.5319   age166_m52            0.0000     7.4859E-01     5.8687  -0.4334   100.2536
 33      0.0000     0.0000E+00    0.0000E+00    1.300000E+10  0.00800  1.361E-05    0   0.5073   age193_m52            0.0000     9.5080E-01     6.7682  -0.8749    98.4671
 34      2.6115     3.0656E+01    2.8007E+01    1.800000E+10  0.00800  9.886E-06    0   0.4990   age213_m52            0.0000     1.1318E+00     7.5222  -0.9598    97.0371
 35      0.0000     0.0000E+00    0.0000E+00    1.000000E+06  0.02000  1.544E-02    0   1.0000   age020_m62            0.0000     1.0107E+00     6.7424   3.1036    91.6913
 36      2.2334     6.8895E-03    1.2434E-02    3.160000E+06  0.02000  3.762E-02    0   0.9858   age045_m62            0.0000     1.0168E+00     6.7482   3.0433    92.4670
 37      0.0000     0.0000E+00    0.0000E+00    5.010000E+06  0.02000  3.296E-02    0   0.9342   age055_m62            0.0000     8.4691E-01     5.9621   2.6799    95.7044
 38     30.5835     3.0756E-01    4.9895E-01    8.710000E+06  0.02000  1.154E-02    0   0.8861   age067_m62            0.0000     9.9020E-01     7.4745   1.5174   109.2337
 39      0.0136     2.0524E-04    3.1834E-04    1.445000E+07  0.02000  7.663E-03    0   0.8472   age078_m62            0.0000     6.7379E-01     5.8710   1.7759   105.6242
 40      0.0074     1.9034E-04    2.8224E-04    2.512000E+07  0.02000  4.532E-03    0   0.8099   age090_m62            0.0000     7.1599E-01     6.0223   1.7649   105.4982
 41      0.0000     0.0000E+00    0.0000E+00    5.500000E+07  0.02000  2.733E-03    0   0.7595   age110_m62            0.0000     5.7863E-01     5.1385   1.8234   103.2453
 42      0.0000     0.0000E+00    0.0000E+00    1.609000E+08  0.02000  1.369E-03    0   0.6985   age120_m62            0.0000     5.8187E-01     5.1973   1.6946   104.5470
 43      0.0000     0.0000E+00    0.0000E+00    2.861200E+08  0.02000  9.013E-04    0   0.6714   age125_m62            0.0000     5.7431E-01     5.3395   1.4598   106.7740
 44      0.0000     0.0000E+00    0.0000E+00    5.088000E+08  0.02000  5.028E-04    0   0.6449   age130_m62            0.0000     5.7947E-01     5.3802   1.1182   107.8994
 45      4.5016     2.1516E+00    2.4341E+00    9.047900E+08  0.02000  2.428E-04    0   0.6179   age135_m62            0.0000     5.1916E-01     4.8954   0.5459   106.6853
 46      2.0465     1.8804E+00    2.0340E+00    1.434000E+09  0.02000  1.263E-04    0   0.5908   age139_m62            0.0000     5.5621E-01     4.9840   0.1077   104.8668
 47      0.0000     0.0000E+00    0.0000E+00    2.500000E+09  0.02000  5.985E-05    0   0.5673   age150_m62            0.0000     7.2975E-01     5.8032  -0.2315   102.2646
 48      0.0000     0.0000E+00    0.0000E+00    4.250000E+09  0.02000  3.271E-05    0   0.5468   age158_m62            0.0000     9.6885E-01     6.8889  -0.5049   100.0432
 49      1.1846     1.0109E+01    9.5628E+00    1.000000E+10  0.02000  1.360E-05    0   0.5167   age181_m62            0.0000     1.2931E+00     8.2045  -0.8161    98.0838
 50      0.1590     2.5897E+00    2.3768E+00    1.800000E+10  0.02000  7.124E-06    0   0.5013   age213_m62            0.0000     1.5895E+00     9.2464  -0.9945    96.0282
 51      2.2361     1.0011E-02    1.8326E-02    1.000000E+06  0.05000  2.592E-02    0   0.9998   age020_m72            0.0000     1.0268E+00     6.8501   3.0912    91.8756
 52      0.0000     0.0000E+00    0.0000E+00    3.160000E+06  0.05000  4.845E-02    0   0.9577   age045_m72            0.0000     9.7242E-01     6.4736   2.9357    93.2975
 53      0.0000     0.0000E+00    0.0000E+00    5.010000E+06  0.05000  3.072E-02    0   0.9147   age055_m72            0.0000     7.6623E-01     6.1522   2.3962   100.2084
 54      0.0000     0.0000E+00    0.0000E+00    6.610000E+06  0.05000  1.455E-02    0   0.8877   age061_m72            0.0000     1.9430E+00    10.1117   1.5402   111.8603
 55      0.0000     0.0000E+00    0.0000E+00    1.000000E+07  0.05000  9.074E-03    0   0.8524   age070_m72            0.0000     1.0158E+00     6.9071   2.5899    99.7337
 56      0.0000     0.0000E+00    0.0000E+00    2.512000E+07  0.05000  4.250E-03    0   0.7902   age090_m72            0.0000     8.1373E-01     6.1546   2.2838   101.6365
 57      0.0000     0.0000E+00    0.0000E+00    4.000000E+07  0.05000  3.087E-03    0   0.7618   age104_m72            0.0000     8.1912E-01     6.1576   2.0495   103.5857
 58      0.0000     0.0000E+00    0.0000E+00    1.015200E+08  0.05000  1.700E-03    0   0.7096   age116_m72            0.0000     6.1544E-01     5.3513   1.8220   104.8321
 59      0.0000     0.0000E+00    0.0000E+00    2.861200E+08  0.05000  7.384E-04    0   0.6633   age125_m72            0.0000     5.5440E-01     5.3298   1.3452   107.4034
 60     24.6995     7.5055E+00    8.7561E+00    5.088000E+08  0.05000  3.819E-04    0   0.6372   age130_m72            0.0000     5.2661E-01     5.0457   0.8810   107.8195
 61     18.9646     1.3131E+01    1.4690E+01    9.047900E+08  0.05000  1.676E-04    0   0.6110   age135_m72            0.0000     6.9230E-01     5.7362   0.2228   104.2795
 62      8.9758     1.1787E+01    1.2676E+01    1.434000E+09  0.05000  8.837E-05    0   0.5874   age139_m72            0.0000     7.6034E-01     5.9680  -0.2279   103.5749
 63      0.0000     0.0000E+00    0.0000E+00    2.500000E+09  0.05000  4.233E-05    0   0.5598   age150_m72            0.0000     1.0619E+00     7.2651  -0.4953   100.4592
 64      0.2057     1.6636E+00    1.5987E+00    6.250000E+09  0.05000  1.435E-05    0   0.5249   age166_m72            0.0000     1.4143E+00     8.5944  -0.9029    97.2564
 65      0.0000     0.0000E+00    0.0000E+00    1.300000E+10  0.05000  6.513E-06    0   0.5036   age193_m72            0.0000     1.9248E+00    10.1859  -1.0000    90.6182
 66      0.0000     0.0000E+00    0.0000E+00    1.800000E+10  0.05000  4.527E-06    0   0.4945   age213_m72            0.0000     2.4593E+00    11.4620  -1.0000    84.1420


## Synthesis Results - Average & Chains ##

# j      x_j: min, <> & last-chain-values for 1 ...  7 chains
  1      0.0000      0.4617      0.0000      1.6852      0.0000      0.0000      0.2051      0.0000      0.0689
  2      0.0000      0.2343      0.0000      0.0000      1.7762      0.6541      0.0304      0.0000      0.0000
  3      0.0000      0.4721      0.5300      0.0000      0.0000      0.3280      0.1669      0.0000      1.6932
  4      0.0000      0.4632      0.0000      0.3822      0.0000      0.0000      0.0000      1.8395      0.0000
  5      0.0000      0.2982      0.0000      0.0000      0.0000      0.0000      0.0353      0.0000      0.5655
  6      0.0000      2.4975      0.3969      1.9680      2.0593      1.7282      1.2516      1.1457      3.7750
  7      0.0000      0.4401      2.2048      0.7305      1.7334      0.1149      0.0000      0.1491      0.9274
  8      0.0000      0.5803      0.0000      0.4099      0.9017      0.0000      0.0000      0.0670      0.1904
  9      0.0000      0.5885      0.0000      0.0000      0.0000      1.0451      0.0000      1.1474      0.0000
 10      0.0000      1.6969      0.0000      2.4836      1.7750      0.0000      0.5874      1.8748      0.0000
 11      0.0000      0.4883      0.0000      0.3656      0.0000      0.0000      1.3695      0.1994      2.7624
 12      0.0000      0.7069      0.2006      0.5987      0.2435      0.3587      0.4549      0.0000      0.0000
 13      7.3418      5.9461     11.3287      6.3792     13.1455      5.5644      4.5403      7.9165      9.3517
 14      0.0000      0.2438      0.0000      0.0000      0.0000      0.0000      0.0000      0.0558      0.4837
 15      0.0000      0.8167      0.4957      1.5132      0.0000      0.0000      0.0000      0.0000      0.0856
 16      2.4534      2.0646      1.9859      2.8056      2.3084      0.4557      2.1732      1.7246      1.5531
 17      0.0000      0.5568      0.0000      2.0603      0.0000      1.3274      0.0000      0.0000      0.0000
 18      0.0000      0.5153      0.0000      0.9156      1.1149      0.0000      1.0239      0.4507      0.7208
 19      0.0000      0.5346      0.0000      1.8176      0.6877      0.0424      0.7896      0.3441      0.0000
 20      0.0000      0.2834      0.1962      0.0654      0.0000      0.0722      1.7483      0.0000      0.0000
 21      0.0000      0.7839      0.6986      0.0000      0.0000      0.4661      0.6679      0.0000      0.0000
 22      0.0000      0.3956      1.2947      0.0000      0.1855      0.3990      0.1904      0.0000      0.0000
 23      0.0000      0.9778      0.6849      1.3026      0.4445      0.3483      0.0000      0.8500      1.3067
 24      0.0000      1.6652      2.6604      0.0000      0.0000      2.4931      1.1259      1.3076      0.0000
 25      0.0000      0.6632      0.6092      0.0000      0.0000      1.0365      0.0000      1.9380      0.7658
 26      0.0000      0.4423      0.0000      0.0000      0.0000      0.0000      0.0000      0.5796      0.0000
 27      0.0000      0.6425      0.0000      1.2552      0.0000      0.0000      0.0000      0.9235      0.0000
 28      0.0000      2.5495      1.1694      0.0000      0.0000      0.0000      0.1114      0.0000      2.1002
 29      0.0000      0.6567      0.4215      0.0000      0.0000      0.7991      0.9197      0.4300      0.0000
 30      0.0000      0.3810      0.0000      0.0000      0.0000      0.0000      0.3429      0.0000      0.0000
 31      0.0000      2.8007      4.6230      1.7989      0.3263      2.9366      3.7862      2.3247      3.5880
 32      0.0011      1.0426      0.6263      0.0000      1.7989      1.4395      1.5559      1.2162      1.1952
 33      0.0000      0.0538      0.0000      0.0000      0.2730      0.5834      0.0000      0.0000      0.0000
 34      2.6115      1.1816      1.1247      1.3808      0.7370      1.0103      1.2271      1.3981      1.3617
 35      0.0000      0.5616      0.4478      1.0389      0.3336      1.4752      0.0000      1.5266      0.0000
 36      2.2334      2.0517      2.2859      1.6440      2.7436      2.6491      2.4321      3.5541      2.8224
 37      0.0000      0.2468      0.0000      0.0000      0.2636      0.4656      0.0000      0.0000      0.0000
 38     30.5835      9.6003     13.5911     11.0970     13.0139     13.3741     16.8596     11.2348     11.5836
 39      0.0136      0.4117      2.4295      0.0000      0.7914      0.0529      0.0000      0.0000      0.2793
 40      0.0074      4.0378      5.0910      4.1166      5.4252      4.5145      4.3304      4.0342      5.1657
 41      0.0000      0.5802      0.9868      2.9675      0.0000      0.2398      0.1979      0.1782      0.0000
 42      0.0000      0.4309      0.0000      0.0000      0.0000      0.0000      1.3190      0.0000      1.2851
 43      0.0000      0.5920      0.0000      0.9388      0.0000      0.0000      0.0000      0.0235      0.0000
 44      0.0000      0.5905      0.0000      0.4328      0.0000      0.7555      0.5175      0.0000      0.0000
 45      4.5016      4.8216      3.3997      3.1196      2.4302      2.1887      4.1397      6.4094      3.7175
 46      2.0465      4.9982      0.7315      5.1128      6.7852      5.9151      5.2522      6.4510      2.0701
