###################################################################
## OUTPUT of StarlightChains_v04.for    [Cid@UFSC - 01/Apr/2007] ##
###################################################################

## Some input info
1999ed.txt                               [arq_obs]
Base.CB07.vall.4m                        [arq_base]
Masks.EmLines.NEW.gm                     [arq_masks]
StCv04.C11.config                        [arq_config]
   66                                    [N_base]
    0                                    [N_YAV_components = # of components with extra extinction!]
    0                                    [i_FitPowerLaw (1/0 = Yes/No)]
-9.99                                    [alpha_PowerLaw]
CCM                                      [red_law_option]
 1.458241                                [q_norm = A(l_norm)/A(V)]

## (Re)Sampling Parameters
 3741.00                                 [l_ini (A)]
 7218.00                                 [l_fin (A)]
    1.00                                 [dl    (A)]     (OBS: dl_cushion =    50.00 A)

## Normalization info
 4020.00                                 [l_norm (A) - for base]
 4010.00                                 [llow_norm (A) - window for f_obs]
 4060.00                                 [lupp_norm (A) - window for f_obs]
1.498153E-16                             [fobs_norm (in input units)]

## S/N
 3691.00                                 [llow_SN (A) - window for S/N]
 7268.00                                 [lupp_SN (A) - window for S/N]
   5.450                                 [S/N in S/N window]
   7.569                                 [S/N in norm. window]
  14.420                                 [S/N_err in S/N window]
  20.026                                 [S/N_err in norm. window]
  1.0000                                 [fscale_chi2]

## etc...
    -2007240                             [idum_orig]
  2384                                   [NOl_eff]
  2346                                   [Nl_eff]
    38    NSIGMA                         [Ntot_cliped & clip_method]
  1725080                                [Nglobal_steps]
   7                                     [N_chains]
  26                                     [NEX0s_base = N_base in EX0s-fits]
 0   0   1        1   2.0   4.519E+01    [Clip-Bug, RC-Crash & Burn-In warning-flags, n_censored_weights, wei_nsig_threshold & wei_limit]
    16     15.870     15.374      0.496  [idt_all, wdt_TotTime, wdt_UsrTime & wdt_SysTime (sec)]

## Synthesis Results - Best model ##

 4.66723E-01                             [chi2/Nl_eff]
     3.49551                             [adev (%)]

   100.26052                             [sum-of-x (%)]
 2.40545E-16                             [Flux_tot (units of input spectrum!)]
 4.83373E-13                             [Mini_tot (???)]
 3.00810E-13                             [Mcor_tot (???)]

-283.82                                  [v0_min  (km/s)]
 165.64                                  [vd_min  (km/s)]
 0.3506                                  [AV_min  (mag)]
 0.0000                                  [YAV_min (mag)]

# j     x_j(%)      Mini_j(%)     Mcor_j(%)     age_j(yr)     Z_j      (L/M)_j    YAV?  Mstars   component_j        a/Fe...       SSP_chi2r SSP_adev(%)   SSP_AV   SSP_x(%)
  1      0.0000     0.0000E+00    0.0000E+00    1.000000E+06  0.00400  1.094E-02    0   1.0000   age020_m42            0.0000     1.2380E+00     6.1579   2.4199    81.3164
  2      0.0000     0.0000E+00    0.0000E+00    3.160000E+06  0.00400  4.007E-02    0   0.9999   age045_m42            0.0000     8.7616E-01     5.0690   1.6622    88.3573
  3      0.0000     0.0000E+00    0.0000E+00    5.010000E+06  0.00400  2.539E-02    0   0.9488   age055_m42            0.0000     9.7218E-01     5.3882   1.9911    85.7759
  4      0.0000     0.0000E+00    0.0000E+00    6.610000E+06  0.00400  2.620E-02    0   0.9220   age061_m42            0.0000     8.0554E-01     4.8384   1.5800    88.9400
  5      0.0000     0.0000E+00    0.0000E+00    1.000000E+07  0.00400  1.322E-02    0   0.8862   age070_m42            0.0000     6.5074E-01     4.1787   1.2602    92.5010
  6      0.0000     0.0000E+00    0.0000E+00    1.445000E+07  0.00400  7.883E-03    0   0.8571   age078_m42            0.0000     7.4044E-01     4.5145   1.6001    89.5995
  7      0.3663     3.4620E-02    4.5473E-02    2.512000E+07  0.00400  5.251E-03    0   0.8174   age090_m42            0.0000     6.3626E-01     4.0813   1.1196    93.4836
  8      0.0056     7.6242E-04    9.6185E-04    4.000000E+07  0.00400  3.649E-03    0   0.7851   age104_m42            0.0000     5.9080E-01     3.9285   0.8898    94.3649
  9      1.1186     1.7921E-01    2.1970E-01    5.500000E+07  0.00400  3.098E-03    0   0.7629   age110_m42            0.0000     5.9719E-01     4.0480   1.0560    93.8566
 10      0.0000     0.0000E+00    0.0000E+00    1.015200E+08  0.00400  2.228E-03    0   0.7207   age116_m42            0.0000     6.3470E-01     4.1958   1.0838    93.7270
 11      0.0000     0.0000E+00    0.0000E+00    2.861200E+08  0.00400  1.093E-03    0   0.6648   age125_m42            0.0000     5.5034E-01     3.8468   0.4986    97.5063
 12      0.0000     0.0000E+00    0.0000E+00    5.088000E+08  0.00400  6.597E-04    0   0.6365   age130_m42            0.0000     6.0886E-01     3.9951   0.5014    97.6932
 13      0.0000     0.0000E+00    0.0000E+00    1.434000E+09  0.00400  2.132E-04    0   0.5798   age139_m42            0.0000     6.1079E-01     3.9938  -0.4702    99.3829
 14      0.0000     0.0000E+00    0.0000E+00    4.250000E+09  0.00400  5.895E-05    0   0.5377   age158_m42            0.0000     8.6065E-01     4.8591  -0.8653    93.4169
 15      0.0000     0.0000E+00    0.0000E+00    7.500000E+09  0.00400  3.510E-05    0   0.5212   age171_m42            0.0000     1.0279E+00     5.3735  -1.0000    90.6199
 16      0.0000     0.0000E+00    0.0000E+00    1.300000E+10  0.00400  2.005E-05    0   0.5034   age193_m42            0.0000     1.3946E+00     6.3537  -1.0000    83.6557
 17      0.0000     0.0000E+00    0.0000E+00    1.800000E+10  0.00400  1.525E-05    0   0.4967   age213_m42            0.0000     1.4382E+00     6.4712  -1.0000    82.3743
 18      0.0000     0.0000E+00    0.0000E+00    1.000000E+06  0.00800  1.238E-02    0   1.0000   age020_m52            0.0000     1.2353E+00     6.1569   2.4168    81.4534
 19      0.0000     0.0000E+00    0.0000E+00    3.160000E+06  0.00800  3.074E-02    0   0.9966   age045_m52            0.0000     1.1969E+00     6.0690   2.3355    82.3396
 20      0.0000     0.0000E+00    0.0000E+00    5.010000E+06  0.00800  2.668E-02    0   0.9443   age055_m52            0.0000     9.9682E-01     5.4517   2.0746    84.9304
 21      0.0000     0.0000E+00    0.0000E+00    6.610000E+06  0.00800  2.136E-02    0   0.9177   age061_m52            0.0000     6.6219E-01     4.1243   0.7683    93.0487
 22      0.0000     0.0000E+00    0.0000E+00    1.000000E+07  0.00800  1.215E-02    0   0.8827   age070_m52            0.0000     6.7984E-01     4.2276   1.4352    92.5251
 23      0.0000     0.0000E+00    0.0000E+00    1.445000E+07  0.00800  8.717E-03    0   0.8552   age078_m52            0.0000     6.9085E-01     4.3316   1.5594    91.0932
 24      0.0000     0.0000E+00    0.0000E+00    2.512000E+07  0.00800  5.592E-03    0   0.8162   age090_m52            0.0000     6.0163E-01     3.9484   1.1789    94.8339
 25      3.1521     4.0158E-01    5.0598E-01    4.000000E+07  0.00800  3.896E-03    0   0.7841   age104_m52            0.0000     5.5240E-01     3.8166   1.0939    95.5253
 26      2.0024     4.6270E-01    5.3726E-01    1.015200E+08  0.00800  2.148E-03    0   0.7226   age116_m52            0.0000     5.6217E-01     3.8944   1.0433    94.8771
 27      4.4438     2.2223E+00    2.3865E+00    2.861200E+08  0.00800  9.925E-04    0   0.6683   age125_m52            0.0000     5.8951E-01     3.8990   0.5631    98.7338
 28      1.2942     2.0451E+00    2.0171E+00    9.047900E+08  0.00800  3.141E-04    0   0.6138   age135_m52            0.0000     7.3028E-01     4.3074  -0.2176   101.9718
 29      0.0000     0.0000E+00    0.0000E+00    1.434000E+09  0.00800  1.719E-04    0   0.5853   age139_m52            0.0000     7.7949E-01     4.4975  -0.7836    99.1136
 30      0.0000     0.0000E+00    0.0000E+00    2.500000E+09  0.00800  7.872E-05    0   0.5600   age150_m52            0.0000     1.0687E+00     5.5077  -1.0000    94.0693
 31      0.0000     0.0000E+00    0.0000E+00    4.250000E+09  0.00800  4.336E-05    0   0.5426   age158_m52            0.0000     1.1149E+00     5.6156  -1.0000    92.5386
 32      0.0000     0.0000E+00    0.0000E+00    6.250000E+09  0.00800  3.159E-05    0   0.5319   age166_m52            0.0000     1.6295E+00     6.8811  -1.0000    84.4114
 33      0.0000     0.0000E+00    0.0000E+00    1.300000E+10  0.00800  1.361E-05    0   0.5073   age193_m52            0.0000     4.0591E+00    11.7659  -1.0000    67.2221
 34      0.0000     0.0000E+00    0.0000E+00    1.800000E+10  0.00800  9.886E-06    0   0.4990   age213_m52            0.0000     4.8872E+00    12.9850  -1.0000    63.5509
 35      0.0000     0.0000E+00    0.0000E+00    1.000000E+06  0.02000  1.544E-02    0   1.0000   age020_m62            0.0000     1.2420E+00     6.1842   2.4131    81.6261
 36      0.0000     0.0000E+00    0.0000E+00    3.160000E+06  0.02000  3.762E-02    0   0.9858   age045_m62            0.0000     1.2279E+00     6.1590   2.3510    82.3806
 37      0.0000     0.0000E+00    0.0000E+00    5.010000E+06  0.02000  3.296E-02    0   0.9342   age055_m62            0.0000     9.2431E-01     5.2468   1.9482    86.9751
 38      9.1225     3.9237E-01    5.5868E-01    8.710000E+06  0.02000  1.154E-02    0   0.8861   age067_m62            0.0000     1.4031E+00     5.9331   0.8331    97.5548
 39      2.7429     1.7766E-01    2.4186E-01    1.445000E+07  0.02000  7.663E-03    0   0.8472   age078_m62            0.0000     7.4751E-01     4.3384   1.0628    95.5686
 40      4.4254     4.8467E-01    6.3077E-01    2.512000E+07  0.02000  4.532E-03    0   0.8099   age090_m62            0.0000     7.6460E-01     4.4179   1.0482    95.6828
 41      2.8966     5.2606E-01    6.4203E-01    5.500000E+07  0.02000  2.733E-03    0   0.7595   age110_m62            0.0000     5.5755E-01     3.8236   1.0784    94.7174
 42      0.0000     0.0000E+00    0.0000E+00    1.609000E+08  0.02000  1.369E-03    0   0.6985   age120_m62            0.0000     5.8047E-01     3.9116   0.9226    97.1596
 43      0.2171     1.1954E-01    1.2897E-01    2.861200E+08  0.02000  9.013E-04    0   0.6714   age125_m62            0.0000     6.5625E-01     4.0609   0.6704   100.0164
 44      8.1732     8.0683E+00    8.3611E+00    5.088000E+08  0.02000  5.028E-04    0   0.6449   age130_m62            0.0000     8.1077E-01     4.5527   0.3152   101.6344
 45     12.8148     2.6197E+01    2.6011E+01    9.047900E+08  0.02000  2.428E-04    0   0.6179   age135_m62            0.0000     8.6162E-01     4.8063  -0.2492    99.9700
 46      3.7797     1.4854E+01    1.4101E+01    1.434000E+09  0.02000  1.263E-04    0   0.5908   age139_m62            0.0000     9.9591E-01     5.2719  -0.6776    97.6664
 47      0.0000     0.0000E+00    0.0000E+00    2.500000E+09  0.02000  5.985E-05    0   0.5673   age150_m62            0.0000     1.3375E+00     6.2779  -1.0000    94.3755
 48      0.0000     0.0000E+00    0.0000E+00    4.250000E+09  0.02000  3.271E-05    0   0.5468   age158_m62            0.0000     2.2596E+00     8.2591  -1.0000    81.3678
 49      0.1464     5.3424E+00    4.4357E+00    1.000000E+10  0.02000  1.360E-05    0   0.5167   age181_m62            0.0000     4.2463E+00    11.6556  -1.0000    68.8064
 50      0.0000     0.0000E+00    0.0000E+00    1.800000E+10  0.02000  7.124E-06    0   0.5013   age213_m62            0.0000     5.7993E+00    13.9424  -1.0000    61.7636
 51      0.0000     0.0000E+00    0.0000E+00    1.000000E+06  0.05000  2.592E-02    0   0.9998   age020_m72            0.0000     1.2726E+00     6.2670   2.4044    81.6353
 52      0.0000     0.0000E+00    0.0000E+00    3.160000E+06  0.05000  4.845E-02    0   0.9577   age045_m72            0.0000     1.1218E+00     5.8456   2.2263    83.8172
 53      0.5449     8.8046E-03    1.2941E-02    5.010000E+06  0.05000  3.072E-02    0   0.9147   age055_m72            0.0000     8.0720E-01     4.7470   1.6960    90.0980
 54     10.2434     3.4944E-01    4.9845E-01    6.610000E+06  0.05000  1.455E-02    0   0.8877   age061_m72            0.0000     2.5136E+00     8.0687   0.8870    99.1302
 55      0.0000     0.0000E+00    0.0000E+00    1.000000E+07  0.05000  9.074E-03    0   0.8524   age070_m72            0.0000     9.9961E-01     5.4280   1.9024    89.4085
 56      0.0000     0.0000E+00    0.0000E+00    2.512000E+07  0.05000  4.250E-03    0   0.7902   age090_m72            0.0000     7.4294E-01     4.5729   1.5653    92.3797
 57      0.0606     9.7459E-03    1.1930E-02    4.000000E+07  0.05000  3.087E-03    0   0.7618   age104_m72            0.0000     7.3425E-01     4.4761   1.3209    94.6396
 58      4.7293     1.3808E+00    1.5745E+00    1.015200E+08  0.05000  1.700E-03    0   0.7096   age116_m72            0.0000     5.6121E-01     3.8544   1.0569    97.2002
 59     17.1948     1.1558E+01    1.2319E+01    2.861200E+08  0.05000  7.384E-04    0   0.6633   age125_m72            0.0000     7.1958E-01     4.2622   0.5468   101.0059
 60      6.5029     8.4516E+00    8.6538E+00    5.088000E+08  0.05000  3.819E-04    0   0.6372   age130_m72            0.0000     8.5631E-01     4.8286   0.0771   101.4420
 61      2.7582     8.1685E+00    8.0199E+00    9.047900E+08  0.05000  1.676E-04    0   0.6110   age135_m72            0.0000     1.2764E+00     6.1741  -0.5690    97.2811
 62      1.5249     8.5651E+00    8.0846E+00    1.434000E+09  0.05000  8.837E-05    0   0.5874   age139_m72            0.0000     1.4550E+00     6.5557  -1.0000    95.7226
 63      0.0000     0.0000E+00    0.0000E+00    2.500000E+09  0.05000  4.233E-05    0   0.5598   age150_m72            0.0000     2.4045E+00     8.5447  -1.0000    82.0478
 64      0.0000     0.0000E+00    0.0000E+00    6.250000E+09  0.05000  1.435E-05    0   0.5249   age166_m72            0.0000     4.9478E+00    12.7931  -1.0000    65.3944
 65      0.0000     0.0000E+00    0.0000E+00    1.300000E+10  0.05000  6.513E-06    0   0.5036   age193_m72            0.0000     7.1649E+00    15.8487  -1.0000    57.6934
 66      0.0000     0.0000E+00    0.0000E+00    1.800000E+10  0.05000  4.527E-06    0   0.4945   age213_m72            0.0000     8.5673E+00    17.5838  -1.0000    53.2461


## Synthesis Results - Average & Chains ##

# j      x_j: min, <> & last-chain-values for 1 ...  7 chains
  1      0.0000      0.1604      0.6668      0.0000      0.1137      0.0000      0.0000      0.0000      0.0000
  2      0.0000      0.3236      0.0000      0.0000      0.0000      0.0000      0.0000      0.0000      0.9389
  3      0.0000      0.2856      0.0000      0.0000      1.7406      0.8176      0.0000      0.7238      0.0000
  4      0.0000      0.5424      0.0000      0.1060      0.7116      0.0000      0.0228      0.0000      1.1016
  5      0.0000      0.6065      0.0000      0.9821      1.8399      2.4218      0.5127      0.0000      0.0000
  6      0.0000      0.5220      0.3656      0.0000      0.0000      1.0036      0.0000      0.0000      0.0000
  7      0.3663      0.9478      0.0000      0.0000      2.2509      0.1178      2.8518      0.0000      0.0000
  8      0.0056      1.1881      0.3558      0.0000      0.0000      0.7401      1.3129      0.9440      4.8094
  9      1.1186      0.6569      0.0000      0.2543      1.5659      0.9179      1.7674      0.4452      1.8322
 10      0.0000      0.3674      0.0000      0.0000      0.0000      0.3045      0.0000      0.3481      0.9869
 11      0.0000      2.5168      0.9031      1.4823      0.1160      3.6568      0.0000      4.4194      3.1421
 12      0.0000      1.7958      0.0000      0.5668      1.0529      0.0000      0.0000      0.0000      0.0000
 13      0.0000      1.3866      0.6722      0.0000      0.8670      1.8310      0.0000      0.0000      1.2914
 14      0.0000      0.0518      0.0000      0.0000      0.0000      0.0000      0.0000      0.3787      0.4062
 15      0.0000      0.1434      0.0000      0.4260      0.0268      0.2500      0.0000      0.5026      0.0000
 16      0.0000      0.3752      1.1702      0.5585      1.2069      0.3079      0.0000      0.3497      0.2968
 17      0.0000      0.0740      0.0000      0.4032      0.0000      0.0000      0.0000      0.0000      0.0000
 18      0.0000      0.1658      1.0281      0.3699      0.0000      0.1736      0.0000      0.5250      0.0000
 19      0.0000      0.2680      0.0000      1.2083      0.0000      0.6877      0.0000      1.0712      0.0000
 20      0.0000      0.3125      0.1393      0.4861      0.0000      0.2170      0.0000      0.1284      0.6214
 21      0.0000      1.8748      0.7582      0.9567      0.3525      0.0000      0.0000      0.4385      0.0000
 22      0.0000      0.4780      0.0000      0.0752      0.0000      0.0000      0.3168      0.4903      0.0000
 23      0.0000      0.3244      0.0000      0.0000      0.0000      0.6611      0.0000      2.2293      0.0000
 24      0.0000      0.6728      0.0000      1.7222      0.5810      0.0000      0.0000      0.0000      1.5652
 25      3.1521      1.4274      0.7374      2.3984      1.0407      3.2569      1.4711      0.0000      0.0000
 26      2.0024      1.4093      2.3726      0.8135      1.8595      1.5470      1.3160      2.2835      0.0000
 27      4.4438      2.2991      1.6884      1.8804      2.3838      0.0000      0.8956      0.0000      2.0169
 28      1.2942      2.1810      0.0000      0.3148      1.1812      1.6432      2.3675      0.4698      1.6305
 29      0.0000      0.2164      0.0000      0.4701      0.0000      0.0000      0.2197      0.0000      0.0000
 30      0.0000      0.1215      0.0000      0.0857      0.2825      0.0000      0.0000      0.0000      0.6920
 31      0.0000      0.0983      0.0000      0.0000      0.4954      0.0000      0.0000      0.0000      0.0000
 32      0.0000      0.1388      0.0710      0.0000      0.6651      0.0943      0.0784      0.5208      0.0000
 33      0.0000      0.0185      0.0000      0.0000      0.0000      0.0576      0.0000      0.0000      0.0000
 34      0.0000      0.0156      0.0000      0.2860      0.0000      0.0000      0.0000      0.0000      0.0000
 35      0.0000      0.1786      0.0000      1.5328      0.0000      0.5414      0.0000      0.0000      0.0000
 36      0.0000      0.2240      0.5757      0.0000      0.0386      0.0000      0.0000      0.0000      0.0000
 37      0.0000      0.3454      0.0000      0.0000      0.0000      0.0000      0.0000      0.0000      0.0000
 38      9.1225      3.9562      5.4516      7.6657      6.7326      2.5037      4.0829      6.3727      6.9734
 39      2.7429      1.3377      4.3710      1.9007      0.0000      2.5055      2.5529      4.6565      1.0464
 40      4.4254      1.4726      3.1073      1.4342      0.0000      4.9733      3.2347      0.0000      3.6966
 41      2.8966      1.2587      0.0000      0.7686      0.6072      1.1547      0.9513      0.0000      0.5808
 42      0.0000      1.6254      1.1691      1.5022      1.0775      1.8776      0.0000      6.5271      1.7373
 43      0.2171      1.5388      7.4286      0.6626      0.8446      1.0585      0.9063      1.0469      1.6531
 44      8.1732      6.6178      7.2646     10.5440      7.0573      4.9191      7.1222     12.1207      6.8669
 45     12.8148      8.7881      8.4327      9.0854      9.1003      9.1534     10.0564     10.8961     10.4569
 46      3.7797      2.4785      2.4410      2.4473      2.6014      3.9790      2.7136      2.3800      2.7035
