###################################################################
## OUTPUT of StarlightChains_v04.for    [Cid@UFSC - 01/Apr/2007] ##
###################################################################

## Some input info
1999em.txt                               [arq_obs]
Base.CB07.vall.4m                        [arq_base]
Masks.EmLines.NEW.gm                     [arq_masks]
StCv04.C11.config                        [arq_config]
   66                                    [N_base]
    0                                    [N_YAV_components = # of components with extra extinction!]
    0                                    [i_FitPowerLaw (1/0 = Yes/No)]
-9.99                                    [alpha_PowerLaw]
CCM                                      [red_law_option]
 1.458241                                [q_norm = A(l_norm)/A(V)]

## (Re)Sampling Parameters
 3741.00                                 [l_ini (A)]
 7218.00                                 [l_fin (A)]
    1.00                                 [dl    (A)]     (OBS: dl_cushion =    50.00 A)

## Normalization info
 4020.00                                 [l_norm (A) - for base]
 4010.00                                 [llow_norm (A) - window for f_obs]
 4060.00                                 [lupp_norm (A) - window for f_obs]
4.169266E-15                             [fobs_norm (in input units)]

## S/N
 3691.00                                 [llow_SN (A) - window for S/N]
 7268.00                                 [lupp_SN (A) - window for S/N]
  10.022                                 [S/N in S/N window]
  10.228                                 [S/N in norm. window]
  10.000                                 [S/N_err in S/N window]
  10.206                                 [S/N_err in norm. window]
  1.0000                                 [fscale_chi2]

## etc...
    -2007242                             [idum_orig]
  2405                                   [NOl_eff]
  2403                                   [Nl_eff]
     2    NSIGMA                         [Ntot_cliped & clip_method]
  1814820                                [Nglobal_steps]
   7                                     [N_chains]
  33                                     [NEX0s_base = N_base in EX0s-fits]
 0   0   1      127   2.0   1.311E+01    [Clip-Bug, RC-Crash & Burn-In warning-flags, n_censored_weights, wei_nsig_threshold & wei_limit]
    16     15.885     15.392      0.494  [idt_all, wdt_TotTime, wdt_UsrTime & wdt_SysTime (sec)]

## Synthesis Results - Best model ##

 5.49123E-02                             [chi2/Nl_eff]
     1.47427                             [adev (%)]

   103.43713                             [sum-of-x (%)]
 6.71294E-15                             [Flux_tot (units of input spectrum!)]
 1.00956E-10                             [Mini_tot (???)]
 5.38951E-11                             [Mcor_tot (???)]

  33.10                                  [v0_min  (km/s)]
 293.49                                  [vd_min  (km/s)]
 0.3295                                  [AV_min  (mag)]
 0.0000                                  [YAV_min (mag)]

# j     x_j(%)      Mini_j(%)     Mcor_j(%)     age_j(yr)     Z_j      (L/M)_j    YAV?  Mstars   component_j        a/Fe...       SSP_chi2r SSP_adev(%)   SSP_AV   SSP_x(%)
  1      0.0000     0.0000E+00    0.0000E+00    1.000000E+06  0.00400  1.094E-02    0   1.0000   age020_m42            0.0000     4.6210E-01     4.9357   3.1793    86.3219
  2      0.0000     0.0000E+00    0.0000E+00    3.160000E+06  0.00400  4.007E-02    0   0.9999   age045_m42            0.0000     2.5158E-01     3.6098   2.4287    93.3108
  3      0.8932     2.2615E-03    4.0193E-03    5.010000E+06  0.00400  2.539E-02    0   0.9488   age055_m42            0.0000     3.2147E-01     4.0465   2.7589    90.5846
  4      0.0000     0.0000E+00    0.0000E+00    6.610000E+06  0.00400  2.620E-02    0   0.9220   age061_m42            0.0000     2.4702E-01     3.4574   2.3533    93.5762
  5      1.9929     9.6908E-03    1.6087E-02    1.000000E+07  0.00400  1.322E-02    0   0.8862   age070_m42            0.0000     2.8517E-01     3.5823   2.0746    95.2383
  6      0.8449     6.8898E-03    1.1062E-02    1.445000E+07  0.00400  7.883E-03    0   0.8571   age078_m42            0.0000     3.2843E-01     3.8732   2.4086    92.5406
  7      1.9548     2.3931E-02    3.6641E-02    2.512000E+07  0.00400  5.251E-03    0   0.8174   age090_m42            0.0000     2.9569E-01     3.7066   1.9440    95.7756
  8      0.0000     0.0000E+00    0.0000E+00    4.000000E+07  0.00400  3.649E-03    0   0.7851   age104_m42            0.0000     2.5208E-01     3.3926   1.7110    96.8650
  9      2.9414     6.1035E-02    8.7223E-02    5.500000E+07  0.00400  3.098E-03    0   0.7629   age110_m42            0.0000     2.2962E-01     3.0678   1.8595    97.1776
 10      0.0000     0.0000E+00    0.0000E+00    1.015200E+08  0.00400  2.228E-03    0   0.7207   age116_m42            0.0000     2.3817E-01     3.0447   1.8750    97.6226
 11      0.0000     0.0000E+00    0.0000E+00    2.861200E+08  0.00400  1.093E-03    0   0.6648   age125_m42            0.0000     2.3889E-01     3.2032   1.2977   100.8736
 12      9.5580     9.3137E-01    1.1105E+00    5.088000E+08  0.00400  6.597E-04    0   0.6365   age130_m42            0.0000     2.4146E-01     3.1356   1.2808   102.1684
 13      0.0000     0.0000E+00    0.0000E+00    1.434000E+09  0.00400  2.132E-04    0   0.5798   age139_m42            0.0000     1.4407E-01     2.4193   0.3018   104.7960
 14      1.5579     1.6988E+00    1.7111E+00    4.250000E+09  0.00400  5.895E-05    0   0.5377   age158_m42            0.0000     1.3456E-01     2.5433  -0.1354   100.8102
 15      2.8286     5.1805E+00    5.0578E+00    7.500000E+09  0.00400  3.510E-05    0   0.5212   age171_m42            0.0000     1.9986E-01     3.1110  -0.3258   100.3280
 16      2.2803     7.3112E+00    6.8943E+00    1.300000E+10  0.00400  2.005E-05    0   0.5034   age193_m42            0.0000     2.7942E-01     3.6817  -0.4922    99.9210
 17      3.0827     1.2995E+01    1.2091E+01    1.800000E+10  0.00400  1.525E-05    0   0.4967   age213_m42            0.0000     2.6540E-01     3.5692  -0.5137    99.4051
 18      0.0000     0.0000E+00    0.0000E+00    1.000000E+06  0.00800  1.238E-02    0   1.0000   age020_m52            0.0000     4.6197E-01     4.9398   3.1752    86.5040
 19      5.0616     1.0585E-02    1.9760E-02    3.160000E+06  0.00800  3.074E-02    0   0.9966   age045_m52            0.0000     4.3889E-01     4.8446   3.0977    87.3274
 20      1.3513     3.2560E-03    5.7593E-03    5.010000E+06  0.00800  2.668E-02    0   0.9443   age055_m52            0.0000     3.4621E-01     4.1912   2.8457    89.6057
 21     11.5987     3.4907E-02    6.0006E-02    6.610000E+06  0.00800  2.136E-02    0   0.9177   age061_m52            0.0000     2.1747E-01     3.2208   1.5749    96.4241
 22      2.6138     1.3829E-02    2.2866E-02    1.000000E+07  0.00800  1.215E-02    0   0.8827   age070_m52            0.0000     3.3991E-01     3.9937   2.2587    94.7510
 23      0.1840     1.3573E-03    2.1743E-03    1.445000E+07  0.00800  8.717E-03    0   0.8552   age078_m52            0.0000     3.0573E-01     3.6906   2.3725    93.9028
 24      0.0000     0.0000E+00    0.0000E+00    2.512000E+07  0.00800  5.592E-03    0   0.8162   age090_m52            0.0000     2.8925E-01     3.6285   2.0066    96.9647
 25      0.0000     0.0000E+00    0.0000E+00    4.000000E+07  0.00800  3.896E-03    0   0.7841   age104_m52            0.0000     2.4798E-01     3.3043   1.9129    98.0314
 26      0.0000     0.0000E+00    0.0000E+00    1.015200E+08  0.00800  2.148E-03    0   0.7226   age116_m52            0.0000     2.0944E-01     2.9139   1.8440    98.3047
 27      0.0159     1.0278E-03    1.2867E-03    2.861200E+08  0.00800  9.925E-04    0   0.6683   age125_m52            0.0000     2.4464E-01     3.0704   1.3452   103.1331
 28      0.0000     0.0000E+00    0.0000E+00    9.047900E+08  0.00800  3.141E-04    0   0.6138   age135_m52            0.0000     2.2268E-01     3.1071   0.5324   108.3924
 29      0.0000     0.0000E+00    0.0000E+00    1.434000E+09  0.00800  1.719E-04    0   0.5853   age139_m52            0.0000     1.4068E-01     2.5615  -0.0429   106.0818
 30      5.9600     4.8670E+00    5.1054E+00    2.500000E+09  0.00800  7.872E-05    0   0.5600   age150_m52            0.0000     2.2439E-01     3.3363  -0.3125   103.4904
 31      7.1374     1.0582E+01    1.0755E+01    4.250000E+09  0.00800  4.336E-05    0   0.5426   age158_m52            0.0000     2.4670E-01     3.4360  -0.3270   102.4867
 32      0.0000     0.0000E+00    0.0000E+00    6.250000E+09  0.00800  3.159E-05    0   0.5319   age166_m52            0.0000     3.7980E-01     4.2937  -0.5344   102.8414
 33      0.0000     0.0000E+00    0.0000E+00    1.300000E+10  0.00800  1.361E-05    0   0.5073   age193_m52            0.0000     6.1463E-01     5.4882  -1.0000   102.2710
 34      0.0000     0.0000E+00    0.0000E+00    1.800000E+10  0.00800  9.886E-06    0   0.4990   age213_m52            0.0000     8.7399E-01     6.3540  -1.0000    97.9046
 35      1.1683     4.8641E-03    9.1113E-03    1.000000E+06  0.02000  1.544E-02    0   1.0000   age020_m62            0.0000     4.6873E-01     4.9802   3.1716    86.6914
 36      0.0000     0.0000E+00    0.0000E+00    3.160000E+06  0.02000  3.762E-02    0   0.9858   age045_m62            0.0000     4.6072E-01     4.9575   3.1102    87.4869
 37      0.0000     0.0000E+00    0.0000E+00    5.010000E+06  0.02000  3.296E-02    0   0.9342   age055_m62            0.0000     2.8843E-01     3.8469   2.7132    91.9750
 38      0.0000     0.0000E+00    0.0000E+00    8.710000E+06  0.02000  1.154E-02    0   0.8861   age067_m62            0.0000     8.7162E-01     7.4552   1.7238    96.3416
 39      0.0000     0.0000E+00    0.0000E+00    1.445000E+07  0.02000  7.663E-03    0   0.8472   age078_m62            0.0000     4.1804E-01     4.8163   1.9061    96.7757
 40      0.0000     0.0000E+00    0.0000E+00    2.512000E+07  0.02000  4.532E-03    0   0.8099   age090_m62            0.0000     4.4758E-01     5.0028   1.8965    96.5593
 41      0.0000     0.0000E+00    0.0000E+00    5.500000E+07  0.02000  2.733E-03    0   0.7595   age110_m62            0.0000     2.4951E-01     3.2935   1.8974    97.2646
 42      0.0000     0.0000E+00    0.0000E+00    1.609000E+08  0.02000  1.369E-03    0   0.6985   age120_m62            0.0000     2.5136E-01     3.0117   1.7198   100.8121
 43      1.4899     1.0627E-01    1.3365E-01    2.861200E+08  0.02000  9.013E-04    0   0.6714   age125_m62            0.0000     3.0969E-01     3.2551   1.4575   104.3491
 44     11.1566     1.4264E+00    1.7231E+00    5.088000E+08  0.02000  5.028E-04    0   0.6449   age130_m62            0.0000     3.3809E-01     3.5851   1.0682   107.8906
 45      0.2908     7.7002E-02    8.9125E-02    9.047900E+08  0.02000  2.428E-04    0   0.6179   age135_m62            0.0000     2.2198E-01     3.2317   0.4785   107.6170
 46      0.0764     3.8867E-02    4.3014E-02    1.434000E+09  0.02000  1.263E-04    0   0.5908   age139_m62            0.0000     2.2087E-01     3.2468   0.0358   106.0931
 47     12.4200     1.3340E+01    1.4176E+01    2.500000E+09  0.02000  5.985E-05    0   0.5673   age150_m62            0.0000     3.5452E-01     4.2506  -0.3327   104.9314
 48      2.3967     4.7101E+00    4.8244E+00    4.250000E+09  0.02000  3.271E-05    0   0.5468   age158_m62            0.0000     5.9630E-01     5.6200  -0.6439   104.4946
 49      0.0000     0.0000E+00    0.0000E+00    1.000000E+10  0.02000  1.360E-05    0   0.5167   age181_m62            0.0000     9.9113E-01     7.2097  -0.9981   104.5085
 50      0.0000     0.0000E+00    0.0000E+00    1.800000E+10  0.02000  7.124E-06    0   0.5013   age213_m62            0.0000     1.4866E+00     8.3428  -1.0000    96.0185
 51      0.0000     0.0000E+00    0.0000E+00    1.000000E+06  0.05000  2.592E-02    0   0.9998   age020_m72            0.0000     4.9669E-01     5.1016   3.1668    86.5711
 52      0.0000     0.0000E+00    0.0000E+00    3.160000E+06  0.05000  4.845E-02    0   0.9577   age045_m72            0.0000     3.8697E-01     4.5480   2.9859    88.9683
 53      0.0000     0.0000E+00    0.0000E+00    5.010000E+06  0.05000  3.072E-02    0   0.9147   age055_m72            0.0000     4.0866E-01     4.4893   2.5004    92.8988
 54      0.0000     0.0000E+00    0.0000E+00    6.610000E+06  0.05000  1.455E-02    0   0.8877   age061_m72            0.0000     1.4561E+00    10.0277   1.7737    96.8385
 55      0.0000     0.0000E+00    0.0000E+00    1.000000E+07  0.05000  9.074E-03    0   0.8524   age070_m72            0.0000     5.1521E-01     5.2141   2.6844    92.6211
 56      0.0000     0.0000E+00    0.0000E+00    2.512000E+07  0.05000  4.250E-03    0   0.7902   age090_m72            0.0000     3.8556E-01     4.3652   2.3711    94.8860
 57      0.0000     0.0000E+00    0.0000E+00    4.000000E+07  0.05000  3.087E-03    0   0.7618   age104_m72            0.0000     3.9095E-01     4.4255   2.1382    96.6736
 58      0.0000     0.0000E+00    0.0000E+00    1.015200E+08  0.05000  1.700E-03    0   0.7096   age116_m72            0.0000     2.7443E-01     3.2428   1.8654   100.1688
 59      0.0000     0.0000E+00    0.0000E+00    2.861200E+08  0.05000  7.384E-04    0   0.6633   age125_m72            0.0000     3.3263E-01     3.3306   1.3192   106.1838
 60      0.0000     0.0000E+00    0.0000E+00    5.088000E+08  0.05000  3.819E-04    0   0.6372   age130_m72            0.0000     2.7408E-01     3.4234   0.8189   108.5209
 61      0.1423     5.4591E-02    6.2480E-02    9.047900E+08  0.05000  1.676E-04    0   0.6110   age135_m72            0.0000     3.4338E-01     4.3934   0.1211   107.0201
 62      7.1556     5.2053E+00    5.7274E+00    1.434000E+09  0.05000  8.837E-05    0   0.5874   age139_m72            0.0000     4.1452E-01     4.5549  -0.3365   106.6593
 63      0.0000     0.0000E+00    0.0000E+00    2.500000E+09  0.05000  4.233E-05    0   0.5598   age150_m72            0.0000     6.9039E-01     6.0776  -0.6475   105.5881
 64      3.8665     1.7321E+01    1.7030E+01    6.250000E+09  0.05000  1.435E-05    0   0.5249   age166_m72            0.0000     1.1081E+00     7.5500  -1.0000   100.5831
 65      1.4165     1.3981E+01    1.3189E+01    1.300000E+10  0.05000  6.513E-06    0   0.5036   age193_m72            0.0000     2.0072E+00     9.5371  -1.0000    91.1344
 66      0.0000     0.0000E+00    0.0000E+00    1.800000E+10  0.05000  4.527E-06    0   0.4945   age213_m72            0.0000     2.7490E+00    11.1826  -1.0000    85.1413


## Synthesis Results - Average & Chains ##

# j      x_j: min, <> & last-chain-values for 1 ...  7 chains
  1      0.0000      0.9793      1.5957      0.0000      1.1905      2.4969      1.7238      0.0000      0.0000
  2      0.0000      0.8997      0.0000      1.6423      5.1198      0.0000      0.1025      2.2144      0.0000
  3      0.8932      1.2840      0.0000      1.7608      0.0000      1.9713      2.0056      0.0000      2.7970
  4      0.0000      0.4632      0.0000      0.3842      0.0000      0.0000      0.4187      0.3019      0.0000
  5      1.9929      0.6534      0.7921      0.5665      0.0000      0.4483      2.0069      1.9819      1.5706
  6      0.8449      0.2599      0.0000      0.0000      0.0000      0.0000      0.0000      0.0000      1.2657
  7      1.9548      1.2023      0.3767      2.0569      2.2393      1.4100      3.2061      1.0797      3.9797
  8      0.0000      0.5996      2.6270      0.0000      3.7295      0.0000      0.0000      0.0000      0.0000
  9      2.9414      1.5443      3.7881      2.8967      1.8957      4.0636      0.7815      0.0000      2.2250
 10      0.0000      0.8362      0.0000      0.9740      0.0000      0.0000      1.0210      0.1353      0.0000
 11      0.0000      1.2710      2.1402      0.6909      0.0000      0.0000      0.0000      1.3112      0.0000
 12      9.5580      4.4796     12.6364      4.1257      4.9879      3.9926     10.2989      3.7050      6.2660
 13      0.0000      6.1855      0.0000      5.5986      2.9615      8.4020      6.2184      6.2015      1.0512
 14      1.5579      3.6950      0.8781      4.5042      1.3193      2.2597      3.8367      7.3514      4.7671
 15      2.8286      0.8054      1.3442      1.8994      3.7360      0.0000      0.0000      0.7531      1.6304
 16      2.2803      0.7540      1.9986      1.5954      0.1449      0.0000      0.0000      0.0000      1.3772
 17      3.0827      2.6955      4.4829      3.2506      2.3392      3.3086      5.8440      0.9001      2.8528
 18      0.0000      0.7136      0.0000      0.0000      1.5361      0.0000      0.0000      0.0000      0.0000
 19      5.0616      1.5995      2.5287      1.4336      0.0000      2.3350      0.4641      3.4251      2.6100
 20      1.3513      0.5603      1.7719      0.0000      2.3691      0.0000      0.0000      2.1158      1.3954
 21     11.5987      4.0013      5.0821      4.6792      9.0690      3.9152      3.1735      7.2176      7.2017
 22      2.6138      1.1748      0.0000      2.7095      1.9269      1.9638      4.2374      3.3123      2.4192
 23      0.1840      0.6102      0.0000      0.0000      0.0000      0.0000      0.0000      0.6787      2.6503
 24      0.0000      0.6614      0.0000      0.0000      0.2259      0.0000      0.0112      0.0000      0.0000
 25      0.0000      0.6129      0.7050      3.5403      0.0000      0.8253      1.2668      0.4998      0.1980
 26      0.0000      0.9758      0.0000      0.0000      1.4986      0.0000      0.0000      0.0000      0.0000
 27      0.0159      0.6231      0.0000      0.0000      0.4546      0.0000      0.0000      0.0000      1.6757
 28      0.0000      2.4428      0.0000      1.8536      1.0579      0.8785      0.0000      8.1783      0.0000
 29      0.0000      2.0996      2.9370      1.6240      2.1418      0.0000      0.8415      3.7988      0.0000
 30      5.9600      3.7385      6.1759      0.0000      4.2672      2.0721      0.2894      3.3915      3.1096
 31      7.1374      6.2549      9.2478      5.8595      7.3113     10.0439      5.2577      6.3878      5.6576
 32      0.0000      0.5474      1.7237      0.7699      1.0169      2.3118      0.0000      0.9060      0.0000
 33      0.0000      0.6133      0.1637      0.0713      2.0964      0.0000      1.2652      0.0000      0.0000
 34      0.0000      0.0689      0.0000      0.0000      0.0000      0.0000      0.0000      0.0269      0.0000
 35      1.1683      0.4524      0.0000      0.0000      0.0715      0.0000      0.0000      0.0000      0.7409
 36      0.0000      0.3903      0.8908      0.0000      0.2278      0.0000      0.0000      0.0000      0.0000
 37      0.0000      0.3113      1.7832      0.7167      0.0000      0.5509      0.0000      0.0000      0.6790
 38      0.0000      1.0655      0.0000      3.2136      1.3643      0.0000      0.0000      0.0000      0.3192
 39      0.0000      0.7673      0.0000      0.0000      0.2161      1.7617      1.5917      0.0000      0.4115
 40      0.0000      2.0026      0.5624      0.0000      0.0000      3.3402      3.7513      2.1694      0.0000
 41      0.0000      0.5590      0.8956      0.9423      0.3546      0.0000      0.0000      0.0000      0.0000
 42      0.0000      0.4750      0.0000      0.2661      0.0000      0.0000      0.0000      0.0000      0.0000
 43      1.4899      0.7845      2.1498      0.7240      0.0000      0.9423      1.5074      0.6387      2.3050
 44     11.1566      1.6950      1.4052      3.5181      4.5313      4.4009      3.1194      1.4056      1.9601
 45      0.2908      2.0177      0.9463      4.4608      0.0000      3.9169      0.6363      0.0000      1.4722
 46      0.0764      7.4192      2.9941      7.1691      7.2309      7.8800      6.5317      7.6175     13.1557
