###################################################################
## OUTPUT of StarlightChains_v04.for    [Cid@UFSC - 01/Apr/2007] ##
###################################################################

## Some input info
1999gi.txt                               [arq_obs]
Base.CB07.vall.4m                        [arq_base]
Masks.EmLines.NEW.gm                     [arq_masks]
StCv04.C11.config                        [arq_config]
   66                                    [N_base]
    0                                    [N_YAV_components = # of components with extra extinction!]
    0                                    [i_FitPowerLaw (1/0 = Yes/No)]
-9.99                                    [alpha_PowerLaw]
CCM                                      [red_law_option]
 1.458241                                [q_norm = A(l_norm)/A(V)]

## (Re)Sampling Parameters
 3741.00                                 [l_ini (A)]
 7218.00                                 [l_fin (A)]
    1.00                                 [dl    (A)]     (OBS: dl_cushion =    50.00 A)

## Normalization info
 4020.00                                 [l_norm (A) - for base]
 4010.00                                 [llow_norm (A) - window for f_obs]
 4060.00                                 [lupp_norm (A) - window for f_obs]
2.752036E-15                             [fobs_norm (in input units)]

## S/N
 3691.00                                 [llow_SN (A) - window for S/N]
 7268.00                                 [lupp_SN (A) - window for S/N]
   6.008                                 [S/N in S/N window]
   5.395                                 [S/N in norm. window]
  10.000                                 [S/N_err in S/N window]
   8.979                                 [S/N_err in norm. window]
  1.0000                                 [fscale_chi2]

## etc...
    -2007245                             [idum_orig]
  2405                                   [NOl_eff]
  2366                                   [Nl_eff]
    39    NSIGMA                         [Ntot_cliped & clip_method]
   857360                                [Nglobal_steps]
   7                                     [N_chains]
  14                                     [NEX0s_base = N_base in EX0s-fits]
 0   0   1      118   2.0   1.334E+01    [Clip-Bug, RC-Crash & Burn-In warning-flags, n_censored_weights, wei_nsig_threshold & wei_limit]
    10     10.103      9.608      0.494  [idt_all, wdt_TotTime, wdt_UsrTime & wdt_SysTime (sec)]

## Synthesis Results - Best model ##

 9.17169E-01                             [chi2/Nl_eff]
     7.73123                             [adev (%)]

   116.09673                             [sum-of-x (%)]
 2.26183E-15                             [Flux_tot (units of input spectrum!)]
 5.93813E-11                             [Mini_tot (???)]
 3.19553E-11                             [Mcor_tot (???)]

-218.59                                  [v0_min  (km/s)]
 492.89                                  [vd_min  (km/s)]
-0.2572                                  [AV_min  (mag)]
 0.0000                                  [YAV_min (mag)]

# j     x_j(%)      Mini_j(%)     Mcor_j(%)     age_j(yr)     Z_j      (L/M)_j    YAV?  Mstars   component_j        a/Fe...       SSP_chi2r SSP_adev(%)   SSP_AV   SSP_x(%)
  1      0.0000     0.0000E+00    0.0000E+00    1.000000E+06  0.00400  1.094E-02    0   1.0000   age020_m42            0.0000     1.6109E+00    10.0683   3.2632    93.5811
  2      0.0000     0.0000E+00    0.0000E+00    3.160000E+06  0.00400  4.007E-02    0   0.9999   age045_m42            0.0000     1.4453E+00     9.4912   2.5145   101.0005
  3      0.0000     0.0000E+00    0.0000E+00    5.010000E+06  0.00400  2.539E-02    0   0.9488   age055_m42            0.0000     1.5173E+00     9.7333   2.8462    98.0129
  4      0.0000     0.0000E+00    0.0000E+00    6.610000E+06  0.00400  2.620E-02    0   0.9220   age061_m42            0.0000     1.4725E+00     9.5275   2.4397   101.2264
  5      0.0000     0.0000E+00    0.0000E+00    1.000000E+07  0.00400  1.322E-02    0   0.8862   age070_m42            0.0000     1.7010E+00    10.2175   2.1641   102.5934
  6      0.0000     0.0000E+00    0.0000E+00    1.445000E+07  0.00400  7.883E-03    0   0.8571   age078_m42            0.0000     1.7099E+00    10.2467   2.4967    99.8053
  7      0.0000     0.0000E+00    0.0000E+00    2.512000E+07  0.00400  5.251E-03    0   0.8174   age090_m42            0.0000     1.7482E+00    10.3678   2.0340   103.0849
  8      0.0000     0.0000E+00    0.0000E+00    4.000000E+07  0.00400  3.649E-03    0   0.7851   age104_m42            0.0000     1.6809E+00    10.1576   1.7997   104.3298
  9      0.0000     0.0000E+00    0.0000E+00    5.500000E+07  0.00400  3.098E-03    0   0.7629   age110_m42            0.0000     1.5830E+00     9.7723   1.9454   104.9160
 10      0.0000     0.0000E+00    0.0000E+00    1.015200E+08  0.00400  2.228E-03    0   0.7207   age116_m42            0.0000     1.5442E+00     9.6236   1.9623   105.4255
 11      0.0000     0.0000E+00    0.0000E+00    2.861200E+08  0.00400  1.093E-03    0   0.6648   age125_m42            0.0000     1.6175E+00     9.9107   1.3807   108.9102
 12      0.0000     0.0000E+00    0.0000E+00    5.088000E+08  0.00400  6.597E-04    0   0.6365   age130_m42            0.0000     1.5146E+00     9.5964   1.3615   110.5723
 13      0.0000     0.0000E+00    0.0000E+00    1.434000E+09  0.00400  2.132E-04    0   0.5798   age139_m42            0.0000     1.2615E+00     8.9296   0.3737   113.8953
 14      0.0000     0.0000E+00    0.0000E+00    4.250000E+09  0.00400  5.895E-05    0   0.5377   age158_m42            0.0000     9.9205E-01     8.0385  -0.0752   110.3597
 15      0.0015     1.4034E-03    1.3592E-03    7.500000E+09  0.00400  3.510E-05    0   0.5212   age171_m42            0.0000     9.6004E-01     7.9020  -0.2707   110.1623
 16      0.0000     0.0000E+00    0.0000E+00    1.300000E+10  0.00400  2.005E-05    0   0.5034   age193_m42            0.0000     9.5591E-01     7.8429  -0.4423   110.0239
 17      0.0000     0.0000E+00    0.0000E+00    1.800000E+10  0.00400  1.525E-05    0   0.4967   age213_m42            0.0000     9.5829E-01     7.8655  -0.4631   109.3978
 18      0.0000     0.0000E+00    0.0000E+00    1.000000E+06  0.00800  1.238E-02    0   1.0000   age020_m52            0.0000     1.6105E+00    10.0680   3.2609    93.7194
 19      0.0000     0.0000E+00    0.0000E+00    3.160000E+06  0.00800  3.074E-02    0   0.9966   age045_m52            0.0000     1.5871E+00    10.0047   3.1829    94.6249
 20      0.0000     0.0000E+00    0.0000E+00    5.010000E+06  0.00800  2.668E-02    0   0.9443   age055_m52            0.0000     1.5421E+00     9.8278   2.9312    97.0131
 21      0.0000     0.0000E+00    0.0000E+00    6.610000E+06  0.00800  2.136E-02    0   0.9177   age061_m52            0.0000     1.5346E+00     9.8204   1.6599   104.1210
 22      0.0000     0.0000E+00    0.0000E+00    1.000000E+07  0.00800  1.215E-02    0   0.8827   age070_m52            0.0000     1.8113E+00    10.6063   2.3474   102.0180
 23      0.0000     0.0000E+00    0.0000E+00    1.445000E+07  0.00800  8.717E-03    0   0.8552   age078_m52            0.0000     1.7011E+00    10.2493   2.4606   101.2505
 24      0.0000     0.0000E+00    0.0000E+00    2.512000E+07  0.00800  5.592E-03    0   0.8162   age090_m52            0.0000     1.7662E+00    10.4564   2.0947   104.4021
 25      0.0000     0.0000E+00    0.0000E+00    4.000000E+07  0.00800  3.896E-03    0   0.7841   age104_m52            0.0000     1.6855E+00    10.1785   1.9993   105.6785
 26      0.0000     0.0000E+00    0.0000E+00    1.015200E+08  0.00800  2.148E-03    0   0.7226   age116_m52            0.0000     1.5505E+00     9.7152   1.9290   106.1795
 27      0.0000     0.0000E+00    0.0000E+00    2.861200E+08  0.00800  9.925E-04    0   0.6683   age125_m52            0.0000     1.5257E+00     9.6115   1.4256   111.6381
 28      0.0000     0.0000E+00    0.0000E+00    9.047900E+08  0.00800  3.141E-04    0   0.6138   age135_m52            0.0000     1.2445E+00     8.8318   0.5951   118.3958
 29      0.0000     0.0000E+00    0.0000E+00    1.434000E+09  0.00800  1.719E-04    0   0.5853   age139_m52            0.0000     1.0929E+00     8.3602   0.0162   116.0150
 30      0.0000     0.0000E+00    0.0000E+00    2.500000E+09  0.00800  7.872E-05    0   0.5600   age150_m52            0.0000     9.5566E-01     7.8616  -0.2606   113.8161
 31      0.0020     1.5131E-03    1.5256E-03    4.250000E+09  0.00800  4.336E-05    0   0.5426   age158_m52            0.0000     9.4611E-01     7.8254  -0.2762   112.8080
 32      0.0000     0.0000E+00    0.0000E+00    6.250000E+09  0.00800  3.159E-05    0   0.5319   age166_m52            0.0000     9.5709E-01     7.8090  -0.4908   113.6693
 33      0.0000     0.0000E+00    0.0000E+00    1.300000E+10  0.00800  1.361E-05    0   0.5073   age193_m52            0.0000     1.0382E+00     7.9655  -0.9744   113.9876
 34      0.0000     0.0000E+00    0.0000E+00    1.800000E+10  0.00800  9.886E-06    0   0.4990   age213_m52            0.0000     1.1681E+00     8.2468  -1.0000   110.3500
 35      2.3551     5.0045E-03    9.2996E-03    1.000000E+06  0.02000  1.544E-02    0   1.0000   age020_m62            0.0000     1.6166E+00    10.0900   3.2572    93.9211
 36      0.0000     0.0000E+00    0.0000E+00    3.160000E+06  0.02000  3.762E-02    0   0.9858   age045_m62            0.0000     1.6064E+00    10.0686   3.1964    94.7583
 37      0.0000     0.0000E+00    0.0000E+00    5.010000E+06  0.02000  3.296E-02    0   0.9342   age055_m62            0.0000     1.4769E+00     9.5965   2.7996    99.5711
 38      0.0000     0.0000E+00    0.0000E+00    8.710000E+06  0.02000  1.154E-02    0   0.8861   age067_m62            0.0000     2.7033E+00    13.5154   1.8143   102.9993
 39      0.0000     0.0000E+00    0.0000E+00    1.445000E+07  0.02000  7.663E-03    0   0.8472   age078_m62            0.0000     2.0030E+00    11.3062   1.9933   104.0170
 40      0.0000     0.0000E+00    0.0000E+00    2.512000E+07  0.02000  4.532E-03    0   0.8099   age090_m62            0.0000     2.0770E+00    11.5101   1.9837   103.7202
 41      0.0000     0.0000E+00    0.0000E+00    5.500000E+07  0.02000  2.733E-03    0   0.7595   age110_m62            0.0000     1.6836E+00    10.1754   1.9846   104.8162
 42      0.0000     0.0000E+00    0.0000E+00    1.609000E+08  0.02000  1.369E-03    0   0.6985   age120_m62            0.0000     1.5896E+00     9.7503   1.8033   108.9532
 43      0.0000     0.0000E+00    0.0000E+00    2.861200E+08  0.02000  9.013E-04    0   0.6714   age125_m62            0.0000     1.5824E+00     9.7157   1.5388   112.9590
 44      0.0000     0.0000E+00    0.0000E+00    5.088000E+08  0.02000  5.028E-04    0   0.6449   age130_m62            0.0000     1.4113E+00     9.2375   1.1396   117.4894
 45      0.0000     0.0000E+00    0.0000E+00    9.047900E+08  0.02000  2.428E-04    0   0.6179   age135_m62            0.0000     1.0935E+00     8.3107   0.5380   117.9198
 46      0.0000     0.0000E+00    0.0000E+00    1.434000E+09  0.02000  1.263E-04    0   0.5908   age139_m62            0.0000     9.7750E-01     7.9211   0.0900   116.5912
 47      0.0000     0.0000E+00    0.0000E+00    2.500000E+09  0.02000  5.985E-05    0   0.5673   age150_m62            0.0000     9.4319E-01     7.7663  -0.2875   115.9295
 48     23.6543     2.3726E+01    2.4108E+01    4.250000E+09  0.02000  3.271E-05    0   0.5468   age158_m62            0.0000     1.0064E+00     7.8796  -0.6084   116.1186
 49      4.9408     1.1919E+01    1.1444E+01    1.000000E+10  0.02000  1.360E-05    0   0.5167   age181_m62            0.0000     1.2007E+00     8.3689  -0.9780   117.0825
 50      0.0000     0.0000E+00    0.0000E+00    1.800000E+10  0.02000  7.124E-06    0   0.5013   age213_m62            0.0000     1.5570E+00     9.1108  -1.0000   108.5986
 51     12.2415     1.5495E-02    2.8788E-02    1.000000E+06  0.05000  2.592E-02    0   0.9998   age020_m72            0.0000     1.6460E+00    10.1784   3.2513    93.8197
 52      0.0000     0.0000E+00    0.0000E+00    3.160000E+06  0.05000  4.845E-02    0   0.9577   age045_m72            0.0000     1.5378E+00     9.8500   3.0711    96.4046
 53      0.0000     0.0000E+00    0.0000E+00    5.010000E+06  0.05000  3.072E-02    0   0.9147   age055_m72            0.0000     1.8516E+00    10.7815   2.5831   100.2602
 54      0.0000     0.0000E+00    0.0000E+00    6.610000E+06  0.05000  1.455E-02    0   0.8877   age061_m72            0.0000     3.5391E+00    15.6200   1.8567   103.3544
 55      0.0000     0.0000E+00    0.0000E+00    1.000000E+07  0.05000  9.074E-03    0   0.8524   age070_m72            0.0000     1.9962E+00    11.1223   2.7621   100.0775
 56      0.0000     0.0000E+00    0.0000E+00    2.512000E+07  0.05000  4.250E-03    0   0.7902   age090_m72            0.0000     1.8965E+00    10.8514   2.4538   102.3092
 57      0.0000     0.0000E+00    0.0000E+00    4.000000E+07  0.05000  3.087E-03    0   0.7618   age104_m72            0.0000     1.9573E+00    11.0239   2.2203   104.1562
 58      0.0000     0.0000E+00    0.0000E+00    1.015200E+08  0.05000  1.700E-03    0   0.7096   age116_m72            0.0000     1.7038E+00    10.1280   1.9504   108.0605
 59      0.0000     0.0000E+00    0.0000E+00    2.861200E+08  0.05000  7.384E-04    0   0.6633   age125_m72            0.0000     1.5080E+00     9.5085   1.3949   115.3257
 60      0.0000     0.0000E+00    0.0000E+00    5.088000E+08  0.05000  3.819E-04    0   0.6372   age130_m72            0.0000     1.2138E+00     8.6927   0.8833   118.6617
 61     30.9706     6.0627E+00    6.8836E+00    9.047900E+08  0.05000  1.676E-04    0   0.6110   age135_m72            0.0000     9.6202E-01     7.8460   0.1699   118.1106
 62      0.0000     0.0000E+00    0.0000E+00    1.434000E+09  0.05000  8.837E-05    0   0.5874   age139_m72            0.0000     9.6489E-01     7.8114  -0.2955   118.0734
 63     34.3773     2.6645E+01    2.7718E+01    2.500000E+09  0.05000  4.233E-05    0   0.5598   age150_m72            0.0000     1.0509E+00     7.9943  -0.6176   117.6582
 64      2.3360     5.3410E+00    5.2096E+00    6.250000E+09  0.05000  1.435E-05    0   0.5249   age166_m72            0.0000     1.2680E+00     8.5161  -1.0000   113.5818
 65      5.2175     2.6283E+01    2.4596E+01    1.300000E+10  0.05000  6.513E-06    0   0.5036   age193_m72            0.0000     2.0541E+00    10.2944  -1.0000   103.1168
 66      0.0000     0.0000E+00    0.0000E+00    1.800000E+10  0.05000  4.527E-06    0   0.4945   age213_m72            0.0000     2.7805E+00    11.9419  -1.0000    96.3895


## Synthesis Results - Average & Chains ##

# j      x_j: min, <> & last-chain-values for 1 ...  7 chains
  1      0.0000      0.6439      2.8281      0.0000      1.4698      0.0000      0.6610      0.5281      0.0000
  2      0.0000      0.1085      0.0000      0.0000      0.0000      0.0000      0.0000      0.0000      0.0000
  3      0.0000      0.1859      0.2024      0.0000      0.0000      1.1630      0.0000      0.0000      0.0000
  4      0.0000      0.1064      0.0000      0.0000      0.0000      0.0000      0.0000      1.0389      0.0000
  5      0.0000      0.3242      0.0000      0.0000      0.0000      0.0000      0.5632      0.0000      0.0000
  6      0.0000      0.1175      0.0000      0.0000      0.0000      0.0000      0.0000      0.1255      0.0000
  7      0.0000      0.1623      0.0000      0.0000      0.0000      0.0000      0.0000      0.0000      0.0000
  8      0.0000      0.1775      0.0000      0.0000      0.0000      0.0000      0.0000      0.0000      1.4832
  9      0.0000      0.1292      0.0000      0.0304      0.0000      0.1676      0.0000      0.0000      0.0000
 10      0.0000      0.1151      0.0563      0.0000      0.0000      0.0000      0.0000      0.0000      0.0000
 11      0.0000      0.1488      0.0000      0.0000      0.0000      0.0000      0.0000      0.0000      0.0000
 12      0.0000      0.0855      0.0000      0.0000      0.0000      0.0000      0.0000      0.0000      0.0000
 13      0.0000      0.1779      0.0000      0.0000      0.0000      0.0000      0.0000      0.0000      0.0000
 14      0.0000      1.3789      0.0000      0.0000      0.0000      0.0000      0.0000      0.0000      1.8218
 15      0.0015      1.6113      0.0000      3.0610      0.0000      2.0992      0.0000     11.9356      0.0000
 16      0.0000      1.9538      0.0000      0.2268      3.3742      0.0000      1.7440      0.0000      0.0000
 17      0.0000      1.2136      0.0000      1.3338      0.0000      0.0000      0.8389      0.0000      2.3894
 18      0.0000      1.1406      4.9050      2.5978      1.6174      1.4019      3.8078      0.0000      0.7050
 19      0.0000      0.5246      0.0000      0.0000      0.0000      0.0000      0.0000      0.0000      0.1243
 20      0.0000      0.2330      0.0000      0.0000      0.0000      0.0000      0.0000      0.9663      0.0000
 21      0.0000      0.4686      0.0000      0.0000      1.8586      1.7212      0.0000      0.0000      0.0000
 22      0.0000      0.2519      0.0000      0.2926      0.0000      0.0000      0.0000      0.4368      0.0000
 23      0.0000      0.2289      0.0000      0.0000      0.0000      0.0000      0.0248      0.1500      0.0000
 24      0.0000      0.0822      0.0416      0.0000      0.3396      0.0000      0.0000      0.0000      0.0000
 25      0.0000      0.1073      0.0000      0.0000      0.0000      0.0000      0.0000      0.0000      0.0000
 26      0.0000      0.0848      0.0000      0.0000      0.0000      0.0000      0.0000      0.0000      0.0000
 27      0.0000      0.1082      0.0000      0.0000      0.0000      0.0000      0.0000      0.0000      0.0000
 28      0.0000      0.1304      0.0000      0.0000      0.0000      0.0000      0.0000      0.0000      0.1597
 29      0.0000      0.2433      0.0000      0.0000      0.0000      0.0000      0.0000      0.0000      0.0000
 30      0.0000      0.9485      0.0000      0.0000      0.0000      0.0000      0.2474      0.0000      0.0000
 31      0.0020      1.4049      0.0000      2.1083      0.0000      1.1231      0.0000      0.0000      1.2536
 32      0.0000      2.5104      0.0000      0.0000      0.0000      0.0000      3.6394      0.0000      0.0000
 33      0.0000      0.1595      0.0000      0.0000      0.0000      0.0000      0.0790      0.0000      0.0000
 34      0.0000      0.1014      0.0000      0.0000      0.0000      0.0000      0.1890      0.0804      0.0000
 35      2.3551      1.2412      2.1321      3.9562      0.0000      3.5238      1.9484      1.7009      1.5729
 36      0.0000      0.2472      0.0000      0.0000      1.4375      0.0000      0.0000      0.0000      0.0000
 37      0.0000      0.1235      0.0000      0.0000      0.0000      0.0000      0.0000      0.0000      0.0000
 38      0.0000      0.4878      0.0000      2.2179      0.4348      0.0000      0.0000      1.0504      0.0000
 39      0.0000      0.3667      0.0000      0.0714      0.0000      0.0000      0.0000      0.0000      0.0000
 40      0.0000      0.1012      0.0000      0.0000      0.0000      0.0000      0.5213      0.0000      0.0000
 41      0.0000      0.1388      0.0000      0.0490      0.0000      0.0000      0.0000      0.0000      0.0000
 42      0.0000      0.0581      0.3741      0.0000      0.0000      0.0000      0.0000      0.0000      0.0000
 43      0.0000      0.0593      0.0000      0.1432      0.0000      0.4070      0.0000      0.0000      0.0000
 44      0.0000      0.0866      0.0244      0.0000      0.0000      0.0000      0.0193      0.0000      0.0000
 45      0.0000      0.2526      0.0000      0.0000      0.0000      0.0000      0.0000      0.0000      0.0889
 46      0.0000      1.4054      0.0000      0.7872      0.0000      0.0000      1.5877      0.0000      0.0000
