###################################################################
## OUTPUT of StarlightChains_v04.for    [Cid@UFSC - 01/Apr/2007] ##
###################################################################

## Some input info
2000L.txt                                [arq_obs]
Base.CB07.vall.4m                        [arq_base]
Masks.EmLines.NEW.gm                     [arq_masks]
StCv04.C11.config                        [arq_config]
   66                                    [N_base]
    0                                    [N_YAV_components = # of components with extra extinction!]
    0                                    [i_FitPowerLaw (1/0 = Yes/No)]
-9.99                                    [alpha_PowerLaw]
CCM                                      [red_law_option]
 1.458241                                [q_norm = A(l_norm)/A(V)]

## (Re)Sampling Parameters
 3741.00                                 [l_ini (A)]
 7218.00                                 [l_fin (A)]
    1.00                                 [dl    (A)]     (OBS: dl_cushion =    50.00 A)

## Normalization info
 4020.00                                 [l_norm (A) - for base]
 4010.00                                 [llow_norm (A) - window for f_obs]
 4060.00                                 [lupp_norm (A) - window for f_obs]
3.984262E-17                             [fobs_norm (in input units)]

## S/N
 3691.00                                 [llow_SN (A) - window for S/N]
 7268.00                                 [lupp_SN (A) - window for S/N]
   2.040                                 [S/N in S/N window]
   3.359                                 [S/N in norm. window]
  10.000                                 [S/N_err in S/N window]
  16.464                                 [S/N_err in norm. window]
  1.0000                                 [fscale_chi2]

## etc...
    -2007251                             [idum_orig]
  2367                                   [NOl_eff]
  1203                                   [Nl_eff]
  1164    NSIGMA                         [Ntot_cliped & clip_method]
   571410                                [Nglobal_steps]
   7                                     [N_chains]
  11                                     [NEX0s_base = N_base in EX0s-fits]
 0   0   1       44   2.0   5.522E+01    [Clip-Bug, RC-Crash & Burn-In warning-flags, n_censored_weights, wei_nsig_threshold & wei_limit]
    10      9.845      9.350      0.495  [idt_all, wdt_TotTime, wdt_UsrTime & wdt_SysTime (sec)]

## Synthesis Results - Best model ##

 2.85934E+00                             [chi2/Nl_eff]
    14.43019                             [adev (%)]

    75.64062                             [sum-of-x (%)]
 1.59127E-17                             [Flux_tot (units of input spectrum!)]
 4.82305E-14                             [Mini_tot (???)]
 2.97274E-14                             [Mcor_tot (???)]

 -12.37                                  [v0_min  (km/s)]
 122.46                                  [vd_min  (km/s)]
-0.4755                                  [AV_min  (mag)]
 0.0000                                  [YAV_min (mag)]

# j     x_j(%)      Mini_j(%)     Mcor_j(%)     age_j(yr)     Z_j      (L/M)_j    YAV?  Mstars   component_j        a/Fe...       SSP_chi2r SSP_adev(%)   SSP_AV   SSP_x(%)
  1      0.0000     0.0000E+00    0.0000E+00    1.000000E+06  0.00400  1.094E-02    0   1.0000   age020_m42            0.0000     3.6658E+00    15.9284   2.0975    60.4337
  2      0.0000     0.0000E+00    0.0000E+00    3.160000E+06  0.00400  4.007E-02    0   0.9999   age045_m42            0.0000     3.3141E+00    15.3594   1.3497    65.3503
  3      0.0000     0.0000E+00    0.0000E+00    5.010000E+06  0.00400  2.539E-02    0   0.9488   age055_m42            0.0000     3.4534E+00    15.6039   1.6749    63.5503
  4      0.0000     0.0000E+00    0.0000E+00    6.610000E+06  0.00400  2.620E-02    0   0.9220   age061_m42            0.0000     3.2800E+00    15.2980   1.2684    65.7397
  5      0.0000     0.0000E+00    0.0000E+00    1.000000E+07  0.00400  1.322E-02    0   0.8862   age070_m42            0.0000     3.3093E+00    15.2713   0.9739    67.5194
  6      0.0000     0.0000E+00    0.0000E+00    1.445000E+07  0.00400  7.883E-03    0   0.8571   age078_m42            0.0000     3.3951E+00    15.4265   1.3090    65.5354
  7      0.0000     0.0000E+00    0.0000E+00    2.512000E+07  0.00400  5.251E-03    0   0.8174   age090_m42            0.0000     3.3109E+00    15.2697   0.8404    68.0119
  8      0.0000     0.0000E+00    0.0000E+00    4.000000E+07  0.00400  3.649E-03    0   0.7851   age104_m42            0.0000     3.2382E+00    15.1505   0.6089    68.7394
  9      0.0000     0.0000E+00    0.0000E+00    5.500000E+07  0.00400  3.098E-03    0   0.7629   age110_m42            0.0000     3.1683E+00    15.0322   0.7650    68.6891
 10      0.0000     0.0000E+00    0.0000E+00    1.015200E+08  0.00400  2.228E-03    0   0.7207   age116_m42            0.0000     3.1337E+00    14.9675   0.7865    68.7995
 11      0.0000     0.0000E+00    0.0000E+00    2.861200E+08  0.00400  1.093E-03    0   0.6648   age125_m42            0.0000     3.0631E+00    14.7928   0.2047    71.3007
 12      0.0000     0.0000E+00    0.0000E+00    5.088000E+08  0.00400  6.597E-04    0   0.6365   age130_m42            0.0000     3.0097E+00    14.6983   0.1974    71.8510
 13      0.0000     0.0000E+00    0.0000E+00    1.434000E+09  0.00400  2.132E-04    0   0.5798   age139_m42            0.0000     2.9444E+00    14.6448  -0.7752    73.3798
 14      0.0000     0.0000E+00    0.0000E+00    4.250000E+09  0.00400  5.895E-05    0   0.5377   age158_m42            0.0000     3.1807E+00    15.1439  -1.0000    64.5959
 15      0.0000     0.0000E+00    0.0000E+00    7.500000E+09  0.00400  3.510E-05    0   0.5212   age171_m42            0.0000     3.5519E+00    15.7335  -1.0000    59.2702
 16      0.0000     0.0000E+00    0.0000E+00    1.300000E+10  0.00400  2.005E-05    0   0.5034   age193_m42            0.0000     4.0406E+00    16.4826  -1.0000    54.8414
 17      0.0000     0.0000E+00    0.0000E+00    1.800000E+10  0.00400  1.525E-05    0   0.4967   age213_m42            0.0000     4.1154E+00    16.6133  -1.0000    54.0347
 18      0.0000     0.0000E+00    0.0000E+00    1.000000E+06  0.00800  1.238E-02    0   1.0000   age020_m52            0.0000     3.6671E+00    15.9309   2.0938    60.5546
 19      0.0000     0.0000E+00    0.0000E+00    3.160000E+06  0.00800  3.074E-02    0   0.9966   age045_m52            0.0000     3.6469E+00    15.9205   2.0162    61.1305
 20      0.0000     0.0000E+00    0.0000E+00    5.010000E+06  0.00800  2.668E-02    0   0.9443   age055_m52            0.0000     3.4934E+00    15.6719   1.7613    62.8717
 21      0.0000     0.0000E+00    0.0000E+00    6.610000E+06  0.00800  2.136E-02    0   0.9177   age061_m52            0.0000     3.2786E+00    15.2308   0.4770    68.2385
 22      0.0000     0.0000E+00    0.0000E+00    1.000000E+07  0.00800  1.215E-02    0   0.8827   age070_m52            0.0000     3.3742E+00    15.3557   1.1537    67.3290
 23      0.0000     0.0000E+00    0.0000E+00    1.445000E+07  0.00800  8.717E-03    0   0.8552   age078_m52            0.0000     3.3586E+00    15.3587   1.2720    66.5256
 24      0.0000     0.0000E+00    0.0000E+00    2.512000E+07  0.00800  5.592E-03    0   0.8162   age090_m52            0.0000     3.2760E+00    15.1984   0.9016    68.9094
 25      0.0000     0.0000E+00    0.0000E+00    4.000000E+07  0.00800  3.896E-03    0   0.7841   age104_m52            0.0000     3.1920E+00    15.0513   0.8133    69.5017
 26      0.0004     8.8090E-05    1.0327E-04    1.015200E+08  0.00800  2.148E-03    0   0.7226   age116_m52            0.0000     3.1149E+00    14.9314   0.7531    69.3854
 27      0.0000     0.0000E+00    0.0000E+00    2.861200E+08  0.00800  9.925E-04    0   0.6683   age125_m52            0.0000     2.9670E+00    14.6058   0.2602    72.6185
 28     66.1239     9.1824E+01    9.1443E+01    9.047900E+08  0.00800  3.141E-04    0   0.6138   age135_m52            0.0000     2.8597E+00    14.4283  -0.5339    75.5922
 29      0.0000     0.0000E+00    0.0000E+00    1.434000E+09  0.00800  1.719E-04    0   0.5853   age139_m52            0.0000     2.9773E+00    14.7139  -1.0000    70.6812
 30      0.0000     0.0000E+00    0.0000E+00    2.500000E+09  0.00800  7.872E-05    0   0.5600   age150_m52            0.0000     3.4506E+00    15.5573  -1.0000    61.4886
 31      0.0000     0.0000E+00    0.0000E+00    4.250000E+09  0.00800  4.336E-05    0   0.5426   age158_m52            0.0000     3.5102E+00    15.6478  -1.0000    60.5063
 32      0.0000     0.0000E+00    0.0000E+00    6.250000E+09  0.00800  3.159E-05    0   0.5319   age166_m52            0.0000     4.1113E+00    16.5601  -1.0000    55.3962
 33      0.0000     0.0000E+00    0.0000E+00    1.300000E+10  0.00800  1.361E-05    0   0.5073   age193_m52            0.0000     6.1159E+00    19.7120  -1.0000    44.3231
 34      0.0000     0.0000E+00    0.0000E+00    1.800000E+10  0.00800  9.886E-06    0   0.4990   age213_m52            0.0000     6.6616E+00    20.4382  -1.0000    41.9192
 35      0.0000     0.0000E+00    0.0000E+00    1.000000E+06  0.02000  1.544E-02    0   1.0000   age020_m62            0.0000     3.6789E+00    15.9516   2.0910    60.6633
 36      0.0000     0.0000E+00    0.0000E+00    3.160000E+06  0.02000  3.762E-02    0   0.9858   age045_m62            0.0000     3.6726E+00    15.9638   2.0281    61.2612
 37      0.0000     0.0000E+00    0.0000E+00    5.010000E+06  0.02000  3.296E-02    0   0.9342   age055_m62            0.0000     3.3742E+00    15.4866   1.6311    64.4894
 38      0.0000     0.0000E+00    0.0000E+00    8.710000E+06  0.02000  1.154E-02    0   0.8861   age067_m62            0.0000     3.8759E+00    16.0614   0.5858    69.7182
 39      0.0000     0.0000E+00    0.0000E+00    1.445000E+07  0.02000  7.663E-03    0   0.8472   age078_m62            0.0000     3.4253E+00    15.4093   0.7919    69.1381
 40      0.0000     0.0000E+00    0.0000E+00    2.512000E+07  0.02000  4.532E-03    0   0.8099   age090_m62            0.0000     3.4328E+00    15.4277   0.7805    69.0579
 41      0.0000     0.0000E+00    0.0000E+00    5.500000E+07  0.02000  2.733E-03    0   0.7595   age110_m62            0.0000     3.2149E+00    15.1012   0.7966    68.9793
 42      0.0000     0.0000E+00    0.0000E+00    1.609000E+08  0.02000  1.369E-03    0   0.6985   age120_m62            0.0000     3.0569E+00    14.7722   0.6277    71.2112
 43      0.0000     0.0000E+00    0.0000E+00    2.861200E+08  0.02000  9.013E-04    0   0.6714   age125_m62            0.0000     2.9822E+00    14.6358   0.3726    73.4693
 44      9.4062     8.1599E+00    8.5377E+00    5.088000E+08  0.02000  5.028E-04    0   0.6449   age130_m62            0.0000     2.8981E+00    14.5109  -0.0004    75.3506
 45      0.0000     0.0000E+00    0.0000E+00    9.047900E+08  0.02000  2.428E-04    0   0.6179   age135_m62            0.0000     2.9143E+00    14.5884  -0.5743    74.5071
 46      0.0000     0.0000E+00    0.0000E+00    1.434000E+09  0.02000  1.263E-04    0   0.5908   age139_m62            0.0000     3.0101E+00    14.8301  -1.0000    72.8274
 47      0.0000     0.0000E+00    0.0000E+00    2.500000E+09  0.02000  5.985E-05    0   0.5673   age150_m62            0.0000     3.5422E+00    15.6986  -1.0000    61.7590
 48      0.0000     0.0000E+00    0.0000E+00    4.250000E+09  0.02000  3.271E-05    0   0.5468   age158_m62            0.0000     4.5397E+00    17.2378  -1.0000    53.5555
 49      0.0000     0.0000E+00    0.0000E+00    1.000000E+10  0.02000  1.360E-05    0   0.5167   age181_m62            0.0000     6.0863E+00    19.4959  -1.0000    45.4133
 50      0.0000     0.0000E+00    0.0000E+00    1.800000E+10  0.02000  7.124E-06    0   0.5013   age213_m62            0.0000     7.1533E+00    20.9130  -1.0000    40.7788
 51      0.0000     0.0000E+00    0.0000E+00    1.000000E+06  0.05000  2.592E-02    0   0.9998   age020_m72            0.0000     3.7285E+00    16.0150   2.0856    60.5850
 52      0.0000     0.0000E+00    0.0000E+00    3.160000E+06  0.05000  4.845E-02    0   0.9577   age045_m72            0.0000     3.5635E+00    15.8232   1.9047    62.2822
 53      0.0000     0.0000E+00    0.0000E+00    5.010000E+06  0.05000  3.072E-02    0   0.9147   age055_m72            0.0000     3.4567E+00    15.4929   1.3977    65.9073
 54      0.0000     0.0000E+00    0.0000E+00    6.610000E+06  0.05000  1.455E-02    0   0.8877   age061_m72            0.0000     4.3140E+00    16.7828   0.6261    70.5981
 55      0.0000     0.0000E+00    0.0000E+00    1.000000E+07  0.05000  9.074E-03    0   0.8524   age070_m72            0.0000     3.5189E+00    15.6272   1.5845    65.6817
 56      0.0000     0.0000E+00    0.0000E+00    2.512000E+07  0.05000  4.250E-03    0   0.7902   age090_m72            0.0000     3.3424E+00    15.3198   1.2689    67.3670
 57      0.1102     1.5566E-02    1.9240E-02    4.000000E+07  0.05000  3.087E-03    0   0.7618   age104_m72            0.0000     3.2958E+00    15.2338   1.0318    68.7984
 58      0.0000     0.0000E+00    0.0000E+00    1.015200E+08  0.05000  1.700E-03    0   0.7096   age116_m72            0.0000     3.0956E+00    14.8376   0.7701    70.8916
 59      0.0000     0.0000E+00    0.0000E+00    2.861200E+08  0.05000  7.384E-04    0   0.6633   age125_m72            0.0000     2.9239E+00    14.5579   0.2416    74.4825
 60      0.0000     0.0000E+00    0.0000E+00    5.088000E+08  0.05000  3.819E-04    0   0.6372   age130_m72            0.0000     2.9022E+00    14.5526  -0.2404    75.3928
 61      0.0000     0.0000E+00    0.0000E+00    9.047900E+08  0.05000  1.676E-04    0   0.6110   age135_m72            0.0000     3.0773E+00    14.9958  -0.9117    73.2932
 62      0.0000     0.0000E+00    0.0000E+00    1.434000E+09  0.05000  8.837E-05    0   0.5874   age139_m72            0.0000     3.5641E+00    15.7277  -1.0000    62.6679
 63      0.0000     0.0000E+00    0.0000E+00    2.500000E+09  0.05000  4.233E-05    0   0.5598   age150_m72            0.0000     4.5590E+00    17.2544  -1.0000    54.0192
 64      0.0000     0.0000E+00    0.0000E+00    6.250000E+09  0.05000  1.435E-05    0   0.5249   age166_m72            0.0000     6.5539E+00    20.1423  -1.0000    43.2001
 65      0.0000     0.0000E+00    0.0000E+00    1.300000E+10  0.05000  6.513E-06    0   0.5036   age193_m72            0.0000     8.0353E+00    22.0453  -1.0000    38.1102
 66      0.0000     0.0000E+00    0.0000E+00    1.800000E+10  0.05000  4.527E-06    0   0.4945   age213_m72            0.0000     8.9356E+00    23.1521  -1.0000    35.1463


## Synthesis Results - Average & Chains ##

# j      x_j: min, <> & last-chain-values for 1 ...  7 chains
  1      0.0000      0.0549      0.0000      0.0000      0.0000      0.0000      0.0000      0.0000      0.0000
  2      0.0000      0.1159      0.0000      0.0000      0.0000      0.0000      0.0000      0.0000      0.0000
  3      0.0000      0.0975      0.2657      0.0000      0.0000      0.0000      0.0000      0.0000      0.0000
  4      0.0000      0.1846      0.0000      0.0000      0.0000      1.1093      0.0000      0.0000      0.0000
  5      0.0000      0.1387      1.4898      0.0000      1.0420      0.0000      0.4740      0.0000      0.0274
  6      0.0000      0.0990      0.0000      0.0000      0.2118      0.0000      0.0000      0.0000      0.7783
  7      0.0000      0.1004      0.0000      0.0000      0.0643      0.0000      0.0000      0.0000      0.0000
  8      0.0000      0.2791      0.2586      0.0000      0.0000      0.0000      0.0016      0.6414      0.0000
  9      0.0000      0.4325      0.0000      0.4711      0.0000      0.0000      0.0000      0.0000      3.8522
 10      0.0000      0.2384      0.0000      0.0000      0.0000      0.0000      0.0000      0.0000      0.0000
 11      0.0000      0.6144      0.0000      0.1895      0.0000      0.0000      0.0000      1.1825      0.0000
 12      0.0000      1.0300      0.4874      0.4061      0.0000      0.0000      0.0000      0.0000      0.6913
 13      0.0000      0.7524      0.0789      0.0464      0.0000      0.0000      0.0000      0.1049      0.2811
 14      0.0000      0.4812      0.0000      0.0000      1.0170      0.0000      0.0000      0.0000      0.0000
 15      0.0000      0.2888      0.0000      0.0000      0.0000      0.0301      0.0000      0.0000      1.5018
 16      0.0000      0.2319      0.0000      0.0169      0.2230      0.0000      0.0000      1.3053      0.0000
 17      0.0000      0.3926      0.0000      0.0000      0.6297      0.4481      0.0000      0.0000      0.0000
 18      0.0000      0.1062      0.0000      0.0000      0.0000      0.0000      0.0180      0.0593      0.0000
 19      0.0000      0.0630      0.0000      0.0000      0.1932      0.0000      0.0000      0.4123      0.0000
 20      0.0000      0.0648      0.0000      0.1662      0.0000      0.0000      0.0000      0.0000      0.0000
 21      0.0000      0.1115      0.0000      0.0000      0.0000      0.0000      0.0000      0.0000      0.0000
 22      0.0000      0.1322      0.0000      0.0000      0.0000      0.0000      0.0124      0.0000      0.0000
 23      0.0000      0.2277      0.0000      0.0000      0.0000      0.0000      0.0000      0.0000      0.0000
 24      0.0000      0.1160      0.0000      0.0000      0.0000      0.0000      0.0000      0.0000      0.0000
 25      0.0000      0.2908      0.0000      0.0000      0.0000      0.0000      0.0000      0.0000      0.0000
 26      0.0004      0.2900      0.0000      0.0000      0.0000      0.0000      1.0732      0.0000      0.0000
 27      0.0000      0.8910      0.0000      2.7476      0.9619      0.0000      2.4371      2.3165      0.3299
 28     66.1239     30.6534     41.6685     37.2577     42.5332     35.8956     37.0830     33.4877     40.3252
 29      0.0000      0.7717      0.0000      0.0000      1.5260      1.2964      0.0000      0.0000      0.4570
 30      0.0000      0.4116      0.0000      0.0000      0.0000      0.3241      0.1214      0.0000      0.8997
 31      0.0000      0.5073      1.0884      0.0000      0.0000      0.0000      0.0000      0.0000      0.0000
 32      0.0000      0.2488      0.0000      0.1401      0.0000      1.1758      0.2937      0.0000      0.0000
 33      0.0000      0.0829      0.4865      0.0000      0.0000      0.0000      0.0000      0.0000      0.0000
 34      0.0000      0.2180      0.0000      0.0000      0.0000      0.6255      0.5403      0.7499      0.6356
 35      0.0000      0.0439      0.0913      0.0000      0.0000      0.0000      0.0000      0.0000      0.0000
 36      0.0000      0.0407      0.0000      0.0000      0.8854      0.0000      0.0000      0.0000      0.0000
 37      0.0000      0.1081      0.0000      0.0000      0.0000      0.1045      0.0000      0.0000      0.0000
 38      0.0000      0.2189      0.0000      0.0000      0.0000      0.0000      0.0000      0.0000      0.0000
 39      0.0000      0.1904      0.0000      1.7746      0.0000      0.0000      0.0000      0.0000      0.1824
 40      0.0000      0.0868      0.0000      0.0000      0.0000      0.0000      0.0000      0.0050      0.0000
 41      0.0000      0.1644      0.0000      0.0000      0.0000      0.0000      0.0000      0.4893      0.0000
 42      0.0000      0.4865      0.1543      0.0000      0.0000      0.0000      0.0224      0.0000      0.0000
 43      0.0000      0.5827      0.0000      0.0000      0.1381      0.4905      0.0000      3.2624      0.3291
 44      9.4062      9.6810     11.5077      7.7340      6.3547     15.4261     22.5288      8.8121     10.9964
 45      0.0000      7.1466      5.5162      8.3871      7.1423      6.9139      2.7385      1.5727      5.8992
 46      0.0000      1.1321      0.0000      1.7078      0.0000      1.2002      1.4490      2.2555      0.0000
