###################################################################
## OUTPUT of StarlightChains_v04.for    [Cid@UFSC - 01/Apr/2007] ##
###################################################################

## Some input info
2000ce.txt                               [arq_obs]
Base.CB07.vall.4m                        [arq_base]
Masks.EmLines.NEW.gm                     [arq_masks]
StCv04.C11.config                        [arq_config]
   66                                    [N_base]
    0                                    [N_YAV_components = # of components with extra extinction!]
    0                                    [i_FitPowerLaw (1/0 = Yes/No)]
-9.99                                    [alpha_PowerLaw]
CCM                                      [red_law_option]
 1.458241                                [q_norm = A(l_norm)/A(V)]

## (Re)Sampling Parameters
 3741.00                                 [l_ini (A)]
 7218.00                                 [l_fin (A)]
    1.00                                 [dl    (A)]     (OBS: dl_cushion =    50.00 A)

## Normalization info
 4020.00                                 [l_norm (A) - for base]
 4010.00                                 [llow_norm (A) - window for f_obs]
 4060.00                                 [lupp_norm (A) - window for f_obs]
4.379384E-17                             [fobs_norm (in input units)]

## S/N
 3691.00                                 [llow_SN (A) - window for S/N]
 7268.00                                 [lupp_SN (A) - window for S/N]
   6.912                                 [S/N in S/N window]
   7.054                                 [S/N in norm. window]
   0.000                                 [S/N_err in S/N window]
   0.000                                 [S/N_err in norm. window]
  1.0000                                 [fscale_chi2]

## etc...
    -2007246                             [idum_orig]
  2305                                   [NOl_eff]
  2179                                   [Nl_eff]
   126    NSIGMA                         [Ntot_cliped & clip_method]
  1518090                                [Nglobal_steps]
   7                                     [N_chains]
  21                                     [NEX0s_base = N_base in EX0s-fits]
 0   0   1        7   2.0   4.295E+01    [Clip-Bug, RC-Crash & Burn-In warning-flags, n_censored_weights, wei_nsig_threshold & wei_limit]
    15     15.062     14.567      0.496  [idt_all, wdt_TotTime, wdt_UsrTime & wdt_SysTime (sec)]

## Synthesis Results - Best model ##

 1.92855E+00                             [chi2/Nl_eff]
     6.69927                             [adev (%)]

   104.86287                             [sum-of-x (%)]
 5.33158E-17                             [Flux_tot (units of input spectrum!)]
 8.36236E-13                             [Mini_tot (???)]
 4.53456E-13                             [Mcor_tot (???)]

-144.27                                  [v0_min  (km/s)]
 160.66                                  [vd_min  (km/s)]
 0.1111                                  [AV_min  (mag)]
 0.0000                                  [YAV_min (mag)]

# j     x_j(%)      Mini_j(%)     Mcor_j(%)     age_j(yr)     Z_j      (L/M)_j    YAV?  Mstars   component_j        a/Fe...       SSP_chi2r SSP_adev(%)   SSP_AV   SSP_x(%)
  1      0.0000     0.0000E+00    0.0000E+00    1.000000E+06  0.00400  1.094E-02    0   1.0000   age020_m42            0.0000     3.7592E+00     9.6652   3.1113    89.7394
  2      0.0000     0.0000E+00    0.0000E+00    3.160000E+06  0.00400  4.007E-02    0   0.9999   age045_m42            0.0000     3.3054E+00     8.7061   2.4013    95.1106
  3      0.0000     0.0000E+00    0.0000E+00    5.010000E+06  0.00400  2.539E-02    0   0.9488   age055_m42            0.0000     3.4471E+00     9.0547   2.7110    93.2767
  4      0.0000     0.0000E+00    0.0000E+00    6.610000E+06  0.00400  2.620E-02    0   0.9220   age061_m42            0.0000     3.2079E+00     8.6344   2.3200    95.6612
  5      0.0000     0.0000E+00    0.0000E+00    1.000000E+07  0.00400  1.322E-02    0   0.8862   age070_m42            0.0000     3.0996E+00     9.0449   1.9801   100.1863
  6      0.0000     0.0000E+00    0.0000E+00    1.445000E+07  0.00400  7.883E-03    0   0.8571   age078_m42            0.0000     3.2058E+00     9.1786   2.3104    97.5625
  7      0.0000     0.0000E+00    0.0000E+00    2.512000E+07  0.00400  5.251E-03    0   0.8174   age090_m42            0.0000     3.1504E+00     9.1410   1.8412   101.1119
  8      0.0000     0.0000E+00    0.0000E+00    4.000000E+07  0.00400  3.649E-03    0   0.7851   age104_m42            0.0000     3.0234E+00     8.9028   1.6201   101.6427
  9      0.0000     0.0000E+00    0.0000E+00    5.500000E+07  0.00400  3.098E-03    0   0.7629   age110_m42            0.0000     2.9805E+00     8.5788   1.8025   100.3841
 10      0.0000     0.0000E+00    0.0000E+00    1.015200E+08  0.00400  2.228E-03    0   0.7207   age116_m42            0.0000     2.9807E+00     8.3904   1.8412    99.7688
 11      0.0000     0.0000E+00    0.0000E+00    2.861200E+08  0.00400  1.093E-03    0   0.6648   age125_m42            0.0000     2.8666E+00     8.3585   1.2528   103.6204
 12      0.0000     0.0000E+00    0.0000E+00    5.088000E+08  0.00400  6.597E-04    0   0.6365   age130_m42            0.0000     2.6936E+00     7.9068   1.2712   103.1880
 13      0.0000     0.0000E+00    0.0000E+00    1.434000E+09  0.00400  2.132E-04    0   0.5798   age139_m42            0.0000     2.2157E+00     7.0834   0.3103   104.7064
 14      0.0000     0.0000E+00    0.0000E+00    4.250000E+09  0.00400  5.895E-05    0   0.5377   age158_m42            0.0000     2.0981E+00     6.8412  -0.0974    99.3151
 15      0.0004     7.4523E-04    7.1628E-04    7.500000E+09  0.00400  3.510E-05    0   0.5212   age171_m42            0.0000     2.0959E+00     6.8397  -0.2692    98.0166
 16      4.2113     1.2770E+01    1.1855E+01    1.300000E+10  0.00400  2.005E-05    0   0.5034   age193_m42            0.0000     2.1594E+00     6.9526  -0.4193    96.9047
 17      0.0000     0.0000E+00    0.0000E+00    1.800000E+10  0.00400  1.525E-05    0   0.4967   age213_m42            0.0000     2.1598E+00     6.9737  -0.4475    96.6835
 18      0.0000     0.0000E+00    0.0000E+00    1.000000E+06  0.00800  1.238E-02    0   1.0000   age020_m52            0.0000     3.7482E+00     9.6561   3.1084    89.8859
 19      0.0000     0.0000E+00    0.0000E+00    3.160000E+06  0.00800  3.074E-02    0   0.9966   age045_m52            0.0000     3.7194E+00     9.5382   3.0338    90.5963
 20      0.0000     0.0000E+00    0.0000E+00    5.010000E+06  0.00800  2.668E-02    0   0.9443   age055_m52            0.0000     3.4440E+00     9.1256   2.7886    92.6582
 21      0.0000     0.0000E+00    0.0000E+00    6.610000E+06  0.00800  2.136E-02    0   0.9177   age061_m52            0.0000     2.6804E+00     8.6471   1.4812   101.2580
 22      0.0000     0.0000E+00    0.0000E+00    1.000000E+07  0.00800  1.215E-02    0   0.8827   age070_m52            0.0000     3.1676E+00     9.3293   2.1413   100.7924
 23      0.0000     0.0000E+00    0.0000E+00    1.445000E+07  0.00800  8.717E-03    0   0.8552   age078_m52            0.0000     3.1228E+00     9.0887   2.2734    98.9962
 24      0.0000     0.0000E+00    0.0000E+00    2.512000E+07  0.00800  5.592E-03    0   0.8162   age090_m52            0.0000     3.0971E+00     9.1005   1.9002   102.5359
 25      0.0000     0.0000E+00    0.0000E+00    4.000000E+07  0.00800  3.896E-03    0   0.7841   age104_m52            0.0000     2.9823E+00     8.8088   1.8276   102.6356
 26      0.0000     0.0000E+00    0.0000E+00    1.015200E+08  0.00800  2.148E-03    0   0.7226   age116_m52            0.0000     2.8587E+00     8.3823   1.7946   101.1792
 27      0.0000     0.0000E+00    0.0000E+00    2.861200E+08  0.00800  9.925E-04    0   0.6683   age125_m52            0.0000     2.6217E+00     7.8529   1.3342   104.2283
 28      7.8657     1.5226E+00    1.7234E+00    9.047900E+08  0.00800  3.141E-04    0   0.6138   age135_m52            0.0000     2.1573E+00     6.8297   0.5733   106.7516
 29      0.0000     0.0000E+00    0.0000E+00    1.434000E+09  0.00800  1.719E-04    0   0.5853   age139_m52            0.0000     2.0313E+00     6.7219  -0.0102   104.8016
 30      0.0000     0.0000E+00    0.0000E+00    2.500000E+09  0.00800  7.872E-05    0   0.5600   age150_m52            0.0000     2.0608E+00     6.6773  -0.2387   100.2935
 31      4.4992     6.3089E+00    6.3129E+00    4.250000E+09  0.00800  4.336E-05    0   0.5426   age158_m52            0.0000     2.0778E+00     6.7473  -0.2513    99.2310
 32      4.3651     8.4013E+00    8.2409E+00    6.250000E+09  0.00800  3.159E-05    0   0.5319   age166_m52            0.0000     2.2332E+00     6.9072  -0.4303    98.2664
 33      0.0000     0.0000E+00    0.0000E+00    1.300000E+10  0.00800  1.361E-05    0   0.5073   age193_m52            0.0000     2.6040E+00     7.3329  -0.8696    96.4322
 34      0.0000     0.0000E+00    0.0000E+00    1.800000E+10  0.00800  9.886E-06    0   0.4990   age213_m52            0.0000     2.9090E+00     7.7310  -0.9509    94.8961
 35      0.0000     0.0000E+00    0.0000E+00    1.000000E+06  0.02000  1.544E-02    0   1.0000   age020_m62            0.0000     3.7521E+00     9.6665   3.1036    90.1313
 36      0.0000     0.0000E+00    0.0000E+00    3.160000E+06  0.02000  3.762E-02    0   0.9858   age045_m62            0.0000     3.7295E+00     9.5697   3.0451    90.8486
 37      0.0000     0.0000E+00    0.0000E+00    5.010000E+06  0.02000  3.296E-02    0   0.9342   age055_m62            0.0000     3.3528E+00     8.8146   2.6785    94.1172
 38      0.0000     0.0000E+00    0.0000E+00    8.710000E+06  0.02000  1.154E-02    0   0.8861   age067_m62            0.0000     4.5906E+00    11.8416   1.4795   108.9028
 39      0.0000     0.0000E+00    0.0000E+00    1.445000E+07  0.02000  7.663E-03    0   0.8472   age078_m62            0.0000     3.2829E+00     9.7900   1.7522   104.7138
 40      0.0000     0.0000E+00    0.0000E+00    2.512000E+07  0.02000  4.532E-03    0   0.8099   age090_m62            0.0000     3.4662E+00     9.9325   1.7398   104.6395
 41      0.0000     0.0000E+00    0.0000E+00    5.500000E+07  0.02000  2.733E-03    0   0.7595   age110_m62            0.0000     2.9162E+00     8.7774   1.8079   102.0145
 42      0.0000     0.0000E+00    0.0000E+00    1.609000E+08  0.02000  1.369E-03    0   0.6985   age120_m62            0.0000     2.8004E+00     8.2374   1.6836   103.1098
 43      0.0000     0.0000E+00    0.0000E+00    2.861200E+08  0.02000  9.013E-04    0   0.6714   age125_m62            0.0000     2.6989E+00     7.9152   1.4502   105.2282
 44      0.0000     0.0000E+00    0.0000E+00    5.088000E+08  0.02000  5.028E-04    0   0.6449   age130_m62            0.0000     2.4385E+00     7.2128   1.1145   106.0576
 45     35.4753     8.8835E+00    1.0123E+01    9.047900E+08  0.02000  2.428E-04    0   0.6179   age135_m62            0.0000     2.0649E+00     6.6404   0.5454   104.7098
 46      0.0000     0.0000E+00    0.0000E+00    1.434000E+09  0.02000  1.263E-04    0   0.5908   age139_m62            0.0000     2.0375E+00     6.6579   0.1074   102.9238
 47     12.9924     1.3199E+01    1.3808E+01    2.500000E+09  0.02000  5.985E-05    0   0.5673   age150_m62            0.0000     2.2291E+00     6.8686  -0.2277   100.2059
 48      4.1713     7.7535E+00    7.8185E+00    4.250000E+09  0.02000  3.271E-05    0   0.5468   age158_m62            0.0000     2.6309E+00     7.3030  -0.4977    97.9114
 49      6.8260     3.0516E+01    2.9078E+01    1.000000E+10  0.02000  1.360E-05    0   0.5167   age181_m62            0.0000     3.2278E+00     8.1215  -0.8058    95.8719
 50      0.0000     0.0000E+00    0.0000E+00    1.800000E+10  0.02000  7.124E-06    0   0.5013   age213_m62            0.0000     3.7806E+00     8.8615  -0.9806    93.7317
 51      0.0000     0.0000E+00    0.0000E+00    1.000000E+06  0.05000  2.592E-02    0   0.9998   age020_m72            0.0000     3.7911E+00     9.7564   3.0930    90.2388
 52      0.0000     0.0000E+00    0.0000E+00    3.160000E+06  0.05000  4.845E-02    0   0.9577   age045_m72            0.0000     3.6381E+00     9.2554   2.9371    91.6695
 53      0.0000     0.0000E+00    0.0000E+00    5.010000E+06  0.05000  3.072E-02    0   0.9147   age055_m72            0.0000     3.2136E+00     9.4449   2.3798    99.0995
 54     14.4568     6.0411E-02    9.8895E-02    6.610000E+06  0.05000  1.455E-02    0   0.8877   age061_m72            0.0000     7.1872E+00    14.3495   1.4917   111.9826
 55      2.5212     1.6893E-02    2.6555E-02    1.000000E+07  0.05000  9.074E-03    0   0.8524   age070_m72            0.0000     3.7759E+00     9.9091   2.5735    98.6396
 56      0.0000     0.0000E+00    0.0000E+00    2.512000E+07  0.05000  4.250E-03    0   0.7902   age090_m72            0.0000     3.4362E+00     9.4318   2.2660   100.5376
 57      0.0000     0.0000E+00    0.0000E+00    4.000000E+07  0.05000  3.087E-03    0   0.7618   age104_m72            0.0000     3.5522E+00     9.5430   2.0281   102.6052
 58      0.0000     0.0000E+00    0.0000E+00    1.015200E+08  0.05000  1.700E-03    0   0.7096   age116_m72            0.0000     2.9836E+00     8.5846   1.8084   103.4915
 59      0.0000     0.0000E+00    0.0000E+00    2.861200E+08  0.05000  7.384E-04    0   0.6633   age125_m72            0.0000     2.5214E+00     7.5360   1.3384   105.6906
 60      0.0023     3.6798E-04    4.3240E-04    5.088000E+08  0.05000  3.819E-04    0   0.6372   age130_m72            0.0000     2.2285E+00     6.8306   0.8796   105.8559
 61      0.1598     5.7986E-02    6.5337E-02    9.047900E+08  0.05000  1.676E-04    0   0.6110   age135_m72            0.0000     2.3146E+00     6.8776   0.2294   102.0241
 62      0.0000     0.0000E+00    0.0000E+00    1.434000E+09  0.05000  8.837E-05    0   0.5874   age139_m72            0.0000     2.3301E+00     6.9478  -0.2236   101.4632
 63      7.3160     1.0508E+01    1.0848E+01    2.500000E+09  0.05000  4.233E-05    0   0.5598   age150_m72            0.0000     2.7970E+00     7.5194  -0.4869    98.2814
 64      0.0000     0.0000E+00    0.0000E+00    6.250000E+09  0.05000  1.435E-05    0   0.5249   age166_m72            0.0000     3.4777E+00     8.4029  -0.8916    95.0387
 65      0.0000     0.0000E+00    0.0000E+00    1.300000E+10  0.05000  6.513E-06    0   0.5036   age193_m72            0.0000     4.5027E+00     9.8180  -1.0000    88.9361
 66      0.0000     0.0000E+00    0.0000E+00    1.800000E+10  0.05000  4.527E-06    0   0.4945   age213_m72            0.0000     5.7890E+00    11.2459  -1.0000    82.5304


## Synthesis Results - Average & Chains ##

# j      x_j: min, <> & last-chain-values for 1 ...  7 chains
  1      0.0000      0.1706      0.0000      0.6130      0.0000      0.0000      0.4237      0.0000      0.1497
  2      0.0000      0.1311      0.0000      0.0000      0.0000      0.0000      0.0000      0.6907      0.0000
  3      0.0000      0.0906      0.0000      0.1964      0.2352      0.0000      0.1588      0.0330      0.0000
  4      0.0000      0.1481      0.0000      0.0000      0.4436      0.0000      0.0000      0.0000      0.0172
  5      0.0000      0.1749      0.0000      0.0000      0.0000      0.0000      0.5156      0.7043      0.5671
  6      0.0000      0.1486      0.0439      0.1069      0.0000      0.0000      0.0000      0.0000      0.0000
  7      0.0000      0.1361      0.0000      0.2868      0.0000      0.0000      0.0000      0.0000      1.3242
  8      0.0000      0.2140      0.1779      0.0000      0.2587      0.0000      0.0918      0.0000      0.0000
  9      0.0000      0.1522      0.0000      0.0000      0.0000      0.0000      0.0366      0.2454      0.0000
 10      0.0000      0.1604      1.3423      0.0000      0.1152      0.0000      0.0000      0.0000      0.0000
 11      0.0000      0.2979      0.5927      0.1801      0.0000      0.0000      0.4544      0.0000      0.0000
 12      0.0000      0.2603      0.0000      0.8383      0.0000      0.0000      0.0000      0.2401      0.1031
 13      0.0000      0.4852      0.0000      0.0000      0.1599      0.0000      0.0635      0.0000      0.0000
 14      0.0000      0.2627      0.0000      0.1423      0.0000      0.0000      0.0021      0.0000      0.0000
 15      0.0004      0.4200      0.6906      0.6863      0.9341      0.0000      0.3055      0.2821      0.0000
 16      4.2113      0.7194      2.0884      1.2310      0.0000      1.3436      0.7767      0.0000      1.8604
 17      0.0000      0.2558      0.0000      0.0000      0.0000      0.0000      0.0000      0.0000      0.0000
 18      0.0000      0.7256      1.1167      0.0000      0.9697      0.4551      0.0000      0.4349      0.7218
 19      0.0000      0.1028      0.0000      0.2551      0.0000      0.6473      0.0000      0.0000      0.0000
 20      0.0000      0.2199      0.0000      0.0000      0.2808      0.3262      0.4361      0.5953      0.0853
 21      0.0000      0.2450      0.0000      0.0000      0.0000      0.2655      0.0000      0.0000      0.2225
 22      0.0000      0.0741      0.0000      0.3606      0.0000      0.0000      0.0000      0.0000      0.3561
 23      0.0000      0.1121      0.0000      0.0000      0.0000      0.0000      0.0000      0.0000      0.0000
 24      0.0000      0.1811      0.0000      0.2288      0.0000      0.0000      0.0000      0.0721      0.3312
 25      0.0000      0.0984      0.0000      1.1067      0.0000      0.0957      0.0000      0.0000      0.0000
 26      0.0000      0.1393      0.0756      0.0000      0.0000      0.0952      0.0000      0.0000      0.0000
 27      0.0000      0.1814      0.0000      0.0000      0.0374      0.0540      0.0000      0.2692      0.0000
 28      7.8657      8.9062      7.9991      9.2349      8.2035      8.9039     10.0714     11.3490      8.4932
 29      0.0000      5.3904      0.0000      3.6094      4.9800      3.2352      5.1504      5.3099      3.1768
 30      0.0000      6.8791      4.5223      7.2508      7.0133      6.9355      7.7237      6.9605      7.0238
 31      4.4992      4.6311      5.1896      6.3438      4.2317      4.7965      5.6499      5.6760      6.8981
 32      4.3651      2.0145      4.1171      2.0526      1.1857      2.0436      1.3222      1.7463      1.6160
 33      0.0000      0.0708      0.1583      0.0000      0.0000      0.2003      0.0000      0.0000      0.0000
 34      0.0000      0.2243      0.0000      0.0000      0.8027      0.0000      0.0000      0.4898      0.0000
 35      0.0000      1.3528      1.6539      1.4585      1.9694      1.2198      1.3560      0.8907      1.6605
 36      0.0000      0.2333      0.0000      0.0000      0.0000      0.0000      0.0751      0.3698      0.0000
 37      0.0000      0.1346      0.0000      0.0000      0.7381      0.0000      0.0000      0.0017      0.0000
 38      0.0000      0.2665      0.0000      0.3050      0.0000      0.5722      0.0000      0.0000      0.0000
 39      0.0000      0.1241      0.0000      0.1268      0.7951      0.1912      0.0000      0.0000      0.0000
 40      0.0000      0.1863      0.0000      0.0000      0.1840      0.4994      0.1583      0.0323      0.0000
 41      0.0000      0.1707      0.1538      0.0000      0.0000      0.0048      0.1317      0.0413      0.4232
 42      0.0000      0.1155      0.0000      0.0000      0.0000      0.0000      0.0000      0.0000      0.0000
 43      0.0000      0.1098      0.0000      0.0000      0.0000      0.0000      0.0003      0.0000      0.1401
 44      0.0000      0.3551      0.0000      0.3501      0.0000      0.0000      0.0000      0.0578      0.0000
 45     35.4753     19.0371     24.9503     22.2644     18.2966     22.4628     25.3006     19.4237     23.8376
 46      0.0000     14.7672     13.8531     12.9335     13.9467     14.9090      4.8159     13.8246     11.0978
