###################################################################
## OUTPUT of StarlightChains_v04.for    [Cid@UFSC - 01/Apr/2007] ##
###################################################################

## Some input info
2000ft.txt                               [arq_obs]
Base.CB07.vall.4m                        [arq_base]
Masks.EmLines.NEW.gm                     [arq_masks]
StCv04.C11.config                        [arq_config]
   66                                    [N_base]
    0                                    [N_YAV_components = # of components with extra extinction!]
    0                                    [i_FitPowerLaw (1/0 = Yes/No)]
-9.99                                    [alpha_PowerLaw]
CCM                                      [red_law_option]
 1.458241                                [q_norm = A(l_norm)/A(V)]

## (Re)Sampling Parameters
 3741.00                                 [l_ini (A)]
 7218.00                                 [l_fin (A)]
    1.00                                 [dl    (A)]     (OBS: dl_cushion =    50.00 A)

## Normalization info
 4020.00                                 [l_norm (A) - for base]
 4010.00                                 [llow_norm (A) - window for f_obs]
 4060.00                                 [lupp_norm (A) - window for f_obs]
2.572913E-15                             [fobs_norm (in input units)]

## S/N
 3691.00                                 [llow_SN (A) - window for S/N]
 7268.00                                 [lupp_SN (A) - window for S/N]
   7.805                                 [S/N in S/N window]
   9.284                                 [S/N in norm. window]
  88.078                                 [S/N_err in S/N window]
 104.768                                 [S/N_err in norm. window]
  1.0000                                 [fscale_chi2]

## etc...
    -2007250                             [idum_orig]
  2370                                   [NOl_eff]
  1199                                   [Nl_eff]
  1171    NSIGMA                         [Ntot_cliped & clip_method]
  1658580                                [Nglobal_steps]
   7                                     [N_chains]
  18                                     [NEX0s_base = N_base in EX0s-fits]
 0   0   1        9   2.0   3.394E+02    [Clip-Bug, RC-Crash & Burn-In warning-flags, n_censored_weights, wei_nsig_threshold & wei_limit]
    15     15.573     15.074      0.499  [idt_all, wdt_TotTime, wdt_UsrTime & wdt_SysTime (sec)]

## Synthesis Results - Best model ##

 2.18155E+00                             [chi2/Nl_eff]
     1.18876                             [adev (%)]

   103.67190                             [sum-of-x (%)]
 6.30241E-15                             [Flux_tot (units of input spectrum!)]
 1.57557E-10                             [Mini_tot (???)]
 7.84365E-11                             [Mcor_tot (???)]

 -31.96                                  [v0_min  (km/s)]
 263.82                                  [vd_min  (km/s)]
 0.6402                                  [AV_min  (mag)]
 0.0000                                  [YAV_min (mag)]

# j     x_j(%)      Mini_j(%)     Mcor_j(%)     age_j(yr)     Z_j      (L/M)_j    YAV?  Mstars   component_j        a/Fe...       SSP_chi2r SSP_adev(%)   SSP_AV   SSP_x(%)
  1     12.2472     4.3194E-02    8.6765E-02    1.000000E+06  0.00400  1.094E-02    0   1.0000   age020_m42            0.0000     4.4658E+01     4.8233   2.4834    91.3162
  2      0.0000     0.0000E+00    0.0000E+00    3.160000E+06  0.00400  4.007E-02    0   0.9999   age045_m42            0.0000     3.2303E+01     4.0400   1.8279    94.8667
  3      0.0000     0.0000E+00    0.0000E+00    5.010000E+06  0.00400  2.539E-02    0   0.9488   age055_m42            0.0000     3.5553E+01     4.2651   2.1176    93.7079
  4      0.0000     0.0000E+00    0.0000E+00    6.610000E+06  0.00400  2.620E-02    0   0.9220   age061_m42            0.0000     2.8285E+01     3.8231   1.7576    95.0559
  5      0.0000     0.0000E+00    0.0000E+00    1.000000E+07  0.00400  1.322E-02    0   0.8862   age070_m42            0.0000     1.1917E+01     2.5153   1.4730    97.9583
  6      0.0066     3.2139E-05    5.5333E-05    1.445000E+07  0.00400  7.883E-03    0   0.8571   age078_m42            0.0000     1.6065E+01     2.9213   1.7813    96.1367
  7      0.0000     0.0000E+00    0.0000E+00    2.512000E+07  0.00400  5.251E-03    0   0.8174   age090_m42            0.0000     9.9180E+00     2.2813   1.3466    98.5179
  8      0.0000     0.0000E+00    0.0000E+00    4.000000E+07  0.00400  3.649E-03    0   0.7851   age104_m42            0.0000     1.0145E+01     2.2998   1.1286    98.8855
  9      0.0000     0.0000E+00    0.0000E+00    5.500000E+07  0.00400  3.098E-03    0   0.7629   age110_m42            0.0000     1.4290E+01     2.7266   1.2963    97.9780
 10      0.0000     0.0000E+00    0.0000E+00    1.015200E+08  0.00400  2.228E-03    0   0.7207   age116_m42            0.0000     1.6849E+01     2.9584   1.3282    97.4987
 11      0.2947     1.0403E-02    1.3892E-02    2.861200E+08  0.00400  1.093E-03    0   0.6648   age125_m42            0.0000     1.0028E+01     2.2240   0.7924    99.6902
 12      0.0002     8.8311E-06    1.1291E-05    5.088000E+08  0.00400  6.597E-04    0   0.6365   age130_m42            0.0000     1.4711E+01     2.6927   0.7919    99.7620
 13      0.0000     0.0000E+00    0.0000E+00    1.434000E+09  0.00400  2.132E-04    0   0.5798   age139_m42            0.0000     2.0557E+01     2.8441  -0.1882   102.0128
 14      0.0000     0.0000E+00    0.0000E+00    4.250000E+09  0.00400  5.895E-05    0   0.5377   age158_m42            0.0000     4.5933E+01     4.2790  -0.6625    99.0954
 15      0.0000     0.0000E+00    0.0000E+00    7.500000E+09  0.00400  3.510E-05    0   0.5212   age171_m42            0.0000     5.7346E+01     4.8004  -0.8517    98.4162
 16      1.1193     2.1540E+00    2.1781E+00    1.300000E+10  0.00400  2.005E-05    0   0.5034   age193_m42            0.0000     6.8847E+01     5.2666  -1.0000    97.2141
 17      5.8729     1.4859E+01    1.4825E+01    1.800000E+10  0.00400  1.525E-05    0   0.4967   age213_m42            0.0000     6.8469E+01     5.2153  -1.0000    95.9683
 18     14.3344     4.4675E-02    8.9740E-02    1.000000E+06  0.00800  1.238E-02    0   1.0000   age020_m52            0.0000     4.4721E+01     4.8271   2.4798    91.4917
 19      3.6572     4.5905E-03    9.1896E-03    3.160000E+06  0.00800  3.074E-02    0   0.9966   age045_m52            0.0000     4.4550E+01     4.7905   2.4058    92.1794
 20      0.0000     0.0000E+00    0.0000E+00    5.010000E+06  0.00800  2.668E-02    0   0.9443   age055_m52            0.0000     3.6416E+01     4.3366   2.1870    93.4038
 21      4.3484     7.8549E-03    1.4480E-02    6.610000E+06  0.00800  2.136E-02    0   0.9177   age061_m52            0.0000     1.4645E+01     2.7532   0.9519    99.8152
 22      0.0000     0.0000E+00    0.0000E+00    1.000000E+07  0.00800  1.215E-02    0   0.8827   age070_m52            0.0000     9.7286E+00     2.2762   1.6453    98.3848
 23      0.0000     0.0000E+00    0.0000E+00    1.445000E+07  0.00800  8.717E-03    0   0.8552   age078_m52            0.0000     1.4378E+01     2.7691   1.7531    97.3063
 24      0.0000     0.0000E+00    0.0000E+00    2.512000E+07  0.00800  5.592E-03    0   0.8162   age090_m52            0.0000     8.5497E+00     2.0893   1.4183    99.5517
 25      0.0000     0.0000E+00    0.0000E+00    4.000000E+07  0.00800  3.896E-03    0   0.7841   age104_m52            0.0000     9.5307E+00     2.2029   1.3446    99.6370
 26      0.0000     0.0000E+00    0.0000E+00    1.015200E+08  0.00800  2.148E-03    0   0.7226   age116_m52            0.0000     1.3656E+01     2.6767   1.2921    98.7142
 27      0.0000     0.0000E+00    0.0000E+00    2.861200E+08  0.00800  9.925E-04    0   0.6683   age125_m52            0.0000     1.3445E+01     2.5424   0.8508   100.8379
 28      0.0000     0.0000E+00    0.0000E+00    9.047900E+08  0.00800  3.141E-04    0   0.6138   age135_m52            0.0000     2.9278E+01     3.2452   0.0694   104.1701
 29      0.0000     0.0000E+00    0.0000E+00    1.434000E+09  0.00800  1.719E-04    0   0.5853   age139_m52            0.0000     3.4942E+01     3.7513  -0.5286   103.0561
 30      0.0000     0.0000E+00    0.0000E+00    2.500000E+09  0.00800  7.872E-05    0   0.5600   age150_m52            0.0000     5.7793E+01     4.9023  -0.8199   100.7141
 31      0.0000     0.0000E+00    0.0000E+00    4.250000E+09  0.00800  4.336E-05    0   0.5426   age158_m52            0.0000     6.3185E+01     5.0405  -0.8405    99.9672
 32      0.0000     0.0000E+00    0.0000E+00    6.250000E+09  0.00800  3.159E-05    0   0.5319   age166_m52            0.0000     7.9652E+01     5.5835  -1.0000    98.1801
 33      0.0000     0.0000E+00    0.0000E+00    1.300000E+10  0.00800  1.361E-05    0   0.5073   age193_m52            0.0000     1.8376E+02     6.9881  -1.0000    80.4554
 34      2.5284     9.8680E+00    9.8912E+00    1.800000E+10  0.00800  9.886E-06    0   0.4990   age213_m52            0.0000     2.3410E+02     7.6476  -1.0000    76.3838
 35     11.2761     2.8179E-02    5.6603E-02    1.000000E+06  0.02000  1.544E-02    0   1.0000   age020_m62            0.0000     4.5166E+01     4.8517   2.4738    91.7816
 36      9.1923     9.4279E-03    1.8669E-02    3.160000E+06  0.02000  3.762E-02    0   0.9858   age045_m62            0.0000     4.6078E+01     4.8913   2.4131    92.5501
 37      0.0000     0.0000E+00    0.0000E+00    5.010000E+06  0.02000  3.296E-02    0   0.9342   age055_m62            0.0000     3.5566E+01     4.2899   2.0902    94.3058
 38      0.0001     3.4513E-07    6.1430E-07    8.710000E+06  0.02000  1.154E-02    0   0.8861   age067_m62            0.0000     6.7751E+00     1.9002   1.0742   104.0549
 39      0.0000     0.0000E+00    0.0000E+00    1.445000E+07  0.02000  7.663E-03    0   0.8472   age078_m62            0.0000     5.0495E+00     1.5770   1.2972   101.1496
 40      0.0000     0.0000E+00    0.0000E+00    2.512000E+07  0.02000  4.532E-03    0   0.8099   age090_m62            0.0000     4.5091E+00     1.4897   1.2972   100.7539
 41      0.0000     0.0000E+00    0.0000E+00    5.500000E+07  0.02000  2.733E-03    0   0.7595   age110_m62            0.0000     9.1657E+00     2.2147   1.3200    99.2482
 42      0.0000     0.0000E+00    0.0000E+00    1.609000E+08  0.02000  1.369E-03    0   0.6985   age120_m62            0.0000     1.2064E+01     2.5098   1.1935   100.0583
 43      0.0000     0.0000E+00    0.0000E+00    2.861200E+08  0.02000  9.013E-04    0   0.6714   age125_m62            0.0000     1.3686E+01     2.5663   0.9643   101.8180
 44      0.0000     0.0000E+00    0.0000E+00    5.088000E+08  0.02000  5.028E-04    0   0.6449   age130_m62            0.0000     2.5624E+01     3.2934   0.6035   103.4173
 45      0.0000     0.0000E+00    0.0000E+00    9.047900E+08  0.02000  2.428E-04    0   0.6179   age135_m62            0.0000     4.1624E+01     3.9635  -0.0022   103.6632
 46      0.0000     0.0000E+00    0.0000E+00    1.434000E+09  0.02000  1.263E-04    0   0.5908   age139_m62            0.0000     5.4491E+01     4.5373  -0.4655   102.9381
 47      0.0000     0.0000E+00    0.0000E+00    2.500000E+09  0.02000  5.985E-05    0   0.5673   age150_m62            0.0000     7.7649E+01     5.5654  -0.8405   101.7133
 48      0.0000     0.0000E+00    0.0000E+00    4.250000E+09  0.02000  3.271E-05    0   0.5468   age158_m62            0.0000     1.0988E+02     6.4779  -1.0000    95.0282
 49      0.0000     0.0000E+00    0.0000E+00    1.000000E+10  0.02000  1.360E-05    0   0.5167   age181_m62            0.0000     2.0869E+02     7.7417  -1.0000    81.9737
 50      0.0000     0.0000E+00    0.0000E+00    1.800000E+10  0.02000  7.124E-06    0   0.5013   age213_m62            0.0000     3.0123E+02     8.6669  -1.0000    74.2959
 51     17.9192     2.6674E-02    5.3570E-02    1.000000E+06  0.05000  2.592E-02    0   0.9998   age020_m72            0.0000     4.5521E+01     4.8621   2.4583    92.1113
 52      1.7588     1.4007E-03    2.6945E-03    3.160000E+06  0.05000  4.845E-02    0   0.9577   age045_m72            0.0000     4.4356E+01     4.7942   2.3149    93.0381
 53      0.0000     0.0000E+00    0.0000E+00    5.010000E+06  0.05000  3.072E-02    0   0.9147   age055_m72            0.0000     1.5454E+01     2.8594   1.8722    97.3251
 54      9.7592     2.5880E-02    4.6147E-02    6.610000E+06  0.05000  1.455E-02    0   0.8877   age061_m72            0.0000     3.3017E+01     3.6277   1.1647   105.1731
 55      0.0000     0.0000E+00    0.0000E+00    1.000000E+07  0.05000  9.074E-03    0   0.8524   age070_m72            0.0000     2.2938E+01     3.4289   2.0732    96.6640
 56      0.0000     0.0000E+00    0.0000E+00    2.512000E+07  0.05000  4.250E-03    0   0.7902   age090_m72            0.0000     1.3803E+01     2.6458   1.7932    97.6100
 57      0.0000     0.0000E+00    0.0000E+00    4.000000E+07  0.05000  3.087E-03    0   0.7618   age104_m72            0.0000     1.1550E+01     2.3791   1.5831    98.7335
 58      0.0000     0.0000E+00    0.0000E+00    1.015200E+08  0.05000  1.700E-03    0   0.7096   age116_m72            0.0000     9.5484E+00     2.1947   1.3387    99.9209
 59      0.0000     0.0000E+00    0.0000E+00    2.861200E+08  0.05000  7.384E-04    0   0.6633   age125_m72            0.0000     1.8660E+01     2.8749   0.8435   102.5989
 60      0.0000     0.0000E+00    0.0000E+00    5.088000E+08  0.05000  3.819E-04    0   0.6372   age130_m72            0.0000     3.5864E+01     3.8146   0.3393   104.3851
 61      0.0000     0.0000E+00    0.0000E+00    9.047900E+08  0.05000  1.676E-04    0   0.6110   age135_m72            0.0000     7.2686E+01     5.3578  -0.3803   103.2735
 62      0.0000     0.0000E+00    0.0000E+00    1.434000E+09  0.05000  8.837E-05    0   0.5874   age139_m72            0.0000     8.4746E+01     5.7537  -0.8383   103.0366
 63      0.0000     0.0000E+00    0.0000E+00    2.500000E+09  0.05000  4.233E-05    0   0.5598   age150_m72            0.0000     1.1972E+02     6.8255  -1.0000    95.7551
 64      0.0000     0.0000E+00    0.0000E+00    6.250000E+09  0.05000  1.435E-05    0   0.5249   age166_m72            0.0000     2.4804E+02     8.1991  -1.0000    78.3011
 65      2.6292     1.5576E+01    1.5756E+01    1.300000E+10  0.05000  6.513E-06    0   0.5036   age193_m72            0.0000     3.8245E+02     9.5032  -1.0000    69.9655
 66      6.7277     5.7341E+01    5.6958E+01    1.800000E+10  0.05000  4.527E-06    0   0.4945   age213_m72            0.0000     4.7276E+02    10.5326  -1.0000    64.9788


## Synthesis Results - Average & Chains ##

# j      x_j: min, <> & last-chain-values for 1 ...  7 chains
  1     12.2472     10.9261     11.4097     11.1198     12.0625     11.0332     11.3722     11.0264     11.3414
  2      0.0000      0.1320      0.3152      0.1521      0.1379      0.0000      0.1322      0.0000      0.0000
  3      0.0000      0.1889      0.6096      0.4808      0.3422      0.3205      0.5680      0.1372      0.3177
  4      0.0000      0.1111      0.0185      0.0337      0.3530      0.0730      0.2193      0.0000      0.0759
  5      0.0000      0.1195      0.0000      0.0000      0.2078      0.0000      0.3211      0.0000      0.0000
  6      0.0066      0.0913      0.2712      0.1688      0.6344      0.0000      0.1979      0.0000      0.0000
  7      0.0000      0.1161      0.1228      0.0000      0.0000      0.0153      0.0066      0.0915      0.1858
  8      0.0000      0.1297      0.0000      0.0407      0.0000      0.0000      0.0069      0.0501      0.0236
  9      0.0000      0.1036      0.0000      0.0000      0.0000      0.0000      0.0834      0.0000      0.0000
 10      0.0000      0.1115      0.0000      0.0000      0.0000      0.1027      0.0000      0.0817      0.1229
 11      0.2947      0.7979      0.5433      1.3596      0.7980      1.1227      1.1083      0.4489      1.0126
 12      0.0002      0.8642      0.0000      0.9917      0.6076      1.5714      0.7364      0.8421      0.9278
 13      0.0000      0.0583      0.0000      0.0000      0.1328      0.0000      0.0000      0.2102      0.0000
 14      0.0000      0.0414      0.0000      0.0000      0.0000      0.0056      0.0000      0.0000      0.0000
 15      0.0000      0.0327      0.1485      0.0000      0.0000      0.0000      0.0000      0.1093      0.0303
 16      1.1193      0.5883      0.6127      0.6813      0.5944      0.6308      0.5174      0.9170      0.5861
 17      5.8729      5.4386      5.4998      5.5863      5.4705      5.5645      5.5696      5.3785      5.5228
 18     14.3344     13.7042     13.9191     13.9296     13.9561     14.1780     13.5440     13.6531     14.1011
 19      3.6572      3.4948      3.5940      3.2648      3.4688      3.8063      3.5640      3.3177      3.6947
 20      0.0000      0.0891      0.0174      0.1721      0.0000      0.0000      0.0911      0.2377      0.0000
 21      4.3484      2.9634      3.9820      2.4247      3.0562      2.0888      2.9587      4.0495      2.6784
 22      0.0000      0.0721      0.0000      0.0569      0.0000      0.1870      0.0316      0.0000      0.0000
 23      0.0000      0.0747      0.0000      0.0233      0.0000      0.0014      0.1403      0.3869      0.0000
 24      0.0000      0.0600      0.0323      0.0000      0.0000      0.0176      0.0073      0.1008      0.0131
 25      0.0000      0.0575      0.0204      0.0000      0.0308      0.0000      0.0145      0.0104      0.0000
 26      0.0000      0.0779      0.0000      0.0024      0.0000      0.0000      0.0000      0.0000      0.0000
 27      0.0000      0.1019      0.0699      0.0145      0.0000      0.0000      0.0000      0.0000      0.2697
 28      0.0000      0.0132      0.0000      0.0000      0.0000      0.0000      0.0000      0.0000      0.0000
 29      0.0000      0.0195      0.0000      0.0000      0.0000      0.0069      0.0000      0.0000      0.0000
 30      0.0000      0.0090      0.0000      0.0027      0.0000      0.0000      0.0000      0.0076      0.0000
 31      0.0000      0.0554      0.0000      0.0452      0.0000      0.0000      0.2201      0.0399      0.0000
 32      0.0000      0.0121      0.0000      0.0766      0.0000      0.0421      0.0000      0.0000      0.0000
 33      0.0000      0.2444      0.2371      0.2046      0.2910      0.2610      0.2484      0.2520      0.2215
 34      2.5284      2.5909      2.6400      2.7216      2.6441      2.6410      2.6103      2.5286      2.5745
 35     11.2761     10.5335     10.5792     10.7709     10.8520     10.6022     10.7205     10.7244     10.6708
 36      9.1923      8.5255      8.6497      8.4393      8.8444      8.7758      8.3646      8.5986      8.8490
 37      0.0000      0.0996      0.1487      0.1471      0.1078      0.0000      0.0000      0.1395      0.0000
 38      0.0001      4.0194      2.9620      3.5498      1.5005      3.3717      3.1990      4.0952      2.9780
 39      0.0000      0.0970      0.0000      0.0302      0.0000      0.0000      0.0000      0.0476      0.1246
 40      0.0000      0.1250      0.0000      0.2652      0.2722      0.0000      0.0000      0.0000      0.0000
 41      0.0000      0.0902      0.0000      0.0000      0.0000      0.0000      0.0000      0.0000      0.0000
 42      0.0000      0.0801      0.0327      0.0000      0.0000      0.3560      0.0000      0.0000      0.0000
 43      0.0000      0.0626      0.0000      0.0000      0.0000      0.0000      0.0000      0.1208      0.0153
 44      0.0000      0.0332      0.0000      0.0000      0.0000      0.0000      0.0000      0.0000      0.0000
 45      0.0000      0.0189      0.0000      0.0000      0.0000      0.0115      0.0859      0.0000      0.0000
 46      0.0000      0.0207      0.0000      0.0000      0.0000      0.0204      0.0000      0.0000      0.0000
