###################################################################
## OUTPUT of StarlightChains_v04.for    [Cid@UFSC - 01/Apr/2007] ##
###################################################################

## Some input info
2000da.txt                               [arq_obs]
Base.CB07.vall.4m                        [arq_base]
Masks.EmLines.NEW.gm                     [arq_masks]
StCv04.C11.config                        [arq_config]
   66                                    [N_base]
    0                                    [N_YAV_components = # of components with extra extinction!]
    0                                    [i_FitPowerLaw (1/0 = Yes/No)]
-9.99                                    [alpha_PowerLaw]
CCM                                      [red_law_option]
 1.458241                                [q_norm = A(l_norm)/A(V)]

## (Re)Sampling Parameters
 3741.00                                 [l_ini (A)]
 7218.00                                 [l_fin (A)]
    1.00                                 [dl    (A)]     (OBS: dl_cushion =    50.00 A)

## Normalization info
 4020.00                                 [l_norm (A) - for base]
 4010.00                                 [llow_norm (A) - window for f_obs]
 4060.00                                 [lupp_norm (A) - window for f_obs]
8.036853E-17                             [fobs_norm (in input units)]

## S/N
 3691.00                                 [llow_SN (A) - window for S/N]
 7268.00                                 [lupp_SN (A) - window for S/N]
  10.649                                 [S/N in S/N window]
  12.406                                 [S/N in norm. window]
  21.047                                 [S/N_err in S/N window]
  24.519                                 [S/N_err in norm. window]
  1.0000                                 [fscale_chi2]

## etc...
    -2007247                             [idum_orig]
  2376                                   [NOl_eff]
  2375                                   [Nl_eff]
     1    NSIGMA                         [Ntot_cliped & clip_method]
  1460550                                [Nglobal_steps]
   7                                     [N_chains]
  18                                     [NEX0s_base = N_base in EX0s-fits]
 0   0   1        4   2.0   4.036E+01    [Clip-Bug, RC-Crash & Burn-In warning-flags, n_censored_weights, wei_nsig_threshold & wei_limit]
    15     15.788     15.292      0.495  [idt_all, wdt_TotTime, wdt_UsrTime & wdt_SysTime (sec)]

## Synthesis Results - Best model ##

 6.53031E-01                             [chi2/Nl_eff]
     2.97241                             [adev (%)]

   103.11154                             [sum-of-x (%)]
 1.75032E-16                             [Flux_tot (units of input spectrum!)]
 1.25532E-12                             [Mini_tot (???)]
 6.67747E-13                             [Mcor_tot (???)]

 181.26                                  [v0_min  (km/s)]
 153.60                                  [vd_min  (km/s)]
 0.5567                                  [AV_min  (mag)]
 0.0000                                  [YAV_min (mag)]

# j     x_j(%)      Mini_j(%)     Mcor_j(%)     age_j(yr)     Z_j      (L/M)_j    YAV?  Mstars   component_j        a/Fe...       SSP_chi2r SSP_adev(%)   SSP_AV   SSP_x(%)
  1      0.0000     0.0000E+00    0.0000E+00    1.000000E+06  0.00400  1.094E-02    0   1.0000   age020_m42            0.0000     2.6932E+00     6.2191   2.8027    86.2221
  2      0.0000     0.0000E+00    0.0000E+00    3.160000E+06  0.00400  4.007E-02    0   0.9999   age045_m42            0.0000     1.9679E+00     5.0342   2.0938    91.5790
  3      0.0000     0.0000E+00    0.0000E+00    5.010000E+06  0.00400  2.539E-02    0   0.9488   age055_m42            0.0000     2.1905E+00     5.4103   2.4044    89.6712
  4      0.0000     0.0000E+00    0.0000E+00    6.610000E+06  0.00400  2.620E-02    0   0.9220   age061_m42            0.0000     1.8047E+00     4.8514   2.0171    91.9641
  5      0.0000     0.0000E+00    0.0000E+00    1.000000E+07  0.00400  1.322E-02    0   0.8862   age070_m42            0.0000     1.1912E+00     3.9574   1.7074    95.3635
  6      0.0000     0.0000E+00    0.0000E+00    1.445000E+07  0.00400  7.883E-03    0   0.8571   age078_m42            0.0000     1.4343E+00     4.3699   2.0340    92.8971
  7      0.0000     0.0000E+00    0.0000E+00    2.512000E+07  0.00400  5.251E-03    0   0.8174   age090_m42            0.0000     1.0955E+00     3.8039   1.5727    96.1514
  8      0.0000     0.0000E+00    0.0000E+00    4.000000E+07  0.00400  3.649E-03    0   0.7851   age104_m42            0.0000     1.0217E+00     3.6657   1.3497    96.7693
  9      0.0000     0.0000E+00    0.0000E+00    5.500000E+07  0.00400  3.098E-03    0   0.7629   age110_m42            0.0000     1.1880E+00     3.9357   1.5196    95.9732
 10      0.0000     0.0000E+00    0.0000E+00    1.015200E+08  0.00400  2.228E-03    0   0.7207   age116_m42            0.0000     1.3168E+00     4.2393   1.5507    95.6485
 11      0.0000     0.0000E+00    0.0000E+00    2.861200E+08  0.00400  1.093E-03    0   0.6648   age125_m42            0.0000     1.0772E+00     3.8901   0.9829    98.7844
 12      0.0000     0.0000E+00    0.0000E+00    5.088000E+08  0.00400  6.597E-04    0   0.6365   age130_m42            0.0000     1.2504E+00     4.3117   0.9880    98.8359
 13     10.4225     6.6106E+00    7.2055E+00    1.434000E+09  0.00400  2.132E-04    0   0.5798   age139_m42            0.0000     1.1067E+00     4.2583   0.0229   100.5405
 14      0.0002     4.7316E-04    4.7829E-04    4.250000E+09  0.00400  5.895E-05    0   0.5377   age158_m42            0.0000     1.7534E+00     5.2137  -0.4028    95.9057
 15      0.0000     0.0000E+00    0.0000E+00    7.500000E+09  0.00400  3.510E-05    0   0.5212   age171_m42            0.0000     2.1506E+00     5.7494  -0.5793    94.7979
 16      0.0000     0.0000E+00    0.0000E+00    1.300000E+10  0.00400  2.005E-05    0   0.5034   age193_m42            0.0000     2.5934E+00     6.2661  -0.7329    93.8386
 17      0.0000     0.0000E+00    0.0000E+00    1.800000E+10  0.00400  1.525E-05    0   0.4967   age213_m42            0.0000     2.5164E+00     6.1553  -0.7592    93.5661
 18      0.0791     8.6347E-04    1.6233E-03    1.000000E+06  0.00800  1.238E-02    0   1.0000   age020_m52            0.0000     2.6985E+00     6.2353   2.7991    86.3890
 19      0.0000     0.0000E+00    0.0000E+00    3.160000E+06  0.00800  3.074E-02    0   0.9966   age045_m52            0.0000     2.6650E+00     6.1870   2.7237    87.0985
 20      0.0000     0.0000E+00    0.0000E+00    5.010000E+06  0.00800  2.668E-02    0   0.9443   age055_m52            0.0000     2.2351E+00     5.5468   2.4826    89.0298
 21      0.0000     0.0000E+00    0.0000E+00    6.610000E+06  0.00800  2.136E-02    0   0.9177   age061_m52            0.0000     1.1145E+00     3.9732   1.2031    96.6029
 22      0.0000     0.0000E+00    0.0000E+00    1.000000E+07  0.00800  1.215E-02    0   0.8827   age070_m52            0.0000     1.1762E+00     3.9979   1.8796    95.5579
 23      0.0000     0.0000E+00    0.0000E+00    1.445000E+07  0.00800  8.717E-03    0   0.8552   age078_m52            0.0000     1.3172E+00     4.1941   1.9993    94.2188
 24      0.0000     0.0000E+00    0.0000E+00    2.512000E+07  0.00800  5.592E-03    0   0.8162   age090_m52            0.0000     1.0067E+00     3.6555   1.6385    97.2884
 25      0.0033     1.1579E-04    1.7068E-04    4.000000E+07  0.00800  3.896E-03    0   0.7841   age104_m52            0.0000     9.9088E-01     3.6124   1.5608    97.5984
 26      0.0015     9.4399E-05    1.2824E-04    1.015200E+08  0.00800  2.148E-03    0   0.7226   age116_m52            0.0000     1.1296E+00     3.9079   1.5137    96.7017
 27      0.0000     0.0000E+00    0.0000E+00    2.861200E+08  0.00800  9.925E-04    0   0.6683   age125_m52            0.0000     1.1604E+00     4.1812   1.0527    99.7663
 28      0.0000     0.0000E+00    0.0000E+00    9.047900E+08  0.00800  3.141E-04    0   0.6138   age135_m52            0.0000     1.4427E+00     4.9770   0.2828   102.6440
 29      0.0000     0.0000E+00    0.0000E+00    1.434000E+09  0.00800  1.719E-04    0   0.5853   age139_m52            0.0000     1.5213E+00     4.9776  -0.2964   100.6077
 30      0.0000     0.0000E+00    0.0000E+00    2.500000E+09  0.00800  7.872E-05    0   0.5600   age150_m52            0.0000     2.2541E+00     6.0854  -0.5487    97.0309
 31      0.0000     0.0000E+00    0.0000E+00    4.250000E+09  0.00800  4.336E-05    0   0.5426   age158_m52            0.0000     2.3698E+00     6.1594  -0.5635    96.0756
 32      0.0000     0.0000E+00    0.0000E+00    6.250000E+09  0.00800  3.159E-05    0   0.5319   age166_m52            0.0000     2.9907E+00     6.9582  -0.7500    95.4100
 33      2.1393     2.1255E+01    2.0271E+01    1.300000E+10  0.00800  1.361E-05    0   0.5073   age193_m52            0.0000     4.5137E+00     8.4889  -1.0000    86.5482
 34      1.5466     2.1155E+01    1.9845E+01    1.800000E+10  0.00800  9.886E-06    0   0.4990   age213_m52            0.0000     5.8857E+00     9.5840  -1.0000    82.2246
 35      0.0000     0.0000E+00    0.0000E+00    1.000000E+06  0.02000  1.544E-02    0   1.0000   age020_m62            0.0000     2.7301E+00     6.2877   2.7945    86.6102
 36      0.0000     0.0000E+00    0.0000E+00    3.160000E+06  0.02000  3.762E-02    0   0.9858   age045_m62            0.0000     2.7595E+00     6.3030   2.7338    87.3605
 37      0.0000     0.0000E+00    0.0000E+00    5.010000E+06  0.02000  3.296E-02    0   0.9342   age055_m62            0.0000     2.1390E+00     5.3194   2.3688    90.5950
 38     45.0444     5.2783E-01    8.7926E-01    8.710000E+06  0.02000  1.154E-02    0   0.8861   age067_m62            0.0000     1.6304E+00     5.2519   1.2771   101.3120
 39      0.0013     2.2421E-05    3.5710E-05    1.445000E+07  0.02000  7.663E-03    0   0.8472   age078_m62            0.0000     1.0474E+00     3.9634   1.5137    98.5880
 40      0.0000     0.0000E+00    0.0000E+00    2.512000E+07  0.02000  4.532E-03    0   0.8099   age090_m62            0.0000     1.0796E+00     4.0068   1.5064    98.3805
 41      0.0000     0.0000E+00    0.0000E+00    5.500000E+07  0.02000  2.733E-03    0   0.7595   age110_m62            0.0000     9.9044E-01     3.6428   1.5411    97.0008
 42      0.0000     0.0000E+00    0.0000E+00    1.609000E+08  0.02000  1.369E-03    0   0.6985   age120_m62            0.0000     1.1298E+00     4.0338   1.4022    98.6055
 43      0.0044     6.6104E-04    8.3436E-04    2.861200E+08  0.02000  9.013E-04    0   0.6714   age125_m62            0.0000     1.2460E+00     4.4021   1.1625   100.9284
 44      0.0000     0.0000E+00    0.0000E+00    5.088000E+08  0.02000  5.028E-04    0   0.6449   age130_m62            0.0000     1.6264E+00     5.1988   0.8113   102.3482
 45      0.0025     1.3925E-03    1.6175E-03    9.047900E+08  0.02000  2.428E-04    0   0.6179   age135_m62            0.0000     1.7351E+00     5.5191   0.2375   101.2510
 46      0.0000     0.0000E+00    0.0000E+00    1.434000E+09  0.02000  1.263E-04    0   0.5908   age139_m62            0.0000     2.0263E+00     5.8339  -0.2025    99.5798
 47      0.0000     0.0000E+00    0.0000E+00    2.500000E+09  0.02000  5.985E-05    0   0.5673   age150_m62            0.0000     2.8709E+00     6.9015  -0.5503    97.3837
 48      0.0000     0.0000E+00    0.0000E+00    4.250000E+09  0.02000  3.271E-05    0   0.5468   age158_m62            0.0000     3.9400E+00     8.1765  -0.8325    95.5600
 49      3.8902     3.8681E+01    3.7573E+01    1.000000E+10  0.02000  1.360E-05    0   0.5167   age181_m62            0.0000     5.6760E+00     9.7249  -1.0000    88.2743
 50      0.0000     0.0000E+00    0.0000E+00    1.800000E+10  0.02000  7.124E-06    0   0.5013   age213_m62            0.0000     8.0330E+00    11.2059  -1.0000    80.0751
 51      0.0000     0.0000E+00    0.0000E+00    1.000000E+06  0.05000  2.592E-02    0   0.9998   age020_m72            0.0000     2.7902E+00     6.4110   2.7841    86.7082
 52      0.0000     0.0000E+00    0.0000E+00    3.160000E+06  0.05000  4.845E-02    0   0.9577   age045_m72            0.0000     2.5981E+00     5.9894   2.6246    88.2290
 53      0.0000     0.0000E+00    0.0000E+00    5.010000E+06  0.05000  3.072E-02    0   0.9147   age055_m72            0.0000     1.5620E+00     4.7219   2.1258    93.6583
 54      0.0000     0.0000E+00    0.0000E+00    6.610000E+06  0.05000  1.455E-02    0   0.8877   age061_m72            0.0000     3.2950E+00     7.5976   1.3401   102.6070
 55      0.0000     0.0000E+00    0.0000E+00    1.000000E+07  0.05000  9.074E-03    0   0.8524   age070_m72            0.0000     1.9774E+00     5.3508   2.3341    92.7918
 56      0.0007     2.3100E-05    3.4316E-05    2.512000E+07  0.05000  4.250E-03    0   0.7902   age090_m72            0.0000     1.4620E+00     4.4699   2.0207    94.8500
 57      0.0000     0.0000E+00    0.0000E+00    4.000000E+07  0.05000  3.087E-03    0   0.7618   age104_m72            0.0000     1.3445E+00     4.3394   1.7901    96.6312
 58      0.0000     0.0000E+00    0.0000E+00    1.015200E+08  0.05000  1.700E-03    0   0.7096   age116_m72            0.0000     1.0779E+00     3.8977   1.5394    98.5568
 59     13.9679     2.5580E+00    3.1897E+00    2.861200E+08  0.05000  7.384E-04    0   0.6633   age125_m72            0.0000     1.3714E+00     4.7138   1.0451   101.6303
 60     26.0076     9.2089E+00    1.1031E+01    5.088000E+08  0.05000  3.819E-04    0   0.6372   age130_m72            0.0000     1.6583E+00     5.4707   0.5703   102.3917
 61      0.0000     0.0000E+00    0.0000E+00    9.047900E+08  0.05000  1.676E-04    0   0.6110   age135_m72            0.0000     2.6642E+00     6.8324  -0.0997    99.3852
 62      0.0000     0.0000E+00    0.0000E+00    1.434000E+09  0.05000  8.837E-05    0   0.5874   age139_m72            0.0000     3.0617E+00     7.1493  -0.5460    98.6189
 63      0.0000     0.0000E+00    0.0000E+00    2.500000E+09  0.05000  4.233E-05    0   0.5598   age150_m72            0.0000     4.3196E+00     8.6018  -0.8247    96.0282
 64      0.0000     0.0000E+00    0.0000E+00    6.250000E+09  0.05000  1.435E-05    0   0.5249   age166_m72            0.0000     6.5662E+00    10.3392  -1.0000    84.3931
 65      0.0000     0.0000E+00    0.0000E+00    1.300000E+10  0.05000  6.513E-06    0   0.5036   age193_m72            0.0000     1.0392E+01    12.4655  -1.0000    75.4384
 66      0.0000     0.0000E+00    0.0000E+00    1.800000E+10  0.05000  4.527E-06    0   0.4945   age213_m72            0.0000     1.3194E+01    13.9068  -1.0000    70.0818


## Synthesis Results - Average & Chains ##

# j      x_j: min, <> & last-chain-values for 1 ...  7 chains
  1      0.0000      0.1937      0.0000      0.3966      0.0743      0.1657      0.6635      0.0000      1.2801
  2      0.0000      0.1998      0.0000      1.4263      0.0000      0.0000      0.3135      0.0000      0.2044
  3      0.0000      0.1877      0.0000      0.0000      0.1028      0.0000      0.0000      0.0000      0.1907
  4      0.0000      0.2073      0.0000      0.0000      0.0000      0.0000      0.7066      0.1876      0.0153
  5      0.0000      0.4628      0.4833      0.2572      0.0000      0.0000      0.0000      0.0597      0.0000
  6      0.0000      0.3218      0.0000      0.4759      0.0000      0.0000      0.0000      0.0000      0.0000
  7      0.0000      0.2680      0.9187      0.0000      0.2640      0.0000      0.0000      0.0000      0.0000
  8      0.0000      0.3468      0.3598      0.4060      0.0000      0.0000      0.3330      0.1444      0.2651
  9      0.0000      0.4042      0.0000      0.2497      1.0921      0.0000      0.0000      0.2146      0.7646
 10      0.0000      0.4068      0.0000      0.4665      0.0168      0.0000      0.0000      0.2176      0.0000
 11      0.0000      0.4910      0.4462      0.0000      0.0000      0.9996      0.0000      0.2281      0.0935
 12      0.0000      0.4041      0.0000      0.1885      0.0000      0.0000      0.5374      0.0000      0.0000
 13     10.4225     10.8512     10.8152     10.8519     11.7693     11.2948     11.5557     10.1517     11.2682
 14      0.0002      2.7325      2.6667      2.1152      1.8576      1.8628      2.9546      2.9449      3.4540
 15      0.0000      0.0559      0.0000      0.0430      0.1555      0.0000      0.0000      0.1564      0.0000
 16      0.0000      0.0522      0.0000      0.0000      0.0000      0.0000      0.0000      0.0000      0.3837
 17      0.0000      0.0413      0.0000      0.0000      0.0000      0.0000      0.0000      0.0000      0.0000
 18      0.0791      0.9341      1.0899      1.2260      0.4172      1.0223      0.0000      0.7677      1.5538
 19      0.0000      0.2400      0.1597      0.0000      0.4992      0.0000      0.0000      0.0000      0.0000
 20      0.0000      0.1251      0.0000      0.1820      0.0000      0.0950      0.7082      0.0000      0.9277
 21      0.0000      0.3482      0.0000      0.0000      0.0000      0.0000      0.1173      0.0000      0.0000
 22      0.0000      1.5681      1.7427      1.5589      2.8144      2.0620      1.1763      1.6542      1.0521
 23      0.0000      0.2066      0.0764      0.1037      1.4898      0.0000      0.0000      0.0075      0.0000
 24      0.0000      0.5516      0.7809      0.0000      1.9313      0.0000      1.4035      0.3661      0.3990
 25      0.0033      0.6005      1.5156      0.0000      0.8463      0.7079      0.6445      0.7905      0.4269
 26      0.0015      0.6469      0.0000      0.1174      0.0000      1.2078      0.0000      0.0000      0.5453
 27      0.0000      0.5373      1.0973      1.2707      0.0000      0.0000      0.0000      0.7154      0.1373
 28      0.0000      1.3511      3.3148      0.8088      1.9139      0.0000      0.8219      1.7813      0.0472
 29      0.0000      0.5618      0.6741      0.0000      0.0000      0.0000      0.0000      0.0000      0.5495
 30      0.0000      0.0959      0.0000      0.0000      0.0000      0.1155      0.0000      0.0000      0.0000
 31      0.0000      0.0331      0.0000      0.0000      0.0000      0.0000      0.0000      0.0000      0.0000
 32      0.0000      0.0558      0.0000      0.0000      0.0000      0.0000      0.0000      0.0000      0.0000
 33      2.1393      1.0653      1.0799      1.6990      1.1076      1.3055      1.3356      1.1082      0.9707
 34      1.5466      1.3090      1.2216      1.3330      1.8074      1.4143      1.1206      1.4968      1.4400
 35      0.0000      0.1595      0.0180      0.0000      0.0000      0.0000      0.0000      0.0322      0.0000
 36      0.0000      0.1091      0.5382      0.0000      0.0000      0.0000      0.0000      0.0000      0.0000
 37      0.0000      0.1529      0.0000      0.3269      0.0000      0.0000      0.0000      0.0000      0.3976
 38     45.0444     34.5741     36.3406     37.5130     35.0127     36.7199     37.8022     38.1730     35.1147
 39      0.0013      0.3934      1.0450      0.3435      0.2950      0.5876      0.0000      0.2340      0.0000
 40      0.0000      0.3439      0.0000      0.5777      1.2993      0.3287      0.8251      1.0211      0.0000
 41      0.0000      0.5502      0.0000      0.0000      0.0000      0.0000      0.0647      0.5248      1.1517
 42      0.0000      0.3730      0.0000      0.0000      0.0000      0.0000      0.0000      0.0000      0.0000
 43      0.0044      1.2987      1.0895      1.3478      1.3738      1.0828      0.1456      0.0602      1.6900
 44      0.0000      1.5142      0.2886      5.0135      1.2641      0.0968      1.0679      0.6953      1.6484
 45      0.0025      0.6661      1.0300      0.2477      0.0000      0.6885      1.7406      1.8675      0.0000
 46      0.0000      0.3037      0.0000      0.0000      0.1353      0.2307      0.0000      0.0000      0.0000
