###################################################################
## OUTPUT of StarlightChains_v04.for    [Cid@UFSC - 01/Apr/2007] ##
###################################################################

## Some input info
2000fn.txt                               [arq_obs]
Base.CB07.vall.4m                        [arq_base]
Masks.EmLines.NEW.gm                     [arq_masks]
StCv04.C11.config                        [arq_config]
   66                                    [N_base]
    0                                    [N_YAV_components = # of components with extra extinction!]
    0                                    [i_FitPowerLaw (1/0 = Yes/No)]
-9.99                                    [alpha_PowerLaw]
CCM                                      [red_law_option]
 1.458241                                [q_norm = A(l_norm)/A(V)]

## (Re)Sampling Parameters
 3741.00                                 [l_ini (A)]
 7218.00                                 [l_fin (A)]
    1.00                                 [dl    (A)]     (OBS: dl_cushion =    50.00 A)

## Normalization info
 4020.00                                 [l_norm (A) - for base]
 4010.00                                 [llow_norm (A) - window for f_obs]
 4060.00                                 [lupp_norm (A) - window for f_obs]
1.066287E-16                             [fobs_norm (in input units)]

## S/N
 3691.00                                 [llow_SN (A) - window for S/N]
 7268.00                                 [lupp_SN (A) - window for S/N]
   5.960                                 [S/N in S/N window]
   7.765                                 [S/N in norm. window]
  10.120                                 [S/N_err in S/N window]
  13.185                                 [S/N_err in norm. window]
  1.0000                                 [fscale_chi2]

## etc...
    -2007249                             [idum_orig]
  2384                                   [NOl_eff]
  2369                                   [Nl_eff]
    15    NSIGMA                         [Ntot_cliped & clip_method]
  1412670                                [Nglobal_steps]
   7                                     [N_chains]
  24                                     [NEX0s_base = N_base in EX0s-fits]
 0   0   1        3   2.0   2.683E+01    [Clip-Bug, RC-Crash & Burn-In warning-flags, n_censored_weights, wei_nsig_threshold & wei_limit]
    13     13.034     12.538      0.496  [idt_all, wdt_TotTime, wdt_UsrTime & wdt_SysTime (sec)]

## Synthesis Results - Best model ##

 4.67090E-01                             [chi2/Nl_eff]
     4.80822                             [adev (%)]

   101.43880                             [sum-of-x (%)]
 1.23628E-16                             [Flux_tot (units of input spectrum!)]
 5.01264E-13                             [Mini_tot (???)]
 2.88534E-13                             [Mcor_tot (???)]

-178.54                                  [v0_min  (km/s)]
 213.10                                  [vd_min  (km/s)]
 0.0995                                  [AV_min  (mag)]
 0.0000                                  [YAV_min (mag)]

# j     x_j(%)      Mini_j(%)     Mcor_j(%)     age_j(yr)     Z_j      (L/M)_j    YAV?  Mstars   component_j        a/Fe...       SSP_chi2r SSP_adev(%)   SSP_AV   SSP_x(%)
  1      1.8044     4.0101E-02    6.9666E-02    1.000000E+06  0.00400  1.094E-02    0   1.0000   age020_m42            0.0000     1.0173E+00     7.2241   2.6269    80.5524
  2      1.4763     8.9580E-03    1.5561E-02    3.160000E+06  0.00400  4.007E-02    0   0.9999   age045_m42            0.0000     7.2264E-01     6.1228   1.8353    88.9925
  3      1.0585     1.0136E-02    1.6708E-02    5.010000E+06  0.00400  2.539E-02    0   0.9488   age055_m42            0.0000     8.2194E-01     6.4799   2.1825    85.5987
  4      0.0000     0.0000E+00    0.0000E+00    6.610000E+06  0.00400  2.620E-02    0   0.9220   age061_m42            0.0000     6.9807E-01     5.9584   1.7548    89.4377
  5      0.0000     0.0000E+00    0.0000E+00    1.000000E+07  0.00400  1.322E-02    0   0.8862   age070_m42            0.0000     6.8702E-01     5.6658   1.4648    91.1861
  6      0.0000     0.0000E+00    0.0000E+00    1.445000E+07  0.00400  7.883E-03    0   0.8571   age078_m42            0.0000     7.6111E-01     5.9732   1.8087    88.1801
  7      0.0000     0.0000E+00    0.0000E+00    2.512000E+07  0.00400  5.251E-03    0   0.8174   age090_m42            0.0000     6.8126E-01     5.6002   1.3282    91.9070
  8      0.0142     9.4318E-04    1.2864E-03    4.000000E+07  0.00400  3.649E-03    0   0.7851   age104_m42            0.0000     6.3002E-01     5.4032   1.0899    93.2394
  9      0.0000     0.0000E+00    0.0000E+00    5.500000E+07  0.00400  3.098E-03    0   0.7629   age110_m42            0.0000     6.1335E-01     5.3726   1.2359    93.8529
 10      0.0000     0.0000E+00    0.0000E+00    1.015200E+08  0.00400  2.228E-03    0   0.7207   age116_m42            0.0000     6.2359E-01     5.4193   1.2497    94.4927
 11      0.0000     0.0000E+00    0.0000E+00    2.861200E+08  0.00400  1.093E-03    0   0.6648   age125_m42            0.0000     6.0524E-01     5.2967   0.6530    98.4463
 12      0.0000     0.0000E+00    0.0000E+00    5.088000E+08  0.00400  6.597E-04    0   0.6365   age130_m42            0.0000     6.1413E-01     5.3882   0.6354    99.9335
 13     31.6013     3.6038E+01    3.6300E+01    1.434000E+09  0.00400  2.132E-04    0   0.5798   age139_m42            0.0000     5.1984E-01     5.1175  -0.3478   102.6640
 14      8.6906     3.5844E+01    3.3483E+01    4.250000E+09  0.00400  5.895E-05    0   0.5377   age158_m42            0.0000     6.6653E-01     5.9303  -0.7500    97.1959
 15      0.0000     0.0000E+00    0.0000E+00    7.500000E+09  0.00400  3.510E-05    0   0.5212   age171_m42            0.0000     7.8475E-01     6.3731  -0.9314    96.3910
 16      0.0000     0.0000E+00    0.0000E+00    1.300000E+10  0.00400  2.005E-05    0   0.5034   age193_m42            0.0000     9.4404E-01     6.7976  -1.0000    91.9466
 17      0.0000     0.0000E+00    0.0000E+00    1.800000E+10  0.00400  1.525E-05    0   0.4967   age213_m42            0.0000     9.4668E-01     6.7803  -1.0000    90.5468
 18      0.0000     0.0000E+00    0.0000E+00    1.000000E+06  0.00800  1.238E-02    0   1.0000   age020_m52            0.0000     1.0168E+00     7.2212   2.6223    80.7418
 19      0.0000     0.0000E+00    0.0000E+00    3.160000E+06  0.00800  3.074E-02    0   0.9966   age045_m52            0.0000     9.8595E-01     7.1142   2.5419    81.6351
 20      0.0000     0.0000E+00    0.0000E+00    5.010000E+06  0.00800  2.668E-02    0   0.9443   age055_m52            0.0000     8.5202E-01     6.5714   2.2728    84.4770
 21      0.0000     0.0000E+00    0.0000E+00    6.610000E+06  0.00800  2.136E-02    0   0.9177   age061_m52            0.0000     6.6207E-01     5.5988   0.9759    91.7794
 22      4.0619     8.1282E-02    1.2465E-01    1.000000E+07  0.00800  1.215E-02    0   0.8827   age070_m52            0.0000     7.5243E-01     5.8629   1.6481    90.6295
 23      0.3901     1.0882E-02    1.6168E-02    1.445000E+07  0.00800  8.717E-03    0   0.8552   age078_m52            0.0000     7.2586E-01     5.8132   1.7672    89.6892
 24      0.0000     0.0000E+00    0.0000E+00    2.512000E+07  0.00800  5.592E-03    0   0.8162   age090_m52            0.0000     6.6986E-01     5.5072   1.3844    93.3024
 25      1.5178     9.4720E-02    1.2903E-01    4.000000E+07  0.00800  3.896E-03    0   0.7841   age104_m52            0.0000     6.2134E-01     5.3322   1.2839    94.7565
 26      0.0000     0.0000E+00    0.0000E+00    1.015200E+08  0.00800  2.148E-03    0   0.7226   age116_m52            0.0000     5.7975E-01     5.2553   1.2136    95.2896
 27      0.0000     0.0000E+00    0.0000E+00    2.861200E+08  0.00800  9.925E-04    0   0.6683   age125_m52            0.0000     6.0892E-01     5.3247   0.6968   100.9915
 28      0.0000     0.0000E+00    0.0000E+00    9.047900E+08  0.00800  3.141E-04    0   0.6138   age135_m52            0.0000     6.3328E-01     5.6735  -0.1279   106.9618
 29      0.0000     0.0000E+00    0.0000E+00    1.434000E+09  0.00800  1.719E-04    0   0.5853   age139_m52            0.0000     6.2383E-01     5.7657  -0.6862   103.6560
 30      0.0009     2.6556E-03    2.5836E-03    2.500000E+09  0.00800  7.872E-05    0   0.5600   age150_m52            0.0000     8.1032E-01     6.5617  -0.9299   100.0727
 31      0.0000     0.0000E+00    0.0000E+00    4.250000E+09  0.00800  4.336E-05    0   0.5426   age158_m52            0.0000     8.5410E-01     6.6586  -0.9378    98.8026
 32      0.0000     0.0000E+00    0.0000E+00    6.250000E+09  0.00800  3.159E-05    0   0.5319   age166_m52            0.0000     1.1160E+00     7.2995  -1.0000    93.0049
 33      0.0000     0.0000E+00    0.0000E+00    1.300000E+10  0.00800  1.361E-05    0   0.5073   age193_m52            0.0000     2.6409E+00    10.8010  -1.0000    74.2215
 34      0.1926     4.7359E+00    4.1055E+00    1.800000E+10  0.00800  9.886E-06    0   0.4990   age213_m52            0.0000     3.2803E+00    12.0000  -1.0000    70.1976
 35      0.0071     1.1180E-04    1.9423E-04    1.000000E+06  0.02000  1.544E-02    0   1.0000   age020_m62            0.0000     1.0240E+00     7.2539   2.6201    80.8615
 36      0.0000     0.0000E+00    0.0000E+00    3.160000E+06  0.02000  3.762E-02    0   0.9858   age045_m62            0.0000     1.0135E+00     7.2104   2.5579    81.6361
 37      0.0000     0.0000E+00    0.0000E+00    5.010000E+06  0.02000  3.296E-02    0   0.9342   age055_m62            0.0000     7.7783E-01     6.3331   2.1308    87.2257
 38     14.8534     3.1294E-01    4.8175E-01    8.710000E+06  0.02000  1.154E-02    0   0.8861   age067_m62            0.0000     1.3614E+00     8.1659   1.1016    91.8557
 39      0.0173     5.4967E-04    8.0901E-04    1.445000E+07  0.02000  7.663E-03    0   0.8472   age078_m62            0.0000     8.6085E-01     6.1847   1.2858    92.7277
 40      0.0000     0.0000E+00    0.0000E+00    2.512000E+07  0.02000  4.532E-03    0   0.8099   age090_m62            0.0000     8.8734E-01     6.2562   1.2703    92.7612
 41      0.0000     0.0000E+00    0.0000E+00    5.500000E+07  0.02000  2.733E-03    0   0.7595   age110_m62            0.0000     6.3813E-01     5.3793   1.2734    93.7426
 42      0.0132     2.3372E-03    2.8362E-03    1.609000E+08  0.02000  1.369E-03    0   0.6985   age120_m62            0.0000     6.1591E-01     5.2753   1.0815    98.1432
 43      0.0000     0.0000E+00    0.0000E+00    2.861200E+08  0.02000  9.013E-04    0   0.6714   age125_m62            0.0000     6.6234E-01     5.4209   0.8079   102.2885
 44      0.0003     1.3903E-04    1.5577E-04    5.088000E+08  0.02000  5.028E-04    0   0.6449   age130_m62            0.0000     7.2265E-01     5.8935   0.4107   106.4561
 45      0.0000     0.0000E+00    0.0000E+00    9.047900E+08  0.02000  2.428E-04    0   0.6179   age135_m62            0.0000     7.0058E-01     6.0397  -0.1660   105.5342
 46      0.0494     9.5091E-02    9.7600E-02    1.434000E+09  0.02000  1.263E-04    0   0.5908   age139_m62            0.0000     7.7759E-01     6.3592  -0.5915   103.1156
 47      0.0000     0.0000E+00    0.0000E+00    2.500000E+09  0.02000  5.985E-05    0   0.5673   age150_m62            0.0000     1.0088E+00     7.2536  -0.9395   101.1023
 48      0.0000     0.0000E+00    0.0000E+00    4.250000E+09  0.02000  3.271E-05    0   0.5468   age158_m62            0.0000     1.5387E+00     8.4491  -1.0000    90.0297
 49      0.0000     0.0000E+00    0.0000E+00    1.000000E+10  0.02000  1.360E-05    0   0.5167   age181_m62            0.0000     2.9439E+00    11.1954  -1.0000    76.2217
 50      0.0000     0.0000E+00    0.0000E+00    1.800000E+10  0.02000  7.124E-06    0   0.5013   age213_m62            0.0000     4.0956E+00    13.2082  -1.0000    68.3621
 51      0.0000     0.0000E+00    0.0000E+00    1.000000E+06  0.05000  2.592E-02    0   0.9998   age020_m72            0.0000     1.0527E+00     7.3541   2.6173    80.6335
 52      0.0000     0.0000E+00    0.0000E+00    3.160000E+06  0.05000  4.845E-02    0   0.9577   age045_m72            0.0000     9.1926E-01     6.8939   2.4227    83.5328
 53      0.0000     0.0000E+00    0.0000E+00    5.010000E+06  0.05000  3.072E-02    0   0.9147   age055_m72            0.0000     9.2032E-01     6.4972   1.8974    88.4753
 54      0.0000     0.0000E+00    0.0000E+00    6.610000E+06  0.05000  1.455E-02    0   0.8877   age061_m72            0.0000     2.3786E+00    10.6285   1.1323    92.8312
 55      0.0000     0.0000E+00    0.0000E+00    1.000000E+07  0.05000  9.074E-03    0   0.8524   age070_m72            0.0000     1.1698E+00     7.2151   2.0732    88.5568
 56      0.0000     0.0000E+00    0.0000E+00    2.512000E+07  0.05000  4.250E-03    0   0.7902   age090_m72            0.0000     8.9151E-01     6.3079   1.7458    91.4153
 57      0.0000     0.0000E+00    0.0000E+00    4.000000E+07  0.05000  3.087E-03    0   0.7618   age104_m72            0.0000     8.7418E-01     6.1973   1.5010    93.6145
 58      0.0000     0.0000E+00    0.0000E+00    1.015200E+08  0.05000  1.700E-03    0   0.7096   age116_m72            0.0000     6.3644E-01     5.3079   1.2232    97.5657
 59      0.0000     0.0000E+00    0.0000E+00    2.861200E+08  0.05000  7.384E-04    0   0.6633   age125_m72            0.0000     6.9146E-01     5.6249   0.6628   104.5669
 60     35.6895     2.2721E+01    2.5152E+01    5.088000E+08  0.05000  3.819E-04    0   0.6372   age130_m72            0.0000     7.0132E-01     5.9796   0.1676   106.7889
 61      0.0000     0.0000E+00    0.0000E+00    9.047900E+08  0.05000  1.676E-04    0   0.6110   age135_m72            0.0000     9.5740E-01     7.1287  -0.4968   103.7559
 62      0.0000     0.0000E+00    0.0000E+00    1.434000E+09  0.05000  8.837E-05    0   0.5874   age139_m72            0.0000     1.0807E+00     7.4648  -0.9478   102.9942
 63      0.0000     0.0000E+00    0.0000E+00    2.500000E+09  0.05000  4.233E-05    0   0.5598   age150_m72            0.0000     1.6683E+00     8.7980  -1.0000    90.8540
 64      0.0000     0.0000E+00    0.0000E+00    6.250000E+09  0.05000  1.435E-05    0   0.5249   age166_m72            0.0000     3.4045E+00    12.1293  -1.0000    72.4471
 65      0.0000     0.0000E+00    0.0000E+00    1.300000E+10  0.05000  6.513E-06    0   0.5036   age193_m72            0.0000     5.0140E+00    14.8595  -1.0000    63.7829
 66      0.0000     0.0000E+00    0.0000E+00    1.800000E+10  0.05000  4.527E-06    0   0.4945   age213_m72            0.0000     6.0093E+00    16.5009  -1.0000    58.7551


## Synthesis Results - Average & Chains ##

# j      x_j: min, <> & last-chain-values for 1 ...  7 chains
  1      1.8044      0.4071      1.4766      0.0000      0.2805      0.0000      0.4272      0.2046      0.0000
  2      1.4763      0.5328      0.4095      2.7000      0.4372      0.0000      0.7705      0.0000      0.3512
  3      1.0585      1.3784      1.4372      0.0000      1.8774      0.5907      4.1095      1.8548      1.5090
  4      0.0000      0.5148      0.0000      0.1144      0.1214      1.5959      0.0000      0.0000      1.2790
  5      0.0000      0.3603      0.4932      0.0478      1.6568      2.0648      0.3401      0.0000      0.0000
  6      0.0000      0.3776      0.0000      0.0000      0.8616      0.2067      0.0000      0.0000      1.1328
  7      0.0000      0.9300      1.0134      1.0202      0.0000      0.0000      1.2548      0.0000      0.8217
  8      0.0142      1.2355      0.6211      5.5596      2.3509      0.0000      0.6904      0.0000      0.0000
  9      0.0000      0.5048      0.6894      0.2424      0.0000      0.0000      0.0000      0.0000      0.0000
 10      0.0000      1.2242      0.1740      0.1873      0.2489      0.6807      1.9746      0.0000      0.8644
 11      0.0000      0.7842      2.0739      0.0000      0.0000      0.0000      0.0000      1.5975      0.0000
 12      0.0000      1.0382      0.0997      1.3433      0.8340      0.0000      0.5117      0.6060      1.3069
 13     31.6013     12.0215     14.5641     13.2934     13.5302     15.0818     12.0233     12.0496     13.6775
 14      8.6906      3.8944      4.2467      4.0568      4.9948      4.4562      5.6748      6.2893      3.5496
 15      0.0000      0.2567      0.3761      0.0000      0.0000      0.0000      0.0597      1.8287      0.7431
 16      0.0000      0.6637      0.0000      0.8510      0.0000      0.9642      0.0000      0.0000      0.7509
 17      0.0000      0.2292      1.4426      0.0000      0.3597      0.0000      0.0000      1.2368      0.0505
 18      0.0000      0.5984      0.0000      2.2262      0.7845      0.3415      0.0000      0.0000      1.9546
 19      0.0000      0.2390      0.9949      0.0000      0.0000      0.0000      0.0000      0.0000      0.0000
 20      0.0000      0.3116      0.0000      0.0000      0.0000      0.0000      0.0000      2.4679      0.0000
 21      0.0000      1.0456      0.0000      0.5069      0.0000      1.2469      0.0000      0.0000      1.9594
 22      4.0619      4.1118      3.8659      3.7063      3.1270      5.6412      4.3231      5.5912      5.0992
 23      0.3901      0.6250      0.0000      0.0000      0.0000      0.0000      1.1966      0.0000      0.0000
 24      0.0000      0.5192      0.0000      0.2762      0.1643      0.0000      0.1745      1.5225      0.0000
 25      1.5178      1.6082      3.1710      0.0000      3.5223      1.0254      1.5163      0.0000      1.5170
 26      0.0000      1.2721      1.6888      0.0000      1.0222      3.2663      0.2382      3.6517      1.5025
 27      0.0000      0.7890      1.1009      0.3289      2.5986      0.0000      0.0000      0.0000      0.6666
 28      0.0000      4.3743      2.6048      2.1869      1.4109      2.1684      1.9329      6.1511      1.1108
 29      0.0000      0.7259      0.2000      0.0000      0.0000      0.0000      1.8506      0.0000      0.0000
 30      0.0009      0.1641      0.0000      0.0000      0.0000      0.0000      0.3937      0.0000      0.0000
 31      0.0000      0.1874      0.0000      0.0000      0.0000      0.0000      0.0000      0.0000      0.0000
 32      0.0000      0.0573      0.0000      0.0000      0.0000      0.0000      0.0000      0.0000      0.0000
 33      0.0000      0.0533      0.0000      0.0000      0.0000      0.0000      0.0000      0.0000      0.0000
 34      0.1926      0.3112      0.6727      0.5082      0.0000      0.5585      0.7697      0.0000      0.5497
 35      0.0071      0.1900      1.0284      0.0000      0.0000      0.0000      0.8900      0.0000      0.0000
 36      0.0000      0.4092      0.3761      0.7990      0.0000      0.0000      0.0000      0.0000      0.8817
 37      0.0000      0.2441      0.9287      0.0000      0.0000      0.0000      0.0000      0.6064      0.0000
 38     14.8534      7.0633      6.4497      7.9667      9.9166      7.5467     12.0094      6.1757      8.0069
 39      0.0173      1.7662      3.4953      0.0000      1.2128      4.1959      1.1177      0.7560      2.2393
 40      0.0000      0.4344      0.0000      1.2604      0.0000      0.0000      0.0000      0.0000      0.0000
 41      0.0000      0.9195      1.7548      2.1314      0.2441      0.0000      0.0000      3.5630      1.6909
 42      0.0132      0.7787      0.0886      0.0000      1.2255      0.0000      0.8554      3.2577      1.6921
 43      0.0000      1.9604      2.2418      3.9669      1.3111      0.0000      0.0000      3.9089      0.0000
 44      0.0003      2.8195      1.6580      2.1276      2.0956      6.1410      6.1183      2.8730      2.5409
 45      0.0000      1.9150      3.3808      0.9078      2.6062      2.5436      0.0000      0.2544      2.1032
 46      0.0494      3.8672      4.2045      7.3235      5.0482      3.7964      2.9952      2.7306      5.7757
