###################################################################
## OUTPUT of StarlightChains_v04.for    [Cid@UFSC - 01/Apr/2007] ##
###################################################################

## Some input info
2000de.txt                               [arq_obs]
Base.CB07.vall.4m                        [arq_base]
Masks.EmLines.NEW.gm                     [arq_masks]
StCv04.C11.config                        [arq_config]
   66                                    [N_base]
    0                                    [N_YAV_components = # of components with extra extinction!]
    0                                    [i_FitPowerLaw (1/0 = Yes/No)]
-9.99                                    [alpha_PowerLaw]
CCM                                      [red_law_option]
 1.458241                                [q_norm = A(l_norm)/A(V)]

## (Re)Sampling Parameters
 3741.00                                 [l_ini (A)]
 7218.00                                 [l_fin (A)]
    1.00                                 [dl    (A)]     (OBS: dl_cushion =    50.00 A)

## Normalization info
 4020.00                                 [l_norm (A) - for base]
 4010.00                                 [llow_norm (A) - window for f_obs]
 4060.00                                 [lupp_norm (A) - window for f_obs]
1.841365E-15                             [fobs_norm (in input units)]

## S/N
 3691.00                                 [llow_SN (A) - window for S/N]
 7268.00                                 [lupp_SN (A) - window for S/N]
   4.051                                 [S/N in S/N window]
   6.255                                 [S/N in norm. window]
  13.835                                 [S/N_err in S/N window]
  21.362                                 [S/N_err in norm. window]
  1.0000                                 [fscale_chi2]

## etc...
    -2007248                             [idum_orig]
  2383                                   [NOl_eff]
  2380                                   [Nl_eff]
     3    NSIGMA                         [Ntot_cliped & clip_method]
  1407140                                [Nglobal_steps]
   7                                     [N_chains]
  20                                     [NEX0s_base = N_base in EX0s-fits]
 0   0   1        1   2.0   6.307E+01    [Clip-Bug, RC-Crash & Burn-In warning-flags, n_censored_weights, wei_nsig_threshold & wei_limit]
    16     16.013     15.518      0.495  [idt_all, wdt_TotTime, wdt_UsrTime & wdt_SysTime (sec)]

## Synthesis Results - Best model ##

 2.99379E-01                             [chi2/Nl_eff]
     2.67564                             [adev (%)]

    99.48607                             [sum-of-x (%)]
 2.57450E-15                             [Flux_tot (units of input spectrum!)]
 5.14764E-12                             [Mini_tot (???)]
 2.90016E-12                             [Mcor_tot (???)]

 -50.75                                  [v0_min  (km/s)]
 313.48                                  [vd_min  (km/s)]
 0.2534                                  [AV_min  (mag)]
 0.0000                                  [YAV_min (mag)]

# j     x_j(%)      Mini_j(%)     Mcor_j(%)     age_j(yr)     Z_j      (L/M)_j    YAV?  Mstars   component_j        a/Fe...       SSP_chi2r SSP_adev(%)   SSP_AV   SSP_x(%)
  1      0.0000     0.0000E+00    0.0000E+00    1.000000E+06  0.00400  1.094E-02    0   1.0000   age020_m42            0.0000     1.1722E+00     6.2915   2.1153    80.1471
  2      0.0000     0.0000E+00    0.0000E+00    3.160000E+06  0.00400  4.007E-02    0   0.9999   age045_m42            0.0000     8.9058E-01     5.1779   1.3488    87.4797
  3      0.0000     0.0000E+00    0.0000E+00    5.010000E+06  0.00400  2.539E-02    0   0.9488   age055_m42            0.0000     9.5383E-01     5.4768   1.6814    84.7552
  4      0.0000     0.0000E+00    0.0000E+00    6.610000E+06  0.00400  2.620E-02    0   0.9220   age061_m42            0.0000     8.0784E-01     4.9076   1.2638    88.1403
  5      0.0000     0.0000E+00    0.0000E+00    1.000000E+07  0.00400  1.322E-02    0   0.8862   age070_m42            0.0000     4.5362E-01     3.5622   0.9304    91.9432
  6      0.0072     4.5766E-04    6.9624E-04    1.445000E+07  0.00400  7.883E-03    0   0.8571   age078_m42            0.0000     5.4407E-01     4.0085   1.2743    88.9161
  7      0.5746     5.5007E-02    7.9806E-02    2.512000E+07  0.00400  5.251E-03    0   0.8174   age090_m42            0.0000     4.0619E-01     3.3164   0.7873    92.9711
  8      0.8679     1.1957E-01    1.6662E-01    4.000000E+07  0.00400  3.649E-03    0   0.7851   age104_m42            0.0000     3.9696E-01     3.2199   0.5581    93.8747
  9      0.0000     0.0000E+00    0.0000E+00    5.500000E+07  0.00400  3.098E-03    0   0.7629   age110_m42            0.0000     5.0897E-01     3.6990   0.7272    93.3782
 10      0.0000     0.0000E+00    0.0000E+00    1.015200E+08  0.00400  2.228E-03    0   0.7207   age116_m42            0.0000     6.2292E-01     4.0981   0.7568    93.2538
 11      0.0000     0.0000E+00    0.0000E+00    2.861200E+08  0.00400  1.093E-03    0   0.6648   age125_m42            0.0000     5.0025E-01     3.5400   0.1546    97.6285
 12      0.0000     0.0000E+00    0.0000E+00    5.088000E+08  0.00400  6.597E-04    0   0.6365   age130_m42            0.0000     6.9214E-01     4.1395   0.1637    97.6948
 13      0.0017     3.9216E-03    4.0358E-03    1.434000E+09  0.00400  2.132E-04    0   0.5798   age139_m42            0.0000     7.9223E-01     4.5070  -0.7991    99.1559
 14      0.0000     0.0000E+00    0.0000E+00    4.250000E+09  0.00400  5.895E-05    0   0.5377   age158_m42            0.0000     1.3483E+00     6.6304  -1.0000    85.0868
 15      0.6203     8.8845E+00    8.2191E+00    7.500000E+09  0.00400  3.510E-05    0   0.5212   age171_m42            0.0000     2.0975E+00     8.3511  -1.0000    77.1674
 16      0.4943     1.2394E+01    1.1074E+01    1.300000E+10  0.00400  2.005E-05    0   0.5034   age193_m42            0.0000     3.0011E+00    10.0929  -1.0000    70.7801
 17      0.0000     0.0000E+00    0.0000E+00    1.800000E+10  0.00400  1.525E-05    0   0.4967   age213_m42            0.0000     3.1316E+00    10.3979  -1.0000    69.6133
 18      0.2831     1.1498E-02    2.0408E-02    1.000000E+06  0.00800  1.238E-02    0   1.0000   age020_m52            0.0000     1.1746E+00     6.2975   2.1116    80.3022
 19      0.0000     0.0000E+00    0.0000E+00    3.160000E+06  0.00800  3.074E-02    0   0.9966   age045_m52            0.0000     1.1640E+00     6.2354   2.0326    81.1163
 20      0.0000     0.0000E+00    0.0000E+00    5.010000E+06  0.00800  2.668E-02    0   0.9443   age055_m52            0.0000     9.7230E-01     5.5536   1.7663    83.8592
 21      0.0000     0.0000E+00    0.0000E+00    6.610000E+06  0.00800  2.136E-02    0   0.9177   age061_m52            0.0000     4.9572E-01     3.7638   0.4438    92.3419
 22      0.2559     1.0588E-02    1.6589E-02    1.000000E+07  0.00800  1.215E-02    0   0.8827   age070_m52            0.0000     4.2616E-01     3.5051   1.1018    92.0090
 23      0.0000     0.0000E+00    0.0000E+00    1.445000E+07  0.00800  8.717E-03    0   0.8552   age078_m52            0.0000     5.0137E-01     3.8110   1.2328    90.4197
 24      0.0349     3.1403E-03    4.5494E-03    2.512000E+07  0.00800  5.592E-03    0   0.8162   age090_m52            0.0000     3.7502E-01     3.1580   0.8449    94.3529
 25      4.0677     5.2487E-01    7.3049E-01    4.000000E+07  0.00800  3.896E-03    0   0.7841   age104_m52            0.0000     3.7941E-01     3.1487   0.7585    95.1562
 26      3.4249     8.0157E-01    1.0281E+00    1.015200E+08  0.00800  2.148E-03    0   0.7226   age116_m52            0.0000     5.0207E-01     3.6328   0.7125    94.4774
 27      0.0017     8.5049E-04    1.0089E-03    2.861200E+08  0.00800  9.925E-04    0   0.6683   age125_m52            0.0000     6.7880E-01     4.0659   0.2271    98.6474
 28      0.0000     0.0000E+00    0.0000E+00    9.047900E+08  0.00800  3.141E-04    0   0.6138   age135_m52            0.0000     9.9709E-01     5.1574  -0.5472   101.7927
 29      0.0000     0.0000E+00    0.0000E+00    1.434000E+09  0.00800  1.719E-04    0   0.5853   age139_m52            0.0000     1.1134E+00     5.7895  -1.0000    93.7858
 30      0.0000     0.0000E+00    0.0000E+00    2.500000E+09  0.00800  7.872E-05    0   0.5600   age150_m52            0.0000     2.1131E+00     8.2919  -1.0000    80.1884
 31      0.0000     0.0000E+00    0.0000E+00    4.250000E+09  0.00800  4.336E-05    0   0.5426   age158_m52            0.0000     2.1825E+00     8.4177  -1.0000    78.8530
 32      0.0000     0.0000E+00    0.0000E+00    6.250000E+09  0.00800  3.159E-05    0   0.5319   age166_m52            0.0000     3.3711E+00    10.5880  -1.0000    71.3979
 33      0.0000     0.0000E+00    0.0000E+00    1.300000E+10  0.00800  1.361E-05    0   0.5073   age193_m52            0.0000     6.9144E+00    16.3515  -1.0000    55.8954
 34      0.8467     4.3057E+01    3.8136E+01    1.800000E+10  0.00800  9.886E-06    0   0.4990   age213_m52            0.0000     7.8832E+00    17.5068  -1.0000    52.7295
 35      0.0000     0.0000E+00    0.0000E+00    1.000000E+06  0.02000  1.544E-02    0   1.0000   age020_m62            0.0000     1.1825E+00     6.3276   2.1080    80.4753
 36      0.0000     0.0000E+00    0.0000E+00    3.160000E+06  0.02000  3.762E-02    0   0.9858   age045_m62            0.0000     1.1856E+00     6.3194   2.0473    81.1985
 37      0.0000     0.0000E+00    0.0000E+00    5.010000E+06  0.02000  3.296E-02    0   0.9342   age055_m62            0.0000     9.5476E-01     5.4556   1.6385    85.9804
 38     47.8394     2.0840E+00    3.2777E+00    8.710000E+06  0.02000  1.154E-02    0   0.8861   age067_m62            0.0000     7.9795E-01     4.6117   0.4829    97.0648
 39      0.0000     0.0000E+00    0.0000E+00    1.445000E+07  0.02000  7.663E-03    0   0.8472   age078_m62            0.0000     4.1180E-01     3.3180   0.7204    95.2256
 40      0.0000     0.0000E+00    0.0000E+00    2.512000E+07  0.02000  4.532E-03    0   0.8099   age090_m62            0.0000     4.2416E-01     3.3289   0.7024    95.4379
 41      0.0005     9.7404E-05    1.3131E-04    5.500000E+07  0.02000  2.733E-03    0   0.7595   age110_m62            0.0000     3.9488E-01     3.2295   0.7441    94.3143
 42      0.0000     0.0000E+00    0.0000E+00    1.609000E+08  0.02000  1.369E-03    0   0.6985   age120_m62            0.0000     5.7774E-01     3.8166   0.5888    96.9024
 43      3.5156     1.9609E+00    2.3368E+00    2.861200E+08  0.02000  9.013E-04    0   0.6714   age125_m62            0.0000     7.7291E-01     4.2895   0.3381    99.7761
 44     12.9035     1.2901E+01    1.4768E+01    5.088000E+08  0.02000  5.028E-04    0   0.6449   age130_m62            0.0000     1.1224E+00     5.3959  -0.0092   101.2195
 45      0.0000     0.0000E+00    0.0000E+00    9.047900E+08  0.02000  2.428E-04    0   0.6179   age135_m62            0.0000     1.2051E+00     5.8697  -0.5707    99.5544
 46      0.0000     0.0000E+00    0.0000E+00    1.434000E+09  0.02000  1.263E-04    0   0.5908   age139_m62            0.0000     1.3342E+00     6.2837  -0.9962    97.2206
 47      0.0000     0.0000E+00    0.0000E+00    2.500000E+09  0.02000  5.985E-05    0   0.5673   age150_m62            0.0000     2.4026E+00     8.8073  -1.0000    80.5552
 48      0.0000     0.0000E+00    0.0000E+00    4.250000E+09  0.02000  3.271E-05    0   0.5468   age158_m62            0.0000     4.2418E+00    11.9203  -1.0000    68.7221
 49      0.0000     0.0000E+00    0.0000E+00    1.000000E+10  0.02000  1.360E-05    0   0.5167   age181_m62            0.0000     6.9532E+00    15.9295  -1.0000    57.4495
 50      0.0000     0.0000E+00    0.0000E+00    1.800000E+10  0.02000  7.124E-06    0   0.5013   age213_m62            0.0000     8.7752E+00    18.2540  -1.0000    51.2833
 51      0.0000     0.0000E+00    0.0000E+00    1.000000E+06  0.05000  2.592E-02    0   0.9998   age020_m72            0.0000     1.2005E+00     6.4040   2.1012    80.4023
 52      0.0000     0.0000E+00    0.0000E+00    3.160000E+06  0.05000  4.845E-02    0   0.9577   age045_m72            0.0000     1.1299E+00     6.0617   1.9225    82.6484
 53      0.0000     0.0000E+00    0.0000E+00    5.010000E+06  0.05000  3.072E-02    0   0.9147   age055_m72            0.0000     6.0445E-01     4.3234   1.3593    89.7271
 54      0.0000     0.0000E+00    0.0000E+00    6.610000E+06  0.05000  1.455E-02    0   0.8877   age061_m72            0.0000     2.1651E+00     6.8955   0.5124    99.3066
 55      0.0000     0.0000E+00    0.0000E+00    1.000000E+07  0.05000  9.074E-03    0   0.8524   age070_m72            0.0000     8.8332E-01     5.0541   1.5557    89.4334
 56      0.0000     0.0000E+00    0.0000E+00    2.512000E+07  0.05000  4.250E-03    0   0.7902   age090_m72            0.0000     5.8651E-01     4.0148   1.2195    92.3459
 57      0.0000     0.0000E+00    0.0000E+00    4.000000E+07  0.05000  3.087E-03    0   0.7618   age104_m72            0.0000     5.7967E-01     3.8262   0.9702    94.7721
 58      0.0011     3.2995E-04    4.1558E-04    1.015200E+08  0.05000  1.700E-03    0   0.7096   age116_m72            0.0000     4.9591E-01     3.5283   0.7176    97.0811
 59     22.1394     1.5073E+01    1.7746E+01    2.861200E+08  0.05000  7.384E-04    0   0.6633   age125_m72            0.0000     9.3919E-01     4.7860   0.2166   100.7386
 60      1.6056     2.1135E+00    2.3904E+00    5.088000E+08  0.05000  3.819E-04    0   0.6372   age130_m72            0.0000     1.2172E+00     5.8618  -0.2410   100.8198
 61      0.0000     0.0000E+00    0.0000E+00    9.047900E+08  0.05000  1.676E-04    0   0.6110   age135_m72            0.0000     1.7551E+00     7.4272  -0.8758    96.4250
 62      0.0000     0.0000E+00    0.0000E+00    1.434000E+09  0.05000  8.837E-05    0   0.5874   age139_m72            0.0000     2.5375E+00     9.0271  -1.0000    81.7180
 63      0.0000     0.0000E+00    0.0000E+00    2.500000E+09  0.05000  4.233E-05    0   0.5598   age150_m72            0.0000     4.3721E+00    12.0351  -1.0000    69.3561
 64      0.0000     0.0000E+00    0.0000E+00    6.250000E+09  0.05000  1.435E-05    0   0.5249   age166_m72            0.0000     7.7790E+00    17.0656  -1.0000    54.4633
 65      0.0000     0.0000E+00    0.0000E+00    1.300000E+10  0.05000  6.513E-06    0   0.5036   age193_m72            0.0000     1.0282E+01    20.0978  -1.0000    47.7019
 66      0.0000     0.0000E+00    0.0000E+00    1.800000E+10  0.05000  4.527E-06    0   0.4945   age213_m72            0.0000     1.1767E+01    21.7444  -1.0000    43.8621


## Synthesis Results - Average & Chains ##

# j      x_j: min, <> & last-chain-values for 1 ...  7 chains
  1      0.0000      0.2284      0.0000      0.0000      0.3621      0.0000      0.0000      0.0000      0.0000
  2      0.0000      0.2423      0.0000      1.4131      0.0000      0.0000      0.0000      0.8028      0.0000
  3      0.0000      0.1345      0.0000      0.0000      0.0000      0.0000      0.0000      0.0000      0.0000
  4      0.0000      0.2730      0.0000      0.0000      1.2583      0.0996      0.0000      0.0000      0.0000
  5      0.0000      0.3799      0.0000      0.0000      0.0000      0.3808      0.0000      1.3221      0.0000
  6      0.0072      0.4065      2.9572      0.2986      0.0000      0.0000      1.0897      0.2163      0.0000
  7      0.5746      1.1086      1.8345      2.4858      1.4053      2.3996      2.0474      0.0000      2.3438
  8      0.8679      1.8983      2.0022      4.9297      3.3838      0.0000      4.1706      0.0000      1.2293
  9      0.0000      1.0256      0.0000      0.6065      0.0000      0.4444      2.0080      0.0000      3.3511
 10      0.0000      0.6048      0.0000      0.0000      0.0000      2.3609      0.0000      0.5617      0.2077
 11      0.0000      1.2015      0.0000      0.3707      0.7791      3.3315      1.1681      0.2189      1.1816
 12      0.0000      0.8675      0.0000      0.4815      0.2480      0.0000      1.2004      0.8805      0.0000
 13      0.0017      0.3725      2.5649      0.0000      0.0000      0.4137      0.0000      0.1852      0.0000
 14      0.0000      0.0597      0.0000      0.0000      0.0000      0.0000      0.0000      0.0000      0.0995
 15      0.6203      0.0331      0.5501      0.0000      0.0000      0.0000      0.0000      0.0000      0.0000
 16      0.4943      0.0575      0.5483      0.0000      0.0000      0.0000      0.0000      0.0000      0.0000
 17      0.0000      0.0068      0.0000      0.0000      0.0000      0.0000      0.0000      0.0000      0.0000
 18      0.2831      0.1123      1.3703      0.0000      0.0000      1.5182      0.1085      0.0000      0.0000
 19      0.0000      0.1550      0.0000      0.7540      0.0000      0.0000      0.7754      0.0000      0.0000
 20      0.0000      0.1184      0.0000      0.0000      0.0000      0.0000      0.0000      0.4946      0.0000
 21      0.0000      1.1026      0.0000      0.0717      0.7354      0.0000      0.0000      0.5472      0.0000
 22      0.2559      0.7342      2.2045      1.0003      0.5242      0.0000      0.0000      0.7147      0.0000
 23      0.0000      0.3287      0.3329      0.0000      0.0000      0.0000      0.0000      0.0000      0.0000
 24      0.0349      0.8474      1.2291      0.0000      1.2616      0.0000      1.3692      0.8745      0.0000
 25      4.0677      1.7621      2.4337      2.6156      1.5226      2.2168      0.7729      0.0000      1.6197
 26      3.4249      2.0723      4.5818      0.0000      2.6400      3.1857      2.9164      4.2554      3.7808
 27      0.0017      1.6304      1.2016      2.1176      2.7624      0.0000      0.1254      1.1577      0.0000
 28      0.0000      0.1943      0.3784      0.0000      0.0000      0.0000      0.0000      0.0000      0.1228
 29      0.0000      0.0654      0.0000      0.0000      0.6208      0.0000      0.0000      0.0000      0.0000
 30      0.0000      0.0333      0.0000      0.0000      0.0000      0.0000      0.0000      0.0000      0.0000
 31      0.0000      0.0464      0.0000      0.0000      0.1746      0.0000      0.0000      0.0000      0.0000
 32      0.0000      0.0148      0.0000      0.0000      0.0000      0.0000      0.0000      0.0000      0.0000
 33      0.0000      0.0038      0.0000      0.0000      0.0000      0.0000      0.0000      0.0000      0.0000
 34      0.8467      0.0830      0.7594      0.2228      0.0000      0.0000      0.2663      0.0000      0.0312
 35      0.0000      0.2267      0.0000      0.0000      0.8446      0.1618      0.0000      0.0000      0.0000
 36      0.0000      0.1114      0.0000      0.0000      0.0000      0.0000      0.0000      0.0000      0.0000
 37      0.0000      0.3128      0.0000      0.0000      0.0000      0.0000      0.0000      1.0413      0.3976
 38     47.8394     39.9939     35.0537     44.4732     44.3877     44.0427     43.0101     45.0211     43.9399
 39      0.0000      0.8729      0.0000      0.0000      0.3885      0.3046      0.7647      0.0000      0.0000
 40      0.0000      1.1815      0.0000      0.0000      0.0000      1.0938      0.0000      0.9179      1.4078
 41      0.0005      1.3222      5.7078      0.0000      0.0000      0.0000      0.3964      1.1612      1.2107
 42      0.0000      1.8109      0.0000      0.0000      1.1570      1.1870      2.6641      1.5554      0.0895
 43      3.5156      9.5294     11.8559     10.9938      7.4897     11.0092     10.2951     10.9064      8.9296
 44     12.9035      6.9571      4.3354      5.3601      6.1064      8.9389      9.4220      8.8949      6.1167
 45      0.0000      0.3372      0.0000      0.0000      0.0000      0.0000      0.0000      0.0000      0.0000
 46      0.0000      0.1741      0.0000      0.0000      0.3949      0.6185      0.0000      0.0155      0.7249
