###################################################################
## OUTPUT of StarlightChains_v04.for    [Cid@UFSC - 01/Apr/2007] ##
###################################################################

## Some input info
2001B.txt                                [arq_obs]
Base.CB07.vall.4m                        [arq_base]
Masks.EmLines.NEW.gm                     [arq_masks]
StCv04.C11.config                        [arq_config]
   66                                    [N_base]
    0                                    [N_YAV_components = # of components with extra extinction!]
    0                                    [i_FitPowerLaw (1/0 = Yes/No)]
-9.99                                    [alpha_PowerLaw]
CCM                                      [red_law_option]
 1.458241                                [q_norm = A(l_norm)/A(V)]

## (Re)Sampling Parameters
 3741.00                                 [l_ini (A)]
 7218.00                                 [l_fin (A)]
    1.00                                 [dl    (A)]     (OBS: dl_cushion =    50.00 A)

## Normalization info
 4020.00                                 [l_norm (A) - for base]
 4010.00                                 [llow_norm (A) - window for f_obs]
 4060.00                                 [lupp_norm (A) - window for f_obs]
5.074487E-15                             [fobs_norm (in input units)]

## S/N
 3691.00                                 [llow_SN (A) - window for S/N]
 7268.00                                 [lupp_SN (A) - window for S/N]
   5.455                                 [S/N in S/N window]
   7.700                                 [S/N in norm. window]
  17.639                                 [S/N_err in S/N window]
  24.898                                 [S/N_err in norm. window]
  1.0000                                 [fscale_chi2]

## etc...
    -2007252                             [idum_orig]
  2397                                   [NOl_eff]
  2392                                   [Nl_eff]
     5    NSIGMA                         [Ntot_cliped & clip_method]
  1914010                                [Nglobal_steps]
   7                                     [N_chains]
  22                                     [NEX0s_base = N_base in EX0s-fits]
 0   0   1       18   2.0   8.595E+01    [Clip-Bug, RC-Crash & Burn-In warning-flags, n_censored_weights, wei_nsig_threshold & wei_limit]
    18     17.453     16.928      0.525  [idt_all, wdt_TotTime, wdt_UsrTime & wdt_SysTime (sec)]

## Synthesis Results - Best model ##

 2.43750E-01                             [chi2/Nl_eff]
     1.70769                             [adev (%)]

    99.80427                             [sum-of-x (%)]
 8.21486E-15                             [Flux_tot (units of input spectrum!)]
 1.84748E-11                             [Mini_tot (???)]
 1.10682E-11                             [Mcor_tot (???)]

 -36.94                                  [v0_min  (km/s)]
 173.46                                  [vd_min  (km/s)]
 0.3601                                  [AV_min  (mag)]
 0.0000                                  [YAV_min (mag)]

# j     x_j(%)      Mini_j(%)     Mcor_j(%)     age_j(yr)     Z_j      (L/M)_j    YAV?  Mstars   component_j        a/Fe...       SSP_chi2r SSP_adev(%)   SSP_AV   SSP_x(%)
  1      3.3586     1.3677E-01    2.2830E-01    1.000000E+06  0.00400  1.094E-02    0   1.0000   age020_m42            0.0000     1.5702E+00     5.2032   2.3917    80.1173
  2      0.0012     1.3802E-05    2.3036E-05    3.160000E+06  0.00400  4.007E-02    0   0.9999   age045_m42            0.0000     1.1300E+00     4.0374   1.6379    86.9643
  3      0.0000     0.0000E+00    0.0000E+00    5.010000E+06  0.00400  2.539E-02    0   0.9488   age055_m42            0.0000     1.2254E+00     4.3355   1.9631    84.5490
  4      0.0000     0.0000E+00    0.0000E+00    6.610000E+06  0.00400  2.620E-02    0   0.9220   age061_m42            0.0000     9.9395E-01     3.7723   1.5498    87.7973
  5      0.0000     0.0000E+00    0.0000E+00    1.000000E+07  0.00400  1.322E-02    0   0.8862   age070_m42            0.0000     5.3322E-01     2.7111   1.1839    93.3911
  6      0.0000     0.0000E+00    0.0000E+00    1.445000E+07  0.00400  7.883E-03    0   0.8571   age078_m42            0.0000     6.8295E-01     3.1751   1.5298    90.1754
  7      2.5232     2.1408E-01    2.9209E-01    2.512000E+07  0.00400  5.251E-03    0   0.8174   age090_m42            0.0000     4.8005E-01     2.5368   1.0349    94.7791
  8      2.3784     2.9039E-01    3.8054E-01    4.000000E+07  0.00400  3.649E-03    0   0.7851   age104_m42            0.0000     4.2626E-01     2.3186   0.8107    95.4338
  9      0.2129     3.0618E-02    3.8990E-02    5.500000E+07  0.00400  3.098E-03    0   0.7629   age110_m42            0.0000     5.4076E-01     2.5975   0.9976    93.9655
 10      0.0000     0.0000E+00    0.0000E+00    1.015200E+08  0.00400  2.228E-03    0   0.7207   age116_m42            0.0000     6.6199E-01     2.9453   1.0383    93.2490
 11      0.0000     0.0000E+00    0.0000E+00    2.861200E+08  0.00400  1.093E-03    0   0.6648   age125_m42            0.0000     6.0365E-01     2.6979   0.4341    97.9027
 12      0.0000     0.0000E+00    0.0000E+00    5.088000E+08  0.00400  6.597E-04    0   0.6365   age130_m42            0.0000     7.1739E-01     3.0834   0.4590    97.0486
 13      0.0000     0.0000E+00    0.0000E+00    1.434000E+09  0.00400  2.132E-04    0   0.5798   age139_m42            0.0000     6.1863E-01     3.1150  -0.4968    98.0546
 14      0.0000     0.0000E+00    0.0000E+00    4.250000E+09  0.00400  5.895E-05    0   0.5377   age158_m42            0.0000     9.5011E-01     4.3581  -0.8584    90.7120
 15      1.7642     2.2393E+01    1.9482E+01    7.500000E+09  0.00400  3.510E-05    0   0.5212   age171_m42            0.0000     1.1895E+00     5.0278  -1.0000    88.2043
 16      0.0000     0.0000E+00    0.0000E+00    1.300000E+10  0.00400  2.005E-05    0   0.5034   age193_m42            0.0000     1.7340E+00     6.4360  -1.0000    81.1927
 17      0.0000     0.0000E+00    0.0000E+00    1.800000E+10  0.00400  1.525E-05    0   0.4967   age213_m42            0.0000     1.8217E+00     6.6550  -1.0000    79.9172
 18      0.0000     0.0000E+00    0.0000E+00    1.000000E+06  0.00800  1.238E-02    0   1.0000   age020_m52            0.0000     1.5661E+00     5.2012   2.3880    80.2724
 19      0.0000     0.0000E+00    0.0000E+00    3.160000E+06  0.00800  3.074E-02    0   0.9966   age045_m52            0.0000     1.5240E+00     5.1047   2.3104    81.0192
 20      0.0000     0.0000E+00    0.0000E+00    5.010000E+06  0.00800  2.668E-02    0   0.9443   age055_m52            0.0000     1.2207E+00     4.4016   2.0459    83.7480
 21      3.5628     7.4312E-02    1.1383E-01    6.610000E+06  0.00800  2.136E-02    0   0.9177   age061_m52            0.0000     4.4798E-01     2.6141   0.6998    93.6207
 22      0.5388     1.9756E-02    2.9108E-02    1.000000E+07  0.00800  1.215E-02    0   0.8827   age070_m52            0.0000     5.3820E-01     2.8825   1.3466    93.9576
 23      0.9787     5.0024E-02    7.1408E-02    1.445000E+07  0.00800  8.717E-03    0   0.8552   age078_m52            0.0000     5.8591E-01     2.9571   1.4872    91.7641
 24      2.3964     1.9092E-01    2.6011E-01    2.512000E+07  0.00800  5.592E-03    0   0.8162   age090_m52            0.0000     4.1594E-01     2.4265   1.0911    96.2864
 25      2.6075     2.9818E-01    3.9025E-01    4.000000E+07  0.00800  3.896E-03    0   0.7841   age104_m52            0.0000     4.0659E-01     2.3485   1.0163    96.5151
 26      0.0000     0.0000E+00    0.0000E+00    1.015200E+08  0.00800  2.148E-03    0   0.7226   age116_m52            0.0000     5.0429E-01     2.5493   0.9880    94.8443
 27      0.0000     0.0000E+00    0.0000E+00    2.861200E+08  0.00800  9.925E-04    0   0.6683   age125_m52            0.0000     6.1359E-01     2.8809   0.5220    98.0610
 28      0.0005     7.5788E-04    7.7648E-04    9.047900E+08  0.00800  3.141E-04    0   0.6138   age135_m52            0.0000     8.5976E-01     3.8611  -0.2262    99.7383
 29      0.0000     0.0000E+00    0.0000E+00    1.434000E+09  0.00800  1.719E-04    0   0.5853   age139_m52            0.0000     9.6809E-01     4.2381  -0.7883    96.7737
 30      0.0000     0.0000E+00    0.0000E+00    2.500000E+09  0.00800  7.872E-05    0   0.5600   age150_m52            0.0000     1.3418E+00     5.3095  -0.9830    90.8541
 31      0.0000     0.0000E+00    0.0000E+00    4.250000E+09  0.00800  4.336E-05    0   0.5426   age158_m52            0.0000     1.3679E+00     5.3528  -0.9919    89.7273
 32      0.0000     0.0000E+00    0.0000E+00    6.250000E+09  0.00800  3.159E-05    0   0.5319   age166_m52            0.0000     2.0920E+00     7.1090  -1.0000    81.8833
 33      0.0000     0.0000E+00    0.0000E+00    1.300000E+10  0.00800  1.361E-05    0   0.5073   age193_m52            0.0000     6.1802E+00    12.9670  -1.0000    64.8473
 34      0.0000     0.0000E+00    0.0000E+00    1.800000E+10  0.00800  9.886E-06    0   0.4990   age213_m52            0.0000     7.4580E+00    14.2769  -1.0000    61.2632
 35      0.6580     1.8986E-02    3.1692E-02    1.000000E+06  0.02000  1.544E-02    0   1.0000   age020_m62            0.0000     1.5784E+00     5.2406   2.3857    80.3913
 36      4.3774     5.1841E-02    8.5302E-02    3.160000E+06  0.02000  3.762E-02    0   0.9858   age045_m62            0.0000     1.5744E+00     5.2295   2.3259    81.0690
 37      0.0000     0.0000E+00    0.0000E+00    5.010000E+06  0.02000  3.296E-02    0   0.9342   age055_m62            0.0000     1.1815E+00     4.2956   1.9276    85.4416
 38     25.7054     9.9241E-01    1.4678E+00    8.710000E+06  0.02000  1.154E-02    0   0.8861   age067_m62            0.0000     1.6403E+00     4.9673   0.6591   103.3037
 39      0.0000     0.0000E+00    0.0000E+00    1.445000E+07  0.02000  7.663E-03    0   0.8472   age078_m62            0.0000     6.4937E-01     3.0689   0.9468    98.3656
 40      0.0000     0.0000E+00    0.0000E+00    2.512000E+07  0.02000  4.532E-03    0   0.8099   age090_m62            0.0000     7.4267E-01     3.1974   0.9273    98.7103
 41      0.0000     0.0000E+00    0.0000E+00    5.500000E+07  0.02000  2.733E-03    0   0.7595   age110_m62            0.0000     4.1466E-01     2.4175   1.0007    95.6875
 42      0.0000     0.0000E+00    0.0000E+00    1.609000E+08  0.02000  1.369E-03    0   0.6985   age120_m62            0.0000     5.5360E-01     2.7018   0.8709    96.9544
 43      0.0000     0.0000E+00    0.0000E+00    2.861200E+08  0.02000  9.013E-04    0   0.6714   age125_m62            0.0000     6.9026E-01     2.9981   0.6312    99.2285
 44      0.0000     0.0000E+00    0.0000E+00    5.088000E+08  0.02000  5.028E-04    0   0.6449   age130_m62            0.0000     1.0021E+00     3.9326   0.3102    99.2140
 45      0.0126     2.3136E-02    2.3863E-02    9.047900E+08  0.02000  2.428E-04    0   0.6179   age135_m62            0.0000     1.0424E+00     4.4286  -0.2332    96.6216
 46      0.0000     0.0000E+00    0.0000E+00    1.434000E+09  0.02000  1.263E-04    0   0.5908   age139_m62            0.0000     1.2117E+00     4.9011  -0.6517    93.9601
 47      0.0000     0.0000E+00    0.0000E+00    2.500000E+09  0.02000  5.985E-05    0   0.5673   age150_m62            0.0000     1.7507E+00     6.1026  -0.9562    89.9961
 48      0.0000     0.0000E+00    0.0000E+00    4.250000E+09  0.02000  3.271E-05    0   0.5468   age158_m62            0.0000     2.9726E+00     8.5519  -1.0000    78.8335
 49      0.0000     0.0000E+00    0.0000E+00    1.000000E+10  0.02000  1.360E-05    0   0.5167   age181_m62            0.0000     6.0491E+00    12.6476  -1.0000    66.4164
 50      0.0000     0.0000E+00    0.0000E+00    1.800000E+10  0.02000  7.124E-06    0   0.5013   age213_m62            0.0000     8.5339E+00    15.2514  -1.0000    59.5411
 51      1.4870     2.5560E-02    4.2655E-02    1.000000E+06  0.05000  2.592E-02    0   0.9998   age020_m72            0.0000     1.6069E+00     5.3242   2.3747    80.4886
 52      0.0000     0.0000E+00    0.0000E+00    3.160000E+06  0.05000  4.845E-02    0   0.9577   age045_m72            0.0000     1.4805E+00     4.9322   2.2085    82.2066
 53      0.0000     0.0000E+00    0.0000E+00    5.010000E+06  0.05000  3.072E-02    0   0.9147   age055_m72            0.0000     8.9630E-01     3.8819   1.6142    91.1564
 54      0.0000     0.0000E+00    0.0000E+00    6.610000E+06  0.05000  1.455E-02    0   0.8877   age061_m72            0.0000     4.7263E+00     7.7449   0.6828   106.5627
 55      0.0000     0.0000E+00    0.0000E+00    1.000000E+07  0.05000  9.074E-03    0   0.8524   age070_m72            0.0000     1.5088E+00     4.7830   1.8271    90.2253
 56      0.0000     0.0000E+00    0.0000E+00    2.512000E+07  0.05000  4.250E-03    0   0.7902   age090_m72            0.0000     1.0003E+00     3.6971   1.4812    93.5871
 57      0.0000     0.0000E+00    0.0000E+00    4.000000E+07  0.05000  3.087E-03    0   0.7618   age104_m72            0.0000     1.0448E+00     3.5659   1.2263    96.3751
 58      0.0000     0.0000E+00    0.0000E+00    1.015200E+08  0.05000  1.700E-03    0   0.7096   age116_m72            0.0000     5.4304E-01     2.6688   0.9894    97.7341
 59      7.3877     4.4575E+00    4.9351E+00    2.861200E+08  0.05000  7.384E-04    0   0.6633   age125_m72            0.0000     8.0883E-01     3.3596   0.5248    99.3711
 60     33.7633     3.9388E+01    4.1893E+01    5.088000E+08  0.05000  3.819E-04    0   0.6372   age130_m72            0.0000     1.0262E+00     4.2446   0.0899    98.1645
 61      4.1631     1.1067E+01    1.1287E+01    9.047900E+08  0.05000  1.676E-04    0   0.6110   age135_m72            0.0000     1.6878E+00     5.9923  -0.5135    92.2476
 62      0.0000     0.0000E+00    0.0000E+00    1.434000E+09  0.05000  8.837E-05    0   0.5874   age139_m72            0.0000     1.9542E+00     6.4099  -0.9524    91.1144
 63      1.9265     2.0276E+01    1.8946E+01    2.500000E+09  0.05000  4.233E-05    0   0.5598   age150_m72            0.0000     3.1875E+00     8.8546  -1.0000    79.5052
 64      0.0000     0.0000E+00    0.0000E+00    6.250000E+09  0.05000  1.435E-05    0   0.5249   age166_m72            0.0000     7.2365E+00    13.9257  -1.0000    63.0871
 65      0.0000     0.0000E+00    0.0000E+00    1.300000E+10  0.05000  6.513E-06    0   0.5036   age193_m72            0.0000     1.0949E+01    17.3121  -1.0000    55.5712
 66      0.0000     0.0000E+00    0.0000E+00    1.800000E+10  0.05000  4.527E-06    0   0.4945   age213_m72            0.0000     1.3357E+01    19.1355  -1.0000    51.2601


## Synthesis Results - Average & Chains ##

# j      x_j: min, <> & last-chain-values for 1 ...  7 chains
  1      3.3586      1.6063      1.7677      2.2869      1.7249      2.6161      2.1119      2.0480      1.7617
  2      0.0012      0.3484      0.7667      0.3905      0.0000      0.0000      0.0000      0.8692      0.4761
  3      0.0000      0.2134      0.4107      0.3021      0.0000      0.1502      0.5663      0.0000      0.0000
  4      0.0000      0.3172      0.8048      0.0000      0.0000      0.6214      0.0000      0.9530      0.6885
  5      0.0000      0.5778      0.2694      0.5263      0.6009      0.8242      0.1173      0.0000      0.4827
  6      0.0000      0.2905      0.0000      0.0000      0.9263      0.0000      0.8349      0.0000      0.0000
  7      2.5232      1.5597      1.7255      1.0855      0.4330      2.1349      3.4643      2.8199      0.0000
  8      2.3784      1.1183      2.1705      1.6438      4.3928      0.5455      0.0544      1.9406      1.4880
  9      0.2129      0.7978      1.5053      0.0000      0.8687      0.3887      0.8076      0.6543      0.0000
 10      0.0000      0.4044      0.0000      0.9036      0.0000      0.5852      1.2371      0.0000      0.1425
 11      0.0000      0.4476      0.4005      0.0000      0.0000      0.0000      0.0000      0.0000      0.0000
 12      0.0000      0.4534      0.0000      0.0000      0.0000      0.0000      0.0000      0.0000      0.1198
 13      0.0000      0.1375      0.5810      0.0000      0.0000      0.0580      0.0000      0.0000      0.1243
 14      0.0000      0.0562      0.0000      0.2146      0.0000      0.0000      0.0000      0.0000      0.0000
 15      1.7642      1.4396      1.6008      1.7098      1.7610      1.6152      1.5946      1.5235      1.2986
 16      0.0000      0.0572      0.3172      0.0000      0.0000      0.0000      0.1444      0.0000      0.0002
 17      0.0000      0.0204      0.0000      0.0000      0.0000      0.0000      0.0000      0.0000      0.0000
 18      0.0000      0.3170      1.3377      1.0385      0.0000      0.5499      0.0000      0.4443      0.0000
 19      0.0000      0.0958      0.2034      0.5605      0.0148      0.0000      0.0000      0.0000      0.5549
 20      0.0000      0.2676      0.9259      0.0000      0.5134      0.0000      0.0000      0.0000      0.0000
 21      3.5628      9.6394      8.3675      9.0238      7.5383      9.6989      7.9862      6.0727     11.1247
 22      0.5388      1.8145      1.4755      2.2534      2.6638      3.0892      2.2338      0.5673      1.7688
 23      0.9787      0.7350      0.3047      0.7177      1.2524      0.9363      0.6340      1.7201      0.5554
 24      2.3964      1.9617      2.2989      2.4413      1.1292      2.1772      3.0300      2.6176      1.6867
 25      2.6075      2.9132      3.0200      3.0260      1.3120      3.1498      3.9792      3.5617      3.4984
 26      0.0000      0.7191      1.2297      0.0000      0.0000      0.8615      0.2083      0.0000      0.0000
 27      0.0000      0.6909      0.0000      0.0103      0.6090      0.0000      0.0000      0.0000      1.0239
 28      0.0005      2.8036      2.6301      2.6239      2.7513      3.3004      2.1704      2.7786      2.1992
 29      0.0000      0.0523      0.0000      0.0000      0.0000      0.0000      0.0000      0.0000      0.0000
 30      0.0000      0.0343      0.0000      0.0000      0.0599      0.0000      0.0157      0.0000      0.0000
 31      0.0000      0.0548      0.0000      0.0000      0.2871      0.0000      0.0000      0.1384      0.0000
 32      0.0000      0.0253      0.0000      0.0000      0.0000      0.0000      0.0000      0.0000      0.0000
 33      0.0000      0.0098      0.0000      0.0000      0.0354      0.0000      0.0000      0.0497      0.0000
 34      0.0000      0.0271      0.0000      0.0000      0.0000      0.1626      0.0000      0.0000      0.0000
 35      0.6580      0.2462      0.0000      0.0000      0.6664      0.1774      0.0386      1.7970      0.5671
 36      4.3774      3.4075      3.0463      3.2528      3.7399      3.8002      3.8733      3.5027      4.1328
 37      0.0000      0.2152      0.0000      0.0000      0.2651      0.0000      0.0000      0.1695      0.0000
 38     25.7054     21.0123     20.6509     21.5761     22.7586     21.7323     21.3023     22.6533     22.9039
 39      0.0000      0.6744      0.1567      0.0000      0.5666      0.0000      0.0648      0.0872      0.1534
 40      0.0000      0.3458      0.5662      0.0000      0.0000      0.0000      0.3873      0.3650      0.0867
 41      0.0000      0.4727      0.0000      1.2325      0.0000      0.0000      0.0000      0.0067      0.0000
 42      0.0000      0.6927      0.0000      0.6323      0.0000      0.8165      1.1767      0.0000      0.5047
 43      0.0000      0.8250      0.6436      0.0000      1.4639      0.0000      0.0000      0.0000      1.4853
 44      0.0000      1.3345      0.0000      2.3899      0.7727      1.6033      1.2950      0.0000      1.0871
 45      0.0126      1.5967      1.8969      1.8540      0.6936      0.7524      1.6462      2.4353      1.7484
 46      0.0000      0.6558      0.4582      0.5211      0.4648      0.6863      1.4888      0.0000      0.8625
