###################################################################
## OUTPUT of StarlightChains_v04.for    [Cid@UFSC - 01/Apr/2007] ##
###################################################################

## Some input info
2001E.txt                                [arq_obs]
Base.CB07.vall.4m                        [arq_base]
Masks.EmLines.NEW.gm                     [arq_masks]
StCv04.C11.config                        [arq_config]
   66                                    [N_base]
    0                                    [N_YAV_components = # of components with extra extinction!]
    0                                    [i_FitPowerLaw (1/0 = Yes/No)]
-9.99                                    [alpha_PowerLaw]
CCM                                      [red_law_option]
 1.458241                                [q_norm = A(l_norm)/A(V)]

## (Re)Sampling Parameters
 3741.00                                 [l_ini (A)]
 7218.00                                 [l_fin (A)]
    1.00                                 [dl    (A)]     (OBS: dl_cushion =    50.00 A)

## Normalization info
 4020.00                                 [l_norm (A) - for base]
 4010.00                                 [llow_norm (A) - window for f_obs]
 4060.00                                 [lupp_norm (A) - window for f_obs]
3.746219E-17                             [fobs_norm (in input units)]

## S/N
 3691.00                                 [llow_SN (A) - window for S/N]
 7268.00                                 [lupp_SN (A) - window for S/N]
   6.818                                 [S/N in S/N window]
   8.740                                 [S/N in norm. window]
   7.489                                 [S/N_err in S/N window]
   9.600                                 [S/N_err in norm. window]
  1.0000                                 [fscale_chi2]

## etc...
    -2007255                             [idum_orig]
  2384                                   [NOl_eff]
  2372                                   [Nl_eff]
    12    NSIGMA                         [Ntot_cliped & clip_method]
  1700790                                [Nglobal_steps]
   7                                     [N_chains]
  27                                     [NEX0s_base = N_base in EX0s-fits]
 0   0   1        4   2.0   1.849E+01    [Clip-Bug, RC-Crash & Burn-In warning-flags, n_censored_weights, wei_nsig_threshold & wei_limit]
    16     15.982     15.482      0.499  [idt_all, wdt_TotTime, wdt_UsrTime & wdt_SysTime (sec)]

## Synthesis Results - Best model ##

 3.46428E-01                             [chi2/Nl_eff]
     6.21412                             [adev (%)]

    96.14327                             [sum-of-x (%)]
 5.17870E-17                             [Flux_tot (units of input spectrum!)]
 5.56359E-13                             [Mini_tot (???)]
 2.91560E-13                             [Mcor_tot (???)]

 -92.63                                  [v0_min  (km/s)]
 170.87                                  [vd_min  (km/s)]
 0.2704                                  [AV_min  (mag)]
 0.0000                                  [YAV_min (mag)]

# j     x_j(%)      Mini_j(%)     Mcor_j(%)     age_j(yr)     Z_j      (L/M)_j    YAV?  Mstars   component_j        a/Fe...       SSP_chi2r SSP_adev(%)   SSP_AV   SSP_x(%)
  1      8.2144     7.2695E-02    1.3872E-01    1.000000E+06  0.00400  1.094E-02    0   1.0000   age020_m42            0.0000     6.2398E-01     8.1990   2.7265    79.3672
  2      0.0000     0.0000E+00    0.0000E+00    3.160000E+06  0.00400  4.007E-02    0   0.9999   age045_m42            0.0000     5.7434E-01     7.5806   1.9733    86.0302
  3      0.0000     0.0000E+00    0.0000E+00    5.010000E+06  0.00400  2.539E-02    0   0.9488   age055_m42            0.0000     5.7754E-01     7.7549   2.2994    83.6407
  4      0.0000     0.0000E+00    0.0000E+00    6.610000E+06  0.00400  2.620E-02    0   0.9220   age061_m42            0.0000     5.5745E-01     7.4345   1.8892    86.6690
  5      0.0000     0.0000E+00    0.0000E+00    1.000000E+07  0.00400  1.322E-02    0   0.8862   age070_m42            0.0000     4.3443E-01     6.7885   1.5603    90.5659
  6      0.0000     0.0000E+00    0.0000E+00    1.445000E+07  0.00400  7.883E-03    0   0.8571   age078_m42            0.0000     4.5729E-01     7.0099   1.9002    87.6932
  7      0.0000     0.0000E+00    0.0000E+00    2.512000E+07  0.00400  5.251E-03    0   0.8174   age090_m42            0.0000     4.2241E-01     6.7262   1.4191    91.5826
  8      0.0000     0.0000E+00    0.0000E+00    4.000000E+07  0.00400  3.649E-03    0   0.7851   age104_m42            0.0000     4.2374E-01     6.6621   1.1935    92.2785
  9      0.0000     0.0000E+00    0.0000E+00    5.500000E+07  0.00400  3.098E-03    0   0.7629   age110_m42            0.0000     4.7964E-01     6.8815   1.3638    91.5466
 10      0.0000     0.0000E+00    0.0000E+00    1.015200E+08  0.00400  2.228E-03    0   0.7207   age116_m42            0.0000     5.3026E-01     7.0378   1.3940    91.2970
 11      0.0000     0.0000E+00    0.0000E+00    2.861200E+08  0.00400  1.093E-03    0   0.6648   age125_m42            0.0000     4.9942E-01     6.7445   0.8003    95.1686
 12      0.0097     1.4293E-03    1.7360E-03    5.088000E+08  0.00400  6.597E-04    0   0.6365   age130_m42            0.0000     5.6644E-01     6.9285   0.8144    94.8838
 13     14.2176     6.4563E+00    7.1432E+00    1.434000E+09  0.00400  2.132E-04    0   0.5798   age139_m42            0.0000     5.3352E-01     6.7991  -0.1327    95.7285
 14      7.7382     1.2709E+01    1.3040E+01    4.250000E+09  0.00400  5.895E-05    0   0.5377   age158_m42            0.0000     5.5414E-01     7.3714  -0.5143    89.4628
 15      2.0271     5.5914E+00    5.5610E+00    7.500000E+09  0.00400  3.510E-05    0   0.5212   age171_m42            0.0000     5.8860E-01     7.7209  -0.6804    87.9770
 16      0.0000     0.0000E+00    0.0000E+00    1.300000E+10  0.00400  2.005E-05    0   0.5034   age193_m42            0.0000     6.2439E-01     8.0707  -0.8247    86.6607
 17      0.0000     0.0000E+00    0.0000E+00    1.800000E+10  0.00400  1.525E-05    0   0.4967   age213_m42            0.0000     6.1267E-01     8.0112  -0.8517    86.4316
 18      0.0000     0.0000E+00    0.0000E+00    1.000000E+06  0.00800  1.238E-02    0   1.0000   age020_m52            0.0000     6.2384E-01     8.1990   2.7228    79.5226
 19      0.0000     0.0000E+00    0.0000E+00    3.160000E+06  0.00800  3.074E-02    0   0.9966   age045_m52            0.0000     6.2030E-01     8.1721   2.6429    80.3619
 20      0.1896     6.8806E-04    1.2398E-03    5.010000E+06  0.00800  2.668E-02    0   0.9443   age055_m52            0.0000     5.7389E-01     7.7926   2.3829    82.8441
 21      2.5035     1.1347E-02    1.9871E-02    6.610000E+06  0.00800  2.136E-02    0   0.9177   age061_m52            0.0000     4.0658E-01     6.6063   1.0806    90.6930
 22      0.0000     0.0000E+00    0.0000E+00    1.000000E+07  0.00800  1.215E-02    0   0.8827   age070_m52            0.0000     4.1544E-01     6.7427   1.7297    90.7846
 23      0.0000     0.0000E+00    0.0000E+00    1.445000E+07  0.00800  8.717E-03    0   0.8552   age078_m52            0.0000     4.4466E-01     6.9045   1.8604    89.1439
 24      0.0000     0.0000E+00    0.0000E+00    2.512000E+07  0.00800  5.592E-03    0   0.8162   age090_m52            0.0000     4.1220E-01     6.6468   1.4776    92.9229
 25      0.0000     0.0000E+00    0.0000E+00    4.000000E+07  0.00800  3.896E-03    0   0.7841   age104_m52            0.0000     4.3021E-01     6.6680   1.3954    93.4112
 26      0.0000     0.0000E+00    0.0000E+00    1.015200E+08  0.00800  2.148E-03    0   0.7226   age116_m52            0.0000     4.8946E-01     6.8240   1.3516    92.4702
 27      0.0000     0.0000E+00    0.0000E+00    2.861200E+08  0.00800  9.925E-04    0   0.6683   age125_m52            0.0000     5.6377E-01     6.8973   0.8760    95.9255
 28      0.0000     0.0000E+00    0.0000E+00    9.047900E+08  0.00800  3.141E-04    0   0.6138   age135_m52            0.0000     6.1010E-01     7.1908   0.1268    97.6589
 29      1.5725     8.8564E-01    9.8915E-01    1.434000E+09  0.00800  1.719E-04    0   0.5853   age139_m52            0.0000     5.5902E-01     7.1378  -0.4408    95.0865
 30      0.0000     0.0000E+00    0.0000E+00    2.500000E+09  0.00800  7.872E-05    0   0.5600   age150_m52            0.0000     6.3721E-01     7.8805  -0.6551    90.2346
 31      0.0000     0.0000E+00    0.0000E+00    4.250000E+09  0.00800  4.336E-05    0   0.5426   age158_m52            0.0000     6.3278E-01     7.9589  -0.6644    89.1318
 32      0.0000     0.0000E+00    0.0000E+00    6.250000E+09  0.00800  3.159E-05    0   0.5319   age166_m52            0.0000     7.1117E-01     8.4909  -0.8383    87.9835
 33      5.0910     3.6215E+01    3.5058E+01    1.300000E+10  0.00800  1.361E-05    0   0.5073   age193_m52            0.0000     9.6216E-01    10.2003  -1.0000    76.4053
 34      1.3998     1.3708E+01    1.3053E+01    1.800000E+10  0.00800  9.886E-06    0   0.4990   age213_m52            0.0000     1.1457E+00    11.2328  -1.0000    72.4194
 35      6.7339     4.2225E-02    8.0574E-02    1.000000E+06  0.02000  1.544E-02    0   1.0000   age020_m62            0.0000     6.2518E-01     8.2162   2.7183    79.7242
 36      0.0000     0.0000E+00    0.0000E+00    3.160000E+06  0.02000  3.762E-02    0   0.9858   age045_m62            0.0000     6.2399E-01     8.2224   2.6570    80.4399
 37      0.0000     0.0000E+00    0.0000E+00    5.010000E+06  0.02000  3.296E-02    0   0.9342   age055_m62            0.0000     5.8798E-01     7.7392   2.2578    84.7497
 38     21.2854     1.7858E-01    3.0195E-01    8.710000E+06  0.02000  1.154E-02    0   0.8861   age067_m62            0.0000     4.6374E-01     7.2609   1.1128    96.5148
 39      0.0000     0.0000E+00    0.0000E+00    1.445000E+07  0.02000  7.663E-03    0   0.8472   age078_m62            0.0000     3.8465E-01     6.6140   1.3533    93.8957
 40      0.0000     0.0000E+00    0.0000E+00    2.512000E+07  0.02000  4.532E-03    0   0.8099   age090_m62            0.0000     3.9278E-01     6.7048   1.3347    94.1552
 41      0.0000     0.0000E+00    0.0000E+00    5.500000E+07  0.02000  2.733E-03    0   0.7595   age110_m62            0.0000     4.2430E-01     6.6387   1.3793    92.6663
 42      0.0000     0.0000E+00    0.0000E+00    1.609000E+08  0.02000  1.369E-03    0   0.6985   age120_m62            0.0000     5.2997E-01     6.8617   1.2305    94.6930
 43      0.8783     9.4350E-02    1.2088E-01    2.861200E+08  0.02000  9.013E-04    0   0.6714   age125_m62            0.0000     6.1183E-01     7.0398   0.9889    97.0327
 44      3.1043     5.9775E-01    7.3559E-01    5.088000E+08  0.02000  5.028E-04    0   0.6449   age130_m62            0.0000     7.0825E-01     7.5179   0.6574    97.4814
 45      0.0017     6.6652E-04    7.8588E-04    9.047900E+08  0.02000  2.428E-04    0   0.6179   age135_m62            0.0000     6.5488E-01     7.5348   0.1053    95.3821
 46      0.0529     4.0557E-02    4.5723E-02    1.434000E+09  0.02000  1.263E-04    0   0.5908   age139_m62            0.0000     6.4152E-01     7.7475  -0.3179    93.0641
 47      0.0101     1.6266E-02    1.7609E-02    2.500000E+09  0.02000  5.985E-05    0   0.5673   age150_m62            0.0000     7.2439E-01     8.4986  -0.6405    89.9518
 48      0.0000     0.0000E+00    0.0000E+00    4.250000E+09  0.02000  3.271E-05    0   0.5468   age158_m62            0.0000     8.5955E-01     9.4191  -0.8998    87.3515
 49      2.7367     1.9482E+01    1.9209E+01    1.000000E+10  0.02000  1.360E-05    0   0.5167   age181_m62            0.0000     1.1185E+00    10.9984  -1.0000    78.0362
 50      0.0000     0.0000E+00    0.0000E+00    1.800000E+10  0.02000  7.124E-06    0   0.5013   age213_m62            0.0000     1.4374E+00    12.5834  -1.0000    70.4610
 51      5.9863     2.2360E-02    4.2659E-02    1.000000E+06  0.05000  2.592E-02    0   0.9998   age020_m72            0.0000     6.2806E-01     8.2628   2.7082    79.7995
 52      0.0000     0.0000E+00    0.0000E+00    3.160000E+06  0.05000  4.845E-02    0   0.9577   age045_m72            0.0000     6.2162E-01     8.1129   2.5337    81.7771
 53      0.0000     0.0000E+00    0.0000E+00    5.010000E+06  0.05000  3.072E-02    0   0.9147   age055_m72            0.0000     4.5077E-01     7.0471   1.9823    88.4427
 54      5.4616     3.6341E-02    6.1560E-02    6.610000E+06  0.05000  1.455E-02    0   0.8877   age061_m72            0.0000     7.7561E-01     8.8733   1.1309    98.7874
 55      0.0000     0.0000E+00    0.0000E+00    1.000000E+07  0.05000  9.074E-03    0   0.8524   age070_m72            0.0000     5.3808E-01     7.5845   2.1664    88.2076
 56      0.0000     0.0000E+00    0.0000E+00    2.512000E+07  0.05000  4.250E-03    0   0.7902   age090_m72            0.0000     4.7181E-01     7.1015   1.8426    90.8893
 57      0.0000     0.0000E+00    0.0000E+00    4.000000E+07  0.05000  3.087E-03    0   0.7618   age104_m72            0.0000     4.6689E-01     7.0351   1.5978    93.1821
 58      0.0000     0.0000E+00    0.0000E+00    1.015200E+08  0.05000  1.700E-03    0   0.7096   age116_m72            0.0000     5.0255E-01     6.8093   1.3547    95.1143
 59      3.4575     4.5333E-01    5.7379E-01    2.861200E+08  0.05000  7.384E-04    0   0.6633   age125_m72            0.0000     6.6836E-01     7.2734   0.8796    97.3188
 60      0.4980     1.2624E-01    1.5350E-01    5.088000E+08  0.05000  3.819E-04    0   0.6372   age130_m72            0.0000     7.0003E-01     7.5993   0.4339    96.7705
 61      0.0000     0.0000E+00    0.0000E+00    9.047900E+08  0.05000  1.676E-04    0   0.6110   age135_m72            0.0000     7.7004E-01     8.5092  -0.1923    92.0424
 62      2.9731     3.2573E+00    3.6511E+00    1.434000E+09  0.05000  8.837E-05    0   0.5874   age139_m72            0.0000     7.6789E-01     8.7083  -0.6377    91.1371
 63      0.0000     0.0000E+00    0.0000E+00    2.500000E+09  0.05000  4.233E-05    0   0.5598   age150_m72            0.0000     9.1404E-01     9.7704  -0.8885    87.6222
 64      0.0000     0.0000E+00    0.0000E+00    6.250000E+09  0.05000  1.435E-05    0   0.5249   age166_m72            0.0000     1.2442E+00    11.7248  -1.0000    74.4263
 65      0.0000     0.0000E+00    0.0000E+00    1.300000E+10  0.05000  6.513E-06    0   0.5036   age193_m72            0.0000     1.7366E+00    13.9899  -1.0000    66.1509
 66      0.0000     0.0000E+00    0.0000E+00    1.800000E+10  0.05000  4.527E-06    0   0.4945   age213_m72            0.0000     2.0890E+00    15.4750  -1.0000    61.2742


## Synthesis Results - Average & Chains ##

# j      x_j: min, <> & last-chain-values for 1 ...  7 chains
  1      8.2144      3.6459      5.5111      3.1596      6.9713      4.4421      2.2266      3.7252      4.4233
  2      0.0000      0.4731      0.0000      1.7789      0.0000      0.0000      0.0000      1.0582      0.0000
  3      0.0000      0.4775      0.0000      2.9767      1.1198      0.0000      0.6119      1.4703      0.0000
  4      0.0000      0.4115      0.0000      0.3829      0.0000      0.0000      0.0000      0.0000      0.0000
  5      0.0000      0.7986      1.4141      0.0000      0.9661      0.0000      1.0557      0.5114      0.6875
  6      0.0000      0.7134      0.0000      0.0000      0.0000      0.2002      2.0098      0.0000      0.0000
  7      0.0000      1.1737      0.0000      0.0000      3.8074      1.5602      1.4433      0.6245      2.0103
  8      0.0000      1.0587      0.0000      1.1094      0.0000      0.2809      0.0000      0.6718      0.0000
  9      0.0000      1.1827      0.0000      0.0000      0.2435      0.0000      0.6662      0.4674      0.0000
 10      0.0000      0.5656      0.0000      0.0000      0.0000      0.1633      0.4808      2.6213      0.1598
 11      0.0000      0.8476      0.0000      0.0000      0.0000      0.6678      0.0000      0.0000      0.3314
 12      0.0097      0.7036      1.8599      0.0000      3.3354      0.0000      0.0000      0.0000      0.4534
 13     14.2176      3.7103      2.7544      4.9936      5.6210      5.7806      6.3729      5.7890      5.2330
 14      7.7382      5.0921      5.4402      7.0292      4.8522      5.6151      6.5589      5.4588      5.0273
 15      2.0271      1.3974      3.7137      1.1769      0.9115      1.3648      0.0000      2.3137      1.4732
 16      0.0000      1.3793      0.3618      2.4869      0.0000      0.0000      1.7565      1.4495      4.5156
 17      0.0000      0.4811      0.0000      0.0000      1.3600      1.0222      0.0000      0.0000      0.5900
 18      0.0000      0.5056      0.0000      0.9220      0.0000      0.2361      0.0000      0.0000      2.5997
 19      0.0000      0.5427      0.0000      1.7261      0.7027      0.0000      3.6724      1.4091      0.0000
 20      0.1896      1.5822      2.6197      1.6094      1.7337      2.2204      5.2204      0.0000      1.9813
 21      2.5035      2.7407      4.7953      2.4543      2.9481      1.7713      0.0000      2.6080      3.7207
 22      0.0000      0.8858      1.7204      2.4815      0.0000      2.6865      0.0000      0.0000      0.4789
 23      0.0000      0.5207      0.1216      2.0604      1.7473      2.4149      0.0724      2.3112      0.0000
 24      0.0000      1.5040      0.0000      0.0052      1.6806      0.0000      1.0284      1.5221      0.0000
 25      0.0000      0.7061      0.2231      0.0000      0.0000      0.0000      1.5354      0.2831      2.5134
 26      0.0000      0.4702      0.0000      1.1463      0.0000      2.6258      0.0000      0.0000      0.8749
 27      0.0000      1.0518      0.0000      0.0000      0.0000      0.0000      0.0000      0.0000      0.8522
 28      0.0000      1.2714      0.0000      0.0000      0.0000      0.9377      0.0000      0.0818      0.9486
 29      1.5725      2.1455      2.1267      0.0000      0.0000      3.8698      0.0000      0.0000      0.5926
 30      0.0000      1.0699      0.0000      1.1562      2.5754      2.0274      3.8745      1.0416      0.8251
 31      0.0000      0.1618      0.0000      0.0000      0.0000      0.0000      0.0000      0.0000      0.0000
 32      0.0000      0.3812      0.0000      0.0000      0.0000      0.0000      0.0000      0.0000      0.0000
 33      5.0910      1.7907      2.2307      2.4358      2.0624      2.3523      1.5263      1.3196      2.6972
 34      1.3998      0.3420      0.5023      0.0000      0.0000      0.0000      0.0475      0.2668      0.0000
 35      6.7339      3.6117      2.8126      4.7277      5.0400      5.9938      3.7183      4.2522      3.7232
 36      0.0000      0.3144      0.0000      1.8540      0.0000      0.4173      0.0000      0.0000      0.2189
 37      0.0000      0.4680      0.0924      1.2423      0.0000      1.1391      0.0000      0.0806      0.0000
 38     21.2854     11.4312     20.6576     12.6355     12.8420     13.7982     13.2171     17.1401     15.2130
 39      0.0000      0.6534      0.0000      0.1042      1.5105      0.0000      0.0000      0.0000      0.0000
 40      0.0000      1.5427      3.1969      0.0000      0.0000      1.8739      0.0000      1.8549      1.6141
 41      0.0000      1.0643      0.0000      2.0744      0.0000      0.0000      0.0000      0.0000      0.9938
 42      0.0000      0.6499      0.0100      0.2434      0.0000      0.0000      0.0000      0.0000      0.2435
 43      0.8783      0.6318      1.1014      2.5007      0.5659      0.9572      0.1902      3.5723      1.9430
 44      3.1043      0.8449      3.6290      0.0000      1.0851      0.0000      0.5270      0.0000      0.0000
 45      0.0017      1.1587      0.9062      1.4809      0.5083      0.6994      0.6360      3.0883      0.0000
 46      0.0529      3.2111      5.6901      3.2220      2.6721      0.0000      5.2702      0.0000      3.0016
