###################################################################
## OUTPUT of StarlightChains_v04.for    [Cid@UFSC - 01/Apr/2007] ##
###################################################################

## Some input info
2001fy.txt                               [arq_obs]
Base.CB07.vall.4m                        [arq_base]
Masks.EmLines.NEW.gm                     [arq_masks]
StCv04.C11.config                        [arq_config]
   66                                    [N_base]
    0                                    [N_YAV_components = # of components with extra extinction!]
    0                                    [i_FitPowerLaw (1/0 = Yes/No)]
-9.99                                    [alpha_PowerLaw]
CCM                                      [red_law_option]
 1.458241                                [q_norm = A(l_norm)/A(V)]

## (Re)Sampling Parameters
 3741.00                                 [l_ini (A)]
 7218.00                                 [l_fin (A)]
    1.00                                 [dl    (A)]     (OBS: dl_cushion =    50.00 A)

## Normalization info
 4020.00                                 [l_norm (A) - for base]
 4010.00                                 [llow_norm (A) - window for f_obs]
 4060.00                                 [lupp_norm (A) - window for f_obs]
6.510553E-17                             [fobs_norm (in input units)]

## S/N
 3691.00                                 [llow_SN (A) - window for S/N]
 7268.00                                 [lupp_SN (A) - window for S/N]
   6.019                                 [S/N in S/N window]
   6.469                                 [S/N in norm. window]
   9.686                                 [S/N_err in S/N window]
  10.410                                 [S/N_err in norm. window]
  1.0000                                 [fscale_chi2]

## etc...
    -2007259                             [idum_orig]
  2378                                   [NOl_eff]
  2339                                   [Nl_eff]
    39    NSIGMA                         [Ntot_cliped & clip_method]
   518560                                [Nglobal_steps]
   7                                     [N_chains]
   7                                     [NEX0s_base = N_base in EX0s-fits]
 0   0   1       24   2.0   2.124E+01    [Clip-Bug, RC-Crash & Burn-In warning-flags, n_censored_weights, wei_nsig_threshold & wei_limit]
    10     10.276      9.783      0.493  [idt_all, wdt_TotTime, wdt_UsrTime & wdt_SysTime (sec)]

## Synthesis Results - Best model ##

 6.59741E-01                             [chi2/Nl_eff]
     5.83584                             [adev (%)]

   114.31923                             [sum-of-x (%)]
 7.23651E-17                             [Flux_tot (units of input spectrum!)]
 3.55194E-13                             [Mini_tot (???)]
 2.18081E-13                             [Mcor_tot (???)]

 -37.99                                  [v0_min  (km/s)]
 213.82                                  [vd_min  (km/s)]
-0.0209                                  [AV_min  (mag)]
 0.0000                                  [YAV_min (mag)]

# j     x_j(%)      Mini_j(%)     Mcor_j(%)     age_j(yr)     Z_j      (L/M)_j    YAV?  Mstars   component_j        a/Fe...       SSP_chi2r SSP_adev(%)   SSP_AV   SSP_x(%)
  1      0.0000     0.0000E+00    0.0000E+00    1.000000E+06  0.00400  1.094E-02    0   1.0000   age020_m42            0.0000     1.4526E+00     8.8810   2.9351    86.6432
  2      0.0000     0.0000E+00    0.0000E+00    3.160000E+06  0.00400  4.007E-02    0   0.9999   age045_m42            0.0000     1.1250E+00     7.8112   2.1345    96.1961
  3      0.0000     0.0000E+00    0.0000E+00    5.010000E+06  0.00400  2.539E-02    0   0.9488   age055_m42            0.0000     1.2475E+00     8.2374   2.4848    92.3584
  4      0.0000     0.0000E+00    0.0000E+00    6.610000E+06  0.00400  2.620E-02    0   0.9220   age061_m42            0.0000     1.1298E+00     7.7973   2.0532    96.7089
  5      0.0000     0.0000E+00    0.0000E+00    1.000000E+07  0.00400  1.322E-02    0   0.8862   age070_m42            0.0000     1.4370E+00     8.8763   1.7754    97.9117
  6      0.0000     0.0000E+00    0.0000E+00    1.445000E+07  0.00400  7.883E-03    0   0.8571   age078_m42            0.0000     1.4864E+00     9.0135   2.1204    94.6381
  7      0.0000     0.0000E+00    0.0000E+00    2.512000E+07  0.00400  5.251E-03    0   0.8174   age090_m42            0.0000     1.4861E+00     9.0549   1.6399    98.6154
  8      0.0000     0.0000E+00    0.0000E+00    4.000000E+07  0.00400  3.649E-03    0   0.7851   age104_m42            0.0000     1.3927E+00     8.7515   1.3999   100.1523
  9      0.0000     0.0000E+00    0.0000E+00    5.500000E+07  0.00400  3.098E-03    0   0.7629   age110_m42            0.0000     1.2335E+00     8.1040   1.5394   101.1986
 10     12.6575     1.0125E+00    1.1884E+00    1.015200E+08  0.00400  2.228E-03    0   0.7207   age116_m42            0.0000     1.1470E+00     7.7194   1.5476   102.2130
 11      0.0000     0.0000E+00    0.0000E+00    2.861200E+08  0.00400  1.093E-03    0   0.6648   age125_m42            0.0000     1.3000E+00     8.1842   0.9550   106.3154
 12      0.0000     0.0000E+00    0.0000E+00    5.088000E+08  0.00400  6.597E-04    0   0.6365   age130_m42            0.0000     1.1414E+00     7.5309   0.9304   108.3495
 13      0.0000     0.0000E+00    0.0000E+00    1.434000E+09  0.00400  2.132E-04    0   0.5798   age139_m42            0.0000     8.9858E-01     6.7493  -0.0557   111.5405
 14      0.0000     0.0000E+00    0.0000E+00    4.250000E+09  0.00400  5.895E-05    0   0.5377   age158_m42            0.0000     8.0220E-01     6.3043  -0.4633   105.9650
 15      0.0000     0.0000E+00    0.0000E+00    7.500000E+09  0.00400  3.510E-05    0   0.5212   age171_m42            0.0000     8.4468E-01     6.3694  -0.6475   105.2826
 16      0.0000     0.0000E+00    0.0000E+00    1.300000E+10  0.00400  2.005E-05    0   0.5034   age193_m42            0.0000     9.2263E-01     6.5635  -0.8068   104.6105
 17      0.0000     0.0000E+00    0.0000E+00    1.800000E+10  0.00400  1.525E-05    0   0.4967   age213_m42            0.0000     9.1757E-01     6.5567  -0.8282   104.0149
 18      0.0000     0.0000E+00    0.0000E+00    1.000000E+06  0.00800  1.238E-02    0   1.0000   age020_m52            0.0000     1.4451E+00     8.8576   2.9304    86.8584
 19      0.0000     0.0000E+00    0.0000E+00    3.160000E+06  0.00800  3.074E-02    0   0.9966   age045_m52            0.0000     1.3804E+00     8.6938   2.8471    87.9469
 20      0.0000     0.0000E+00    0.0000E+00    5.010000E+06  0.00800  2.668E-02    0   0.9443   age055_m52            0.0000     1.2777E+00     8.3536   2.5757    91.1119
 21      0.0000     0.0000E+00    0.0000E+00    6.610000E+06  0.00800  2.136E-02    0   0.9177   age061_m52            0.0000     1.3418E+00     8.6399   1.2876    98.4970
 22      0.0000     0.0000E+00    0.0000E+00    1.000000E+07  0.00800  1.215E-02    0   0.8827   age070_m52            0.0000     1.6082E+00     9.4167   1.9637    97.0683
 23      0.0000     0.0000E+00    0.0000E+00    1.445000E+07  0.00800  8.717E-03    0   0.8552   age078_m52            0.0000     1.4535E+00     8.9205   2.0783    96.2854
 24      0.0000     0.0000E+00    0.0000E+00    2.512000E+07  0.00800  5.592E-03    0   0.8162   age090_m52            0.0000     1.4994E+00     9.0661   1.6969   100.1021
 25      0.0000     0.0000E+00    0.0000E+00    4.000000E+07  0.00800  3.896E-03    0   0.7841   age104_m52            0.0000     1.3903E+00     8.6540   1.5927   101.8865
 26      0.0000     0.0000E+00    0.0000E+00    1.015200E+08  0.00800  2.148E-03    0   0.7226   age116_m52            0.0000     1.1797E+00     7.8912   1.5146   102.9039
 27      0.0000     0.0000E+00    0.0000E+00    2.861200E+08  0.00800  9.925E-04    0   0.6683   age125_m52            0.0000     1.1317E+00     7.4449   0.9917   109.5221
 28      0.0000     0.0000E+00    0.0000E+00    9.047900E+08  0.00800  3.141E-04    0   0.6138   age135_m52            0.0000     9.0912E-01     6.6300   0.1549   116.8470
 29      0.0000     0.0000E+00    0.0000E+00    1.434000E+09  0.00800  1.719E-04    0   0.5853   age139_m52            0.0000     8.9320E-01     6.5886  -0.3982   113.0181
 30      0.0000     0.0000E+00    0.0000E+00    2.500000E+09  0.00800  7.872E-05    0   0.5600   age150_m52            0.0000     8.0900E-01     6.2925  -0.6517   109.6876
 31      0.0000     0.0000E+00    0.0000E+00    4.250000E+09  0.00800  4.336E-05    0   0.5426   age158_m52            0.0000     8.3547E-01     6.3382  -0.6609   108.3445
 32      0.0000     0.0000E+00    0.0000E+00    6.250000E+09  0.00800  3.159E-05    0   0.5319   age166_m52            0.0000     8.9414E-01     6.5351  -0.8673   108.8595
 33      0.0000     0.0000E+00    0.0000E+00    1.300000E+10  0.00800  1.361E-05    0   0.5073   age193_m52            0.0000     1.5076E+00     8.5403  -1.0000    93.2665
 34      0.0000     0.0000E+00    0.0000E+00    1.800000E+10  0.00800  9.886E-06    0   0.4990   age213_m52            0.0000     1.9579E+00     9.7356  -1.0000    88.4620
 35      0.0000     0.0000E+00    0.0000E+00    1.000000E+06  0.02000  1.544E-02    0   1.0000   age020_m62            0.0000     1.4458E+00     8.8729   2.9275    87.0138
 36      0.0000     0.0000E+00    0.0000E+00    3.160000E+06  0.02000  3.762E-02    0   0.9858   age045_m62            0.0000     1.4144E+00     8.8029   2.8626    87.9683
 37      0.0000     0.0000E+00    0.0000E+00    5.010000E+06  0.02000  3.296E-02    0   0.9342   age055_m62            0.0000     1.1424E+00     7.8797   2.4287    94.3434
 38      0.0000     0.0000E+00    0.0000E+00    8.710000E+06  0.02000  1.154E-02    0   0.8861   age067_m62            0.0000     2.8415E+00    13.0778   1.4406    97.0963
 39      0.0000     0.0000E+00    0.0000E+00    1.445000E+07  0.02000  7.663E-03    0   0.8472   age078_m62            0.0000     1.9378E+00    10.4360   1.6097    98.8994
 40      0.0000     0.0000E+00    0.0000E+00    2.512000E+07  0.02000  4.532E-03    0   0.8099   age090_m62            0.0000     2.0067E+00    10.6224   1.5950    98.9087
 41      0.0000     0.0000E+00    0.0000E+00    5.500000E+07  0.02000  2.733E-03    0   0.7595   age110_m62            0.0000     1.3967E+00     8.6806   1.5823   100.7918
 42      0.0000     0.0000E+00    0.0000E+00    1.609000E+08  0.02000  1.369E-03    0   0.6985   age120_m62            0.0000     1.1836E+00     7.7325   1.3785   106.2285
 43      0.0066     1.3038E-03    1.4258E-03    2.861200E+08  0.02000  9.013E-04    0   0.6714   age125_m62            0.0000     1.1226E+00     7.3579   1.0981   111.1401
 44      0.0000     0.0000E+00    0.0000E+00    5.088000E+08  0.02000  5.028E-04    0   0.6449   age130_m62            0.0000     9.4221E-01     6.7139   0.6891   116.4709
 45      0.0000     0.0000E+00    0.0000E+00    9.047900E+08  0.02000  2.428E-04    0   0.6179   age135_m62            0.0000     7.7049E-01     6.1496   0.1069   115.8806
 46      0.0000     0.0000E+00    0.0000E+00    1.434000E+09  0.02000  1.263E-04    0   0.5908   age139_m62            0.0000     7.6398E-01     6.1135  -0.3199   113.3528
 47      0.0000     0.0000E+00    0.0000E+00    2.500000E+09  0.02000  5.985E-05    0   0.5673   age150_m62            0.0000     8.1089E-01     6.3014  -0.6745   111.5812
 48      0.0000     0.0000E+00    0.0000E+00    4.250000E+09  0.02000  3.271E-05    0   0.5468   age158_m62            0.0000     9.1930E-01     6.7021  -0.9818   111.1865
 49      0.0000     0.0000E+00    0.0000E+00    1.000000E+10  0.02000  1.360E-05    0   0.5167   age181_m62            0.0000     1.6439E+00     8.6713  -1.0000    95.8693
 50      0.0000     0.0000E+00    0.0000E+00    1.800000E+10  0.02000  7.124E-06    0   0.5013   age213_m62            0.0000     2.5505E+00    10.9028  -1.0000    86.3995
 51      0.0000     0.0000E+00    0.0000E+00    1.000000E+06  0.05000  2.592E-02    0   0.9998   age020_m72            0.0000     1.4759E+00     8.9824   2.9238    86.8010
 52      0.0000     0.0000E+00    0.0000E+00    3.160000E+06  0.05000  4.845E-02    0   0.9577   age045_m72            0.0000     1.2712E+00     8.3599   2.7237    90.1990
 53      0.0000     0.0000E+00    0.0000E+00    5.010000E+06  0.05000  3.072E-02    0   0.9147   age055_m72            0.0000     1.8246E+00     9.8874   2.2181    94.6290
 54      0.0000     0.0000E+00    0.0000E+00    6.610000E+06  0.05000  1.455E-02    0   0.8877   age061_m72            0.0000     4.2475E+00    15.7071   1.4886    97.5061
 55      0.0000     0.0000E+00    0.0000E+00    1.000000E+07  0.05000  9.074E-03    0   0.8524   age070_m72            0.0000     2.1719E+00    10.4250   2.4013    94.5451
 56      0.0000     0.0000E+00    0.0000E+00    2.512000E+07  0.05000  4.250E-03    0   0.7902   age090_m72            0.0000     1.8470E+00     9.7769   2.0650    97.9164
 57      0.0000     0.0000E+00    0.0000E+00    4.000000E+07  0.05000  3.087E-03    0   0.7618   age104_m72            0.0000     1.8737E+00     9.8698   1.8203   100.2762
 58      0.0000     0.0000E+00    0.0000E+00    1.015200E+08  0.05000  1.700E-03    0   0.7096   age116_m72            0.0000     1.3301E+00     8.2470   1.5256   105.3321
 59      0.0000     0.0000E+00    0.0000E+00    2.861200E+08  0.05000  7.384E-04    0   0.6633   age125_m72            0.0000     1.0210E+00     6.9376   0.9454   114.1225
 60     15.2634     7.1227E+00    7.3921E+00    5.088000E+08  0.05000  3.819E-04    0   0.6372   age130_m72            0.0000     7.5239E-01     6.0823   0.4384   117.3401
 61     86.3918     9.1864E+01    9.1418E+01    9.047900E+08  0.05000  1.676E-04    0   0.6110   age135_m72            0.0000     6.8956E-01     5.9678  -0.2395   114.8916
 62      0.0000     0.0000E+00    0.0000E+00    1.434000E+09  0.05000  8.837E-05    0   0.5874   age139_m72            0.0000     8.3089E-01     6.3745  -0.6881   114.0175
 63      0.0000     0.0000E+00    0.0000E+00    2.500000E+09  0.05000  4.233E-05    0   0.5598   age150_m72            0.0000     9.7231E-01     6.8890  -0.9895   112.6906
 64      0.0000     0.0000E+00    0.0000E+00    6.250000E+09  0.05000  1.435E-05    0   0.5249   age166_m72            0.0000     1.9733E+00     9.6291  -1.0000    91.3480
 65      0.0000     0.0000E+00    0.0000E+00    1.300000E+10  0.05000  6.513E-06    0   0.5036   age193_m72            0.0000     3.3565E+00    12.9093  -1.0000    80.8661
 66      0.0000     0.0000E+00    0.0000E+00    1.800000E+10  0.05000  4.527E-06    0   0.4945   age213_m72            0.0000     4.3022E+00    14.9208  -1.0000    74.6900


## Synthesis Results - Average & Chains ##

# j      x_j: min, <> & last-chain-values for 1 ...  7 chains
  1      0.0000      0.1025      0.0000      0.0000      0.0000      0.5562      0.0000      0.0000      0.0000
  2      0.0000      0.0859      0.8013      0.0000      0.0000      0.0000      0.0000      0.0000      0.0000
  3      0.0000      0.3778      0.8869      0.0000      0.1939      0.0000      0.0000      2.3912      0.0000
  4      0.0000      0.1715      0.0000      0.0000      0.0000      0.1672      0.0000      0.0000      1.5896
  5      0.0000      0.4401      2.0665      0.4934      1.4143      0.0000      0.0000      1.1135      1.9578
  6      0.0000      0.2773      0.1739      0.0000      0.0000      0.0000      0.0000      2.0205      0.0000
  7      0.0000      0.3173      0.0000      1.5665      0.0000      0.0000      0.0000      0.0000      0.0000
  8      0.0000      0.3261      0.0000      0.0000      0.0000      0.6634      1.0733      0.0000      0.0000
  9      0.0000      0.2708      0.2338      0.1830      0.0000      0.0000      0.2199      0.0000      0.0000
 10     12.6575      0.5248      3.3131      0.3024      1.4904      0.0000      0.6116      1.2392      0.0000
 11      0.0000      0.3549      1.9117      0.0000      0.0000      0.0546      0.0000      0.0000      0.0000
 12      0.0000      0.2552      0.0000      0.0000      0.0000      0.0000      0.0000      0.0000      0.0000
 13      0.0000      0.1830      0.0000      0.0000      0.0000      0.0000      0.0000      0.0000      0.0000
 14      0.0000      0.1567      0.0000      0.0000      0.0000      0.0000      0.0000      0.0000      0.0000
 15      0.0000      0.0452      0.0000      0.0000      0.0000      0.0000      0.0000      0.0000      0.0000
 16      0.0000      0.0297      0.0000      0.0000      0.0000      0.0000      0.0000      0.0000      0.0000
 17      0.0000      0.0257      0.0000      0.0000      0.0000      0.0000      0.0000      0.0000      0.0000
 18      0.0000      0.0533      0.0000      0.0000      0.0000      0.0000      0.0000      0.0000      0.0000
 19      0.0000      0.0790      0.0000      0.0000      0.0000      0.0000      0.0000      0.0000      0.0593
 20      0.0000      0.1306      0.0000      0.0000      0.1932      0.3668      0.0000      0.1822      0.1553
 21      0.0000      0.7099      0.5394      2.4498      2.1947      0.0659      1.2103      0.0000      0.0000
 22      0.0000      0.1467      0.0000      0.0000      0.0000      0.0000      0.0000      0.2871      0.0000
 23      0.0000      0.4695      0.0000      0.0000      0.0000      2.7141      1.9013      0.0000      0.3899
 24      0.0000      0.2041      0.0000      0.0000      0.0000      0.2221      0.0000      0.4771      0.5667
 25      0.0000      0.6216      0.9416      0.1924      0.0000      2.5957      0.0000      0.3844      1.5356
 26      0.0000      0.9183      0.0000      5.3373      0.8906      0.0000      0.0000      0.0410      0.1111
 27      0.0000      0.2945      0.0000      0.0000      0.2986      0.9673      0.2869      0.0000      0.0000
 28      0.0000      0.1314      0.0000      0.0000      0.0000      0.0000      0.0000      0.0000      0.0000
 29      0.0000      0.0351      0.0000      0.0000      0.1517      0.0000      0.0000      0.0206      0.0000
 30      0.0000      0.0371      0.0000      0.0000      0.0000      0.0002      0.0000      0.0000      0.0000
 31      0.0000      0.0825      0.0000      0.0000      0.0000      0.0000      0.0000      0.0000      0.0000
 32      0.0000      0.0390      0.0000      0.0000      0.0000      0.0000      0.0000      0.0000      0.0000
 33      0.0000      0.0108      0.0000      0.0000      0.0000      0.0000      0.0000      0.0000      0.0000
 34      0.0000      0.0045      0.0000      0.0000      0.0000      0.0000      0.0000      0.0000      0.0000
 35      0.0000      0.3864      0.0000      0.0000      0.1951      0.0000      1.6063      0.0000      0.9325
 36      0.0000      0.0649      0.0000      0.0000      0.0000      0.0653      0.0000      0.0000      0.0000
 37      0.0000      0.2366      0.0000      0.0000      1.1916      0.0000      0.0000      0.0000      0.6294
 38      0.0000      0.0663      0.0000      0.0000      0.0017      0.0000      0.0000      0.0000      0.0000
 39      0.0000      0.4223      0.0000      0.0000      0.0000      0.0000      0.0000      0.0342      0.8918
 40      0.0000      0.0664      0.0000      0.0000      0.0000      0.0000      0.0000      0.0000      0.0000
 41      0.0000      0.2315      0.0000      1.2350      0.8693      0.0000      0.0829      0.0000      0.1566
 42      0.0000      0.5505      1.2681      0.0000      0.0000      1.2886      0.6173      0.0000      0.0000
 43      0.0066      0.9002      0.0000      0.9817      2.0236      1.3310      0.0000      1.3010      0.0000
 44      0.0000      1.2726      0.0000      0.0000      0.0000      0.0000      0.5671      0.0711      1.0853
 45      0.0000      0.4830      0.0000      0.0000      0.3244      0.1005      0.0000      0.0000      0.0000
 46      0.0000      0.2462      0.0000      0.0000      0.0000      0.0000      0.0000      0.0000      0.0000
