###################################################################
## OUTPUT of StarlightChains_v04.for    [Cid@UFSC - 01/Apr/2007] ##
###################################################################

## Some input info
2001en.txt                               [arq_obs]
Base.CB07.vall.4m                        [arq_base]
Masks.EmLines.NEW.gm                     [arq_masks]
StCv04.C11.config                        [arq_config]
   66                                    [N_base]
    0                                    [N_YAV_components = # of components with extra extinction!]
    0                                    [i_FitPowerLaw (1/0 = Yes/No)]
-9.99                                    [alpha_PowerLaw]
CCM                                      [red_law_option]
 1.458241                                [q_norm = A(l_norm)/A(V)]

## (Re)Sampling Parameters
 3741.00                                 [l_ini (A)]
 7218.00                                 [l_fin (A)]
    1.00                                 [dl    (A)]     (OBS: dl_cushion =    50.00 A)

## Normalization info
 4020.00                                 [l_norm (A) - for base]
 4010.00                                 [llow_norm (A) - window for f_obs]
 4060.00                                 [lupp_norm (A) - window for f_obs]
6.019943E-17                             [fobs_norm (in input units)]

## S/N
 3691.00                                 [llow_SN (A) - window for S/N]
 7268.00                                 [lupp_SN (A) - window for S/N]
   7.166                                 [S/N in S/N window]
   6.449                                 [S/N in norm. window]
  12.176                                 [S/N_err in S/N window]
  10.958                                 [S/N_err in norm. window]
  1.0000                                 [fscale_chi2]

## etc...
    -2007257                             [idum_orig]
  2385                                   [NOl_eff]
  2385                                   [Nl_eff]
     0    NSIGMA                         [Ntot_cliped & clip_method]
  1811180                                [Nglobal_steps]
   7                                     [N_chains]
  32                                     [NEX0s_base = N_base in EX0s-fits]
 0   0   1        1   2.0   1.879E+01    [Clip-Bug, RC-Crash & Burn-In warning-flags, n_censored_weights, wei_nsig_threshold & wei_limit]
    17     16.563     16.062      0.501  [idt_all, wdt_TotTime, wdt_UsrTime & wdt_SysTime (sec)]

## Synthesis Results - Best model ##

 5.06589E-01                             [chi2/Nl_eff]
     5.43520                             [adev (%)]

   106.63257                             [sum-of-x (%)]
 1.39307E-16                             [Flux_tot (units of input spectrum!)]
 2.33068E-12                             [Mini_tot (???)]
 1.21397E-12                             [Mcor_tot (???)]

 -14.85                                  [v0_min  (km/s)]
 186.08                                  [vd_min  (km/s)]
 0.5769                                  [AV_min  (mag)]
 0.0000                                  [YAV_min (mag)]

# j     x_j(%)      Mini_j(%)     Mcor_j(%)     age_j(yr)     Z_j      (L/M)_j    YAV?  Mstars   component_j        a/Fe...       SSP_chi2r SSP_adev(%)   SSP_AV   SSP_x(%)
  1      0.0000     0.0000E+00    0.0000E+00    1.000000E+06  0.00400  1.094E-02    0   1.0000   age020_m42            0.0000     1.1087E+00     7.7806   3.4752    87.7318
  2      0.0000     0.0000E+00    0.0000E+00    3.160000E+06  0.00400  4.007E-02    0   0.9999   age045_m42            0.0000     9.3725E-01     7.0268   2.7494    93.7688
  3      0.0000     0.0000E+00    0.0000E+00    5.010000E+06  0.00400  2.539E-02    0   0.9488   age055_m42            0.0000     9.8695E-01     7.2658   3.0652    91.6382
  4      0.0000     0.0000E+00    0.0000E+00    6.610000E+06  0.00400  2.620E-02    0   0.9220   age061_m42            0.0000     8.8833E-01     6.9295   2.6644    94.4657
  5      0.0000     0.0000E+00    0.0000E+00    1.000000E+07  0.00400  1.322E-02    0   0.8862   age070_m42            0.0000     7.4154E-01     6.6663   2.3053    99.9073
  6      0.0007     4.9637E-06    8.1680E-06    1.445000E+07  0.00400  7.883E-03    0   0.8571   age078_m42            0.0000     7.9251E-01     6.8747   2.6401    97.0269
  7      0.0000     0.0000E+00    0.0000E+00    2.512000E+07  0.00400  5.251E-03    0   0.8174   age090_m42            0.0000     7.2983E-01     6.6702   2.1619   101.0848
  8      0.0000     0.0000E+00    0.0000E+00    4.000000E+07  0.00400  3.649E-03    0   0.7851   age104_m42            0.0000     7.0550E-01     6.5273   1.9417   101.6006
  9      0.0000     0.0000E+00    0.0000E+00    5.500000E+07  0.00400  3.098E-03    0   0.7629   age110_m42            0.0000     7.3174E-01     6.5445   2.1286   100.0842
 10      0.0000     0.0000E+00    0.0000E+00    1.015200E+08  0.00400  2.228E-03    0   0.7207   age116_m42            0.0000     7.5283E-01     6.6108   2.1701    99.3217
 11      0.0000     0.0000E+00    0.0000E+00    2.861200E+08  0.00400  1.093E-03    0   0.6648   age125_m42            0.0000     6.6199E-01     6.3596   1.5653   103.9732
 12      0.0000     0.0000E+00    0.0000E+00    5.088000E+08  0.00400  6.597E-04    0   0.6365   age130_m42            0.0000     6.6176E-01     6.3460   1.5927   103.1031
 13      1.9455     5.1149E-01    5.6937E-01    1.434000E+09  0.00400  2.132E-04    0   0.5798   age139_m42            0.0000     5.5974E-01     5.7141   0.6450   104.0924
 14      0.0000     0.0000E+00    0.0000E+00    4.250000E+09  0.00400  5.895E-05    0   0.5377   age158_m42            0.0000     6.4142E-01     5.8856   0.2604    97.6449
 15      2.5723     4.1078E+00    4.1104E+00    7.500000E+09  0.00400  3.510E-05    0   0.5212   age171_m42            0.0000     6.7805E-01     6.0716   0.0933    96.1186
 16      0.4087     1.1425E+00    1.1042E+00    1.300000E+10  0.00400  2.005E-05    0   0.5034   age193_m42            0.0000     7.2507E-01     6.2940  -0.0534    94.8391
 17      6.2211     2.2866E+01    2.1805E+01    1.800000E+10  0.00400  1.525E-05    0   0.4967   age213_m42            0.0000     7.1148E-01     6.2386  -0.0809    94.6071
 18      0.0000     0.0000E+00    0.0000E+00    1.000000E+06  0.00800  1.238E-02    0   1.0000   age020_m52            0.0000     1.1091E+00     7.7790   3.4715    87.9033
 19      0.0000     0.0000E+00    0.0000E+00    3.160000E+06  0.00800  3.074E-02    0   0.9966   age045_m52            0.0000     1.1054E+00     7.7420   3.3998    88.4865
 20      0.0205     4.3101E-05    7.8140E-05    5.010000E+06  0.00800  2.668E-02    0   0.9443   age055_m52            0.0000     9.9549E-01     7.3483   3.1438    90.9764
 21      0.0000     0.0000E+00    0.0000E+00    6.610000E+06  0.00800  2.136E-02    0   0.9177   age061_m52            0.0000     6.8584E-01     6.3460   1.8161   100.5762
 22      0.0000     0.0000E+00    0.0000E+00    1.000000E+07  0.00800  1.215E-02    0   0.8827   age070_m52            0.0000     7.2729E-01     6.7634   2.4611   100.7466
 23      0.0000     0.0000E+00    0.0000E+00    1.445000E+07  0.00800  8.717E-03    0   0.8552   age078_m52            0.0000     7.5632E-01     6.7495   2.6031    98.4835
 24      0.0000     0.0000E+00    0.0000E+00    2.512000E+07  0.00800  5.592E-03    0   0.8162   age090_m52            0.0000     6.9146E-01     6.5737   2.2195   102.5761
 25      0.0000     0.0000E+00    0.0000E+00    4.000000E+07  0.00800  3.896E-03    0   0.7841   age104_m52            0.0000     6.7806E-01     6.4565   2.1450   102.7611
 26      0.0000     0.0000E+00    0.0000E+00    1.015200E+08  0.00800  2.148E-03    0   0.7226   age116_m52            0.0000     7.0278E-01     6.4440   2.1190   100.9605
 27      0.0000     0.0000E+00    0.0000E+00    2.861200E+08  0.00800  9.925E-04    0   0.6683   age125_m52            0.0000     6.5527E-01     6.3553   1.6540   104.2102
 28     19.1999     3.4263E+00    4.0377E+00    9.047900E+08  0.00800  3.141E-04    0   0.6138   age135_m52            0.0000     5.8771E-01     5.8858   0.9042   106.2489
 29     14.8890     4.8550E+00    5.4556E+00    1.434000E+09  0.00800  1.719E-04    0   0.5853   age139_m52            0.0000     5.5897E-01     5.6434   0.3308   103.8239
 30      0.0000     0.0000E+00    0.0000E+00    2.500000E+09  0.00800  7.872E-05    0   0.5600   age150_m52            0.0000     6.8254E-01     6.1516   0.1233    98.3657
 31      0.0000     0.0000E+00    0.0000E+00    4.250000E+09  0.00800  4.336E-05    0   0.5426   age158_m52            0.0000     6.9511E-01     6.2019   0.1121    97.2720
 32      4.9886     8.8517E+00    9.0393E+00    6.250000E+09  0.00800  3.159E-05    0   0.5319   age166_m52            0.0000     7.8188E-01     6.6254  -0.0599    96.0002
 33      0.0000     0.0000E+00    0.0000E+00    1.300000E+10  0.00800  1.361E-05    0   0.5073   age193_m52            0.0000     9.4139E-01     7.4303  -0.4872    93.6790
 34      4.9756     2.8211E+01    2.7027E+01    1.800000E+10  0.00800  9.886E-06    0   0.4990   age213_m52            0.0000     1.0753E+00     8.1188  -0.5608    91.8342
 35      2.1303     7.7337E-03    1.4848E-02    1.000000E+06  0.02000  1.544E-02    0   1.0000   age020_m62            0.0000     1.1149E+00     7.7996   3.4678    88.0947
 36      0.0000     0.0000E+00    0.0000E+00    3.160000E+06  0.02000  3.762E-02    0   0.9858   age045_m62            0.0000     1.1170E+00     7.7984   3.4103    88.7297
 37      0.0000     0.0000E+00    0.0000E+00    5.010000E+06  0.02000  3.296E-02    0   0.9342   age055_m62            0.0000     9.7251E-01     7.1928   3.0327    92.4597
 38      0.0000     0.0000E+00    0.0000E+00    8.710000E+06  0.02000  1.154E-02    0   0.8861   age067_m62            0.0000     9.6647E-01     8.5502   1.7723   110.4145
 39      1.1149     8.1553E-03    1.3265E-02    1.445000E+07  0.02000  7.663E-03    0   0.8472   age078_m62            0.0000     7.0876E-01     6.9207   2.0605   105.2840
 40      0.0000     0.0000E+00    0.0000E+00    2.512000E+07  0.02000  4.532E-03    0   0.8099   age090_m62            0.0000     7.3822E-01     7.0341   2.0436   105.4387
 41      0.0000     0.0000E+00    0.0000E+00    5.500000E+07  0.02000  2.733E-03    0   0.7595   age110_m62            0.0000     6.6990E-01     6.4388   2.1286   101.9823
 42      0.0000     0.0000E+00    0.0000E+00    1.609000E+08  0.02000  1.369E-03    0   0.6985   age120_m62            0.0000     6.8571E-01     6.4547   2.0052   103.0138
 43      0.0020     1.2182E-04    1.5702E-04    2.861200E+08  0.02000  9.013E-04    0   0.6714   age125_m62            0.0000     6.8259E-01     6.4989   1.7745   105.0327
 44      0.0000     0.0000E+00    0.0000E+00    5.088000E+08  0.02000  5.028E-04    0   0.6449   age130_m62            0.0000     6.9805E-01     6.4285   1.4485   105.3861
 45      1.9928     4.6006E-01    5.4576E-01    9.047900E+08  0.02000  2.428E-04    0   0.6179   age135_m62            0.0000     6.4189E-01     6.0335   0.8901   103.5298
 46      0.6841     3.0359E-01    3.4435E-01    1.434000E+09  0.02000  1.263E-04    0   0.5908   age139_m62            0.0000     6.6639E-01     6.0979   0.4632   101.2589
 47      0.0000     0.0000E+00    0.0000E+00    2.500000E+09  0.02000  5.985E-05    0   0.5673   age150_m62            0.0000     8.0218E-01     6.7001   0.1441    97.8420
 48      0.0000     0.0000E+00    0.0000E+00    4.250000E+09  0.02000  3.271E-05    0   0.5468   age158_m62            0.0000     9.9061E-01     7.6386  -0.1108    94.9050
 49      1.7610     7.2581E+00    7.2001E+00    1.000000E+10  0.02000  1.360E-05    0   0.5167   age181_m62            0.0000     1.2254E+00     8.8291  -0.4071    92.4002
 50      0.0000     0.0000E+00    0.0000E+00    1.800000E+10  0.02000  7.124E-06    0   0.5013   age213_m62            0.0000     1.4370E+00     9.7866  -0.5731    89.9319
 51      0.0000     0.0000E+00    0.0000E+00    1.000000E+06  0.05000  2.592E-02    0   0.9998   age020_m72            0.0000     1.1293E+00     7.8664   3.4582    88.1604
 52      0.0000     0.0000E+00    0.0000E+00    3.160000E+06  0.05000  4.845E-02    0   0.9577   age045_m72            0.0000     1.0855E+00     7.6153   3.3016    89.5820
 53      3.4273     6.2537E-03    1.0982E-02    5.010000E+06  0.05000  3.072E-02    0   0.9147   age055_m72            0.0000     7.9322E-01     7.0206   2.6977    98.9882
 54     21.7043     8.3615E-02    1.4250E-01    6.610000E+06  0.05000  1.455E-02    0   0.8877   age061_m72            0.0000     1.8938E+00    11.0823   1.7503   115.0515
 55      0.0000     0.0000E+00    0.0000E+00    1.000000E+07  0.05000  9.074E-03    0   0.8524   age070_m72            0.0000     1.0950E+00     7.6679   2.8713    99.1883
 56      0.0000     0.0000E+00    0.0000E+00    2.512000E+07  0.05000  4.250E-03    0   0.7902   age090_m72            0.0000     8.4780E-01     7.0240   2.5698   101.0695
 57      0.0000     0.0000E+00    0.0000E+00    4.000000E+07  0.05000  3.087E-03    0   0.7618   age104_m72            0.0000     8.2965E-01     6.9790   2.3282   103.3989
 58      0.0000     0.0000E+00    0.0000E+00    1.015200E+08  0.05000  1.700E-03    0   0.7096   age116_m72            0.0000     6.8501E-01     6.4780   2.1226   103.7438
 59      1.4783     1.1222E-01    1.4291E-01    2.861200E+08  0.05000  7.384E-04    0   0.6633   age125_m72            0.0000     6.6276E-01     6.4017   1.6676   105.2930
 60     11.3024     1.6589E+00    2.0294E+00    5.088000E+08  0.05000  3.819E-04    0   0.6372   age130_m72            0.0000     6.7977E-01     6.2762   1.2260   104.6362
 61      0.0000     0.0000E+00    0.0000E+00    9.047900E+08  0.05000  1.676E-04    0   0.6110   age135_m72            0.0000     8.3250E-01     6.7889   0.6001    99.7138
 62      2.0108     1.2754E+00    1.4383E+00    1.434000E+09  0.05000  8.837E-05    0   0.5874   age139_m72            0.0000     8.2930E-01     6.8386   0.1480    99.0752
 63      0.0000     0.0000E+00    0.0000E+00    2.500000E+09  0.05000  4.233E-05    0   0.5598   age150_m72            0.0000     1.0606E+00     8.0064  -0.0966    95.0958
 64      3.8026     1.4853E+01    1.4968E+01    6.250000E+09  0.05000  1.435E-05    0   0.5249   age166_m72            0.0000     1.3186E+00     9.2043  -0.4877    91.3673
 65      0.0000     0.0000E+00    0.0000E+00    1.300000E+10  0.05000  6.513E-06    0   0.5036   age193_m72            0.0000     1.6093E+00    10.4030  -0.7113    89.9816
 66      0.0000     0.0000E+00    0.0000E+00    1.800000E+10  0.05000  4.527E-06    0   0.4945   age213_m72            0.0000     1.8120E+00    11.1338  -0.8374    88.4312


## Synthesis Results - Average & Chains ##

# j      x_j: min, <> & last-chain-values for 1 ...  7 chains
  1      0.0000      0.1833      0.2614      0.7113      0.0000      0.5510      0.0000      0.1026      0.2969
  2      0.0000      0.8519      1.4487      0.0000      1.0291      0.0000      0.4898      0.8657      0.6994
  3      0.0000      0.4969      0.0000      0.4924      0.0000      0.6464      0.0000      0.9174      1.7104
  4      0.0000      0.4794      0.0000      0.1395      0.0000      1.0123      0.7039      0.0000      0.0000
  5      0.0000      0.3180      0.0614      0.8777      0.0000      0.4987      0.0000      0.0000      0.0000
  6      0.0007      0.5091      0.0000      0.0000      0.0000      0.6934      0.8060      0.0000      0.0000
  7      0.0000      0.2709      0.1299      0.0000      0.0000      1.1352      0.3147      0.4556      0.0000
  8      0.0000      0.3769      0.0000      0.0000      0.0000      0.0000      0.0000      0.0000      0.2227
  9      0.0000      0.2511      0.7807      0.0000      0.0000      0.0000      0.5655      0.0000      0.0000
 10      0.0000      0.4449      0.0000      1.4597      0.0000      0.0000      0.0000      1.7093      0.0000
 11      0.0000      1.4500      1.2795      1.0849      3.4805      0.0000      0.0000      1.5884      0.9408
 12      0.0000      0.8280      1.1904      0.0000      0.2259      0.0000      0.0000      0.7659      0.8522
 13      1.9455      5.7160      3.7522      5.4209      3.7859      3.9546      7.5101      7.4109      0.5370
 14      0.0000      1.0995      0.9355      0.9069      0.0000      2.2477      1.4405      1.9041      0.0000
 15      2.5723      2.9111      4.7280      3.1789      6.2107      2.6507      4.1013      3.3960      1.5579
 16      0.4087      0.4113      0.0000      0.5250      0.0000      0.8027      0.5111      0.0226      0.6979
 17      6.2211      2.7842      2.8631      3.6873      3.2072      2.5777      3.0477      4.5153      2.8076
 18      0.0000      0.2510      0.0000      0.0000      0.0000      0.9272      0.3257      0.0000      0.0000
 19      0.0000      0.3542      0.0000      0.0000      0.0000      0.0000      0.2730      0.3076      0.7149
 20      0.0205      0.2070      0.0000      0.2209      0.0000      0.8033      1.6123      0.0000      0.0000
 21      0.0000      0.8582      0.7920      0.3284      0.0000      0.0000      0.0000      2.4223      0.2329
 22      0.0000      0.2963      2.2542      0.0000      0.3124      0.5317      0.0000      0.0000      0.0000
 23      0.0000      0.4056      0.2525      0.0778      0.0000      0.0000      0.0000      0.0000      0.3806
 24      0.0000      0.5093      1.2336      0.0000      0.1824      0.0000      0.2124      0.0000      0.0000
 25      0.0000      1.1830      0.9106      1.2066      1.8897      1.4936      1.1201      1.8256      0.6033
 26      0.0000      0.4655      0.2679      0.0000      0.0000      0.5600      0.0000      0.0000      0.0000
 27      0.0000      0.7333      0.6329      1.6009      0.0528      0.6398      0.1216      0.0000      2.8103
 28     19.1999      9.2022      9.3065     12.9984     10.1158     11.5839     14.3875     16.3346     10.4309
 29     14.8890     15.8908     16.4168     13.2831     18.9274     15.9651     19.6113     16.1325     17.9331
 30      0.0000      5.7629      4.5371      5.5420      0.0000      6.4209      5.8014      4.5898      3.4701
 31      0.0000      3.5616      2.9813      3.0132      4.5158      3.1261      0.0000      4.0937      3.4360
 32      4.9886      3.9142      4.4845      3.6841      4.2346      4.2943      2.9314      3.2343      3.8981
 33      0.0000      0.6668      0.7524      0.5714      0.0000      1.7447      0.0000      0.0000      0.8529
 34      4.9756      1.7578      1.1981      2.1230      1.7792      1.8605      2.3805      2.0494      1.6321
 35      2.1303      0.5379      0.0000      0.3306      0.1154      0.9682      1.1687      0.0000      0.0000
 36      0.0000      0.1739      0.0359      0.1572      0.9640      0.0000      0.0000      0.2588      0.3691
 37      0.0000      0.6788      0.0000      0.7652      1.0829      0.0000      0.0900      0.9668      0.0000
 38      0.0000      0.6880      1.6103      0.1531      1.7450      0.0636      0.0000      4.0420      0.0000
 39      1.1149      0.7227      0.0000      0.0000      0.0000      0.0000      0.7341      0.0000      1.4666
 40      0.0000      0.6217      0.8198      0.0000      0.1924      0.0000      0.0000      1.9142      0.0000
 41      0.0000      1.4745      2.4886      0.0000      1.5323      0.0000      3.9535      0.0000      1.5875
 42      0.0000      0.4108      0.2656      0.0000      0.0183      0.0000      0.0000      0.1545      0.1652
 43      0.0020      0.7244      0.0000      1.7499      0.0000      0.0000      0.6204      0.0000      0.3250
 44      0.0000      0.4689      0.9837      1.0427      1.9740      0.0000      0.0000      0.0000      0.4362
 45      1.9928      2.2162      1.6772      2.3641      1.7881      1.9454      0.9925      3.1029      0.0000
 46      0.6841      2.1145      1.5944      2.3943      0.9465      1.0399      3.8796      0.0000      4.5926
