###################################################################
## OUTPUT of StarlightChains_v04.for    [Cid@UFSC - 01/Apr/2007] ##
###################################################################

## Some input info
2001co.txt                               [arq_obs]
Base.CB07.vall.4m                        [arq_base]
Masks.EmLines.NEW.gm                     [arq_masks]
StCv04.C11.config                        [arq_config]
   66                                    [N_base]
    0                                    [N_YAV_components = # of components with extra extinction!]
    0                                    [i_FitPowerLaw (1/0 = Yes/No)]
-9.99                                    [alpha_PowerLaw]
CCM                                      [red_law_option]
 1.458241                                [q_norm = A(l_norm)/A(V)]

## (Re)Sampling Parameters
 3741.00                                 [l_ini (A)]
 7218.00                                 [l_fin (A)]
    1.00                                 [dl    (A)]     (OBS: dl_cushion =    50.00 A)

## Normalization info
 4020.00                                 [l_norm (A) - for base]
 4010.00                                 [llow_norm (A) - window for f_obs]
 4060.00                                 [lupp_norm (A) - window for f_obs]
5.589050E-17                             [fobs_norm (in input units)]

## S/N
 3691.00                                 [llow_SN (A) - window for S/N]
 7268.00                                 [lupp_SN (A) - window for S/N]
   7.686                                 [S/N in S/N window]
   7.337                                 [S/N in norm. window]
  13.656                                 [S/N_err in S/N window]
  13.035                                 [S/N_err in norm. window]
  1.0000                                 [fscale_chi2]

## etc...
    -2007254                             [idum_orig]
  2383                                   [NOl_eff]
  2331                                   [Nl_eff]
    52    NSIGMA                         [Ntot_cliped & clip_method]
  1431010                                [Nglobal_steps]
   7                                     [N_chains]
  22                                     [NEX0s_base = N_base in EX0s-fits]
 0   0   1       25   2.0   2.476E+01    [Clip-Bug, RC-Crash & Burn-In warning-flags, n_censored_weights, wei_nsig_threshold & wei_limit]
    14     14.406     13.910      0.496  [idt_all, wdt_TotTime, wdt_UsrTime & wdt_SysTime (sec)]

## Synthesis Results - Best model ##

 6.58305E-01                             [chi2/Nl_eff]
     4.65788                             [adev (%)]

   104.10233                             [sum-of-x (%)]
 1.34516E-16                             [Flux_tot (units of input spectrum!)]
 2.17685E-12                             [Mini_tot (???)]
 1.12517E-12                             [Mcor_tot (???)]

 104.41                                  [v0_min  (km/s)]
 120.09                                  [vd_min  (km/s)]
 0.6240                                  [AV_min  (mag)]
 0.0000                                  [YAV_min (mag)]

# j     x_j(%)      Mini_j(%)     Mcor_j(%)     age_j(yr)     Z_j      (L/M)_j    YAV?  Mstars   component_j        a/Fe...       SSP_chi2r SSP_adev(%)   SSP_AV   SSP_x(%)
  1      0.0000     0.0000E+00    0.0000E+00    1.000000E+06  0.00400  1.094E-02    0   1.0000   age020_m42            0.0000     1.8566E+00     8.3809   3.4893    79.8226
  2      0.0000     0.0000E+00    0.0000E+00    3.160000E+06  0.00400  4.007E-02    0   0.9999   age045_m42            0.0000     1.3919E+00     7.0966   2.7096    87.7463
  3      0.0000     0.0000E+00    0.0000E+00    5.010000E+06  0.00400  2.539E-02    0   0.9488   age055_m42            0.0000     1.5583E+00     7.5784   3.0510    84.6273
  4      0.0000     0.0000E+00    0.0000E+00    6.610000E+06  0.00400  2.620E-02    0   0.9220   age061_m42            0.0000     1.3197E+00     6.8402   2.6269    88.3439
  5      0.0000     0.0000E+00    0.0000E+00    1.000000E+07  0.00400  1.322E-02    0   0.8862   age070_m42            0.0000     1.1930E+00     6.1724   2.3053    91.9100
  6      0.0000     0.0000E+00    0.0000E+00    1.445000E+07  0.00400  7.883E-03    0   0.8571   age078_m42            0.0000     1.3297E+00     6.6098   2.6520    88.6830
  7      0.0000     0.0000E+00    0.0000E+00    2.512000E+07  0.00400  5.251E-03    0   0.8174   age090_m42            0.0000     1.1772E+00     6.0512   2.1633    92.9691
  8      0.0000     0.0000E+00    0.0000E+00    4.000000E+07  0.00400  3.649E-03    0   0.7851   age104_m42            0.0000     1.0832E+00     5.8400   1.9290    94.1087
  9      0.0000     0.0000E+00    0.0000E+00    5.500000E+07  0.00400  3.098E-03    0   0.7629   age110_m42            0.0000     1.0758E+00     5.8828   2.0938    93.6604
 10      0.0000     0.0000E+00    0.0000E+00    1.015200E+08  0.00400  2.228E-03    0   0.7207   age116_m42            0.0000     1.0915E+00     5.9503   2.1198    93.6282
 11      0.0000     0.0000E+00    0.0000E+00    2.861200E+08  0.00400  1.093E-03    0   0.6648   age125_m42            0.0000     9.2075E-01     5.3712   1.5146    98.2555
 12      0.0000     0.0000E+00    0.0000E+00    5.088000E+08  0.00400  6.597E-04    0   0.6365   age130_m42            0.0000     9.2527E-01     5.4785   1.5151    98.6399
 13      0.0000     0.0000E+00    0.0000E+00    1.434000E+09  0.00400  2.132E-04    0   0.5798   age139_m42            0.0000     7.4113E-01     4.9426   0.5284   101.4799
 14      0.0000     0.0000E+00    0.0000E+00    4.250000E+09  0.00400  5.895E-05    0   0.5377   age158_m42            0.0000     9.6411E-01     5.7596   0.1341    95.4722
 15      0.0000     0.0000E+00    0.0000E+00    7.500000E+09  0.00400  3.510E-05    0   0.5212   age171_m42            0.0000     1.0874E+00     6.1117  -0.0385    94.2163
 16      0.0000     0.0000E+00    0.0000E+00    1.300000E+10  0.00400  2.005E-05    0   0.5034   age193_m42            0.0000     1.2178E+00     6.4803  -0.1877    93.0798
 17      0.0000     0.0000E+00    0.0000E+00    1.800000E+10  0.00400  1.525E-05    0   0.4967   age213_m42            0.0000     1.2117E+00     6.4414  -0.2136    92.7657
 18      0.0000     0.0000E+00    0.0000E+00    1.000000E+06  0.00800  1.238E-02    0   1.0000   age020_m52            0.0000     1.8531E+00     8.3814   3.4856    79.9764
 19      0.0000     0.0000E+00    0.0000E+00    3.160000E+06  0.00800  3.074E-02    0   0.9966   age045_m52            0.0000     1.8110E+00     8.3039   3.4043    80.8775
 20      0.0000     0.0000E+00    0.0000E+00    5.010000E+06  0.00800  2.668E-02    0   0.9443   age055_m52            0.0000     1.5822E+00     7.6641   3.1361    83.7372
 21      0.0000     0.0000E+00    0.0000E+00    6.610000E+06  0.00800  2.136E-02    0   0.9177   age061_m52            0.0000     1.0967E+00     6.0828   1.8084    92.8393
 22      0.0000     0.0000E+00    0.0000E+00    1.000000E+07  0.00800  1.215E-02    0   0.8827   age070_m52            0.0000     1.2498E+00     6.2554   2.4803    91.8541
 23      0.0000     0.0000E+00    0.0000E+00    1.445000E+07  0.00800  8.717E-03    0   0.8552   age078_m52            0.0000     1.2614E+00     6.4036   2.6091    90.2894
 24      0.0236     2.5065E-04    3.9580E-04    2.512000E+07  0.00800  5.592E-03    0   0.8162   age090_m52            0.0000     1.1269E+00     5.8843   2.2195    94.4422
 25      3.2101     4.8909E-02    7.4194E-02    4.000000E+07  0.00800  3.896E-03    0   0.7841   age104_m52            0.0000     1.0314E+00     5.6537   2.1286    95.4018
 26      0.0000     0.0000E+00    0.0000E+00    1.015200E+08  0.00800  2.148E-03    0   0.7226   age116_m52            0.0000     9.8204E-01     5.6282   2.0732    95.0326
 27      0.0062     3.6906E-04    4.7717E-04    2.861200E+08  0.00800  9.925E-04    0   0.6683   age125_m52            0.0000     8.8247E-01     5.3310   1.5758    99.7593
 28     33.6168     6.3529E+00    7.5442E+00    9.047900E+08  0.00800  3.141E-04    0   0.6138   age135_m52            0.0000     7.9825E-01     5.1179   0.7692   104.5593
 29      0.0000     0.0000E+00    0.0000E+00    1.434000E+09  0.00800  1.719E-04    0   0.5853   age139_m52            0.0000     8.2644E-01     5.1907   0.2044   101.6879
 30      0.0000     0.0000E+00    0.0000E+00    2.500000E+09  0.00800  7.872E-05    0   0.5600   age150_m52            0.0000     1.0839E+00     6.0865  -0.0199    96.9830
 31      0.0000     0.0000E+00    0.0000E+00    4.250000E+09  0.00800  4.336E-05    0   0.5426   age158_m52            0.0000     1.1375E+00     6.2271  -0.0297    95.8214
 32      0.0000     0.0000E+00    0.0000E+00    6.250000E+09  0.00800  3.159E-05    0   0.5319   age166_m52            0.0000     1.3502E+00     6.7907  -0.2144    95.1108
 33     13.8256     6.0299E+01    5.9181E+01    1.300000E+10  0.00800  1.361E-05    0   0.5073   age193_m52            0.0000     1.6866E+00     7.6537  -0.6580    93.4945
 34      4.9610     2.9787E+01    2.8757E+01    1.800000E+10  0.00800  9.886E-06    0   0.4990   age213_m52            0.0000     1.9744E+00     8.3419  -0.7422    92.0822
 35      0.0000     0.0000E+00    0.0000E+00    1.000000E+06  0.02000  1.544E-02    0   1.0000   age020_m62            0.0000     1.8605E+00     8.4152   3.4834    80.0938
 36      0.0000     0.0000E+00    0.0000E+00    3.160000E+06  0.02000  3.762E-02    0   0.9858   age045_m62            0.0000     1.8416E+00     8.3979   3.4213    80.8489
 37      0.0000     0.0000E+00    0.0000E+00    5.010000E+06  0.02000  3.296E-02    0   0.9342   age055_m62            0.0000     1.4758E+00     7.3790   3.0042    85.9928
 38      0.0000     0.0000E+00    0.0000E+00    8.710000E+06  0.02000  1.154E-02    0   0.8861   age067_m62            0.0000     2.0056E+00     7.6787   1.8782    96.7227
 39      0.0000     0.0000E+00    0.0000E+00    1.445000E+07  0.02000  7.663E-03    0   0.8472   age078_m62            0.0000     1.3021E+00     6.2741   2.1006    95.1449
 40      2.0298     2.6586E-02    4.1657E-02    2.512000E+07  0.02000  4.532E-03    0   0.8099   age090_m62            0.0000     1.3331E+00     6.2880   2.0851    95.2659
 41      0.0000     0.0000E+00    0.0000E+00    5.500000E+07  0.02000  2.733E-03    0   0.7595   age110_m62            0.0000     1.0535E+00     5.7126   2.1153    94.5036
 42      0.0000     0.0000E+00    0.0000E+00    1.609000E+08  0.02000  1.369E-03    0   0.6985   age120_m62            0.0000     9.7489E-01     5.5265   1.9504    97.4305
 43      1.5097     9.9425E-02    1.2915E-01    2.861200E+08  0.02000  9.013E-04    0   0.6714   age125_m62            0.0000     9.4997E-01     5.4822   1.6882   100.8869
 44      0.0000     0.0000E+00    0.0000E+00    5.088000E+08  0.02000  5.028E-04    0   0.6449   age130_m62            0.0000     9.5133E-01     5.6301   1.3164   103.4537
 45      4.9845     1.2186E+00    1.4568E+00    9.047900E+08  0.02000  2.428E-04    0   0.6179   age135_m62            0.0000     9.1291E-01     5.5593   0.7422   102.3929
 46      0.0030     1.4169E-03    1.6195E-03    1.434000E+09  0.02000  1.263E-04    0   0.5908   age139_m62            0.0000     1.0220E+00     5.8729   0.3161   100.0554
 47      0.0000     0.0000E+00    0.0000E+00    2.500000E+09  0.02000  5.985E-05    0   0.5673   age150_m62            0.0000     1.3247E+00     6.7772  -0.0135    97.0675
 48      0.0000     0.0000E+00    0.0000E+00    4.250000E+09  0.02000  3.271E-05    0   0.5468   age158_m62            0.0000     1.6999E+00     7.7894  -0.2865    94.9037
 49      0.0000     0.0000E+00    0.0000E+00    1.000000E+10  0.02000  1.360E-05    0   0.5167   age181_m62            0.0000     2.2062E+00     8.9458  -0.6003    93.1489
 50      0.0000     0.0000E+00    0.0000E+00    1.800000E+10  0.02000  7.124E-06    0   0.5013   age213_m62            0.0000     2.6381E+00     9.8682  -0.7752    91.0143
 51      0.0000     0.0000E+00    0.0000E+00    1.000000E+06  0.05000  2.592E-02    0   0.9998   age020_m72            0.0000     1.8982E+00     8.5044   3.4760    80.0470
 52      0.0000     0.0000E+00    0.0000E+00    3.160000E+06  0.05000  4.845E-02    0   0.9577   age045_m72            0.0000     1.7151E+00     8.0777   3.2920    82.4685
 53      0.0000     0.0000E+00    0.0000E+00    5.010000E+06  0.05000  3.072E-02    0   0.9147   age055_m72            0.0000     1.4213E+00     6.8262   2.7370    89.3894
 54     10.4989     4.2832E-02    7.3561E-02    6.610000E+06  0.05000  1.455E-02    0   0.8877   age061_m72            0.0000     3.1911E+00     9.6913   1.9084    98.5918
 55      0.2909     1.9030E-03    3.1383E-03    1.000000E+07  0.05000  9.074E-03    0   0.8524   age070_m72            0.0000     1.6995E+00     7.4834   2.9284    88.9915
 56      0.0000     0.0000E+00    0.0000E+00    2.512000E+07  0.05000  4.250E-03    0   0.7902   age090_m72            0.0000     1.3510E+00     6.5031   2.5935    92.1156
 57      0.0000     0.0000E+00    0.0000E+00    4.000000E+07  0.05000  3.087E-03    0   0.7618   age104_m72            0.0000     1.3087E+00     6.3017   2.3451    94.5955
 58      4.8854     1.7058E-01    2.3418E-01    1.015200E+08  0.05000  1.700E-03    0   0.7096   age116_m72            0.0000     1.0067E+00     5.5133   2.0828    97.4553
 59     24.2569     1.9500E+00    2.5024E+00    2.861200E+08  0.05000  7.384E-04    0   0.6633   age125_m72            0.0000     9.2109E-01     5.4752   1.5575   102.2902
 60      0.0000     0.0000E+00    0.0000E+00    5.088000E+08  0.05000  3.819E-04    0   0.6372   age130_m72            0.0000     9.3275E-01     5.6090   1.0784   103.4196
 61      0.0000     0.0000E+00    0.0000E+00    9.047900E+08  0.05000  1.676E-04    0   0.6110   age135_m72            0.0000     1.2861E+00     6.7419   0.4321    99.3824
 62      0.0000     0.0000E+00    0.0000E+00    1.434000E+09  0.05000  8.837E-05    0   0.5874   age139_m72            0.0000     1.4162E+00     6.9716  -0.0166    98.6255
 63      0.0000     0.0000E+00    0.0000E+00    2.500000E+09  0.05000  4.233E-05    0   0.5598   age150_m72            0.0000     1.8543E+00     8.1640  -0.2786    95.3575
 64      0.0000     0.0000E+00    0.0000E+00    6.250000E+09  0.05000  1.435E-05    0   0.5249   age166_m72            0.0000     2.3682E+00     9.3467  -0.6862    92.2971
 65      0.0000     0.0000E+00    0.0000E+00    1.300000E+10  0.05000  6.513E-06    0   0.5036   age193_m72            0.0000     2.9522E+00    10.5512  -0.9191    91.2699
 66      0.0000     0.0000E+00    0.0000E+00    1.800000E+10  0.05000  4.527E-06    0   0.4945   age213_m72            0.0000     3.3570E+00    11.3688  -1.0000    87.8831


## Synthesis Results - Average & Chains ##

# j      x_j: min, <> & last-chain-values for 1 ...  7 chains
  1      0.0000      0.1404      0.0000      1.1508      0.0000      0.0384      0.6402      0.0000      0.0000
  2      0.0000      0.4449      1.1273      0.0000      1.0161      0.0821      0.0000      0.0000      0.0534
  3      0.0000      0.2120      0.0000      0.0456      0.0000      0.1283      0.0000      0.0000      0.0000
  4      0.0000      0.2231      0.0000      0.0000      0.0000      0.0000      0.7425      0.0000      0.0000
  5      0.0000      0.3400      0.0000      0.0000      0.0000      0.0000      0.0000      0.0000      0.0000
  6      0.0000      0.2344      0.0000      0.0000      0.2051      0.0000      0.2019      0.7706      0.0000
  7      0.0000      0.2811      0.0000      0.0000      0.5916      0.0000      0.0000      0.0000      0.0000
  8      0.0000      0.4307      0.0000      0.0000      0.0000      0.0000      0.0000      0.0000      0.0000
  9      0.0000      0.2893      1.6892      0.0000      0.0000      0.7429      0.0000      1.4782      0.0000
 10      0.0000      0.2706      0.0000      0.0000      0.5151      0.0000      0.2090      0.0000      0.0000
 11      0.0000      0.8162      0.0000      2.3889      0.1253      2.3175      1.4013      0.9247      0.6182
 12      0.0000      0.6089      0.0000      1.0762      0.0000      0.0000      0.0000      0.3430      0.0000
 13      0.0000      3.4968      0.0000      1.9733      0.0000      2.4043      1.3011      0.9765      0.0000
 14      0.0000      0.3883      0.0000      0.0000      0.3664      0.0000      0.0000      0.0000      0.0000
 15      0.0000      0.3657      0.1082      0.0000      0.0000      0.1146      0.0000      0.9374      0.0000
 16      0.0000      0.7587      0.0000      0.0000      0.0000      0.0000      0.0000      0.6111      0.0000
 17      0.0000      0.1172      0.1483      0.0000      0.0000      0.0000      0.0000      0.5094      0.3910
 18      0.0000      0.1689      0.3661      0.0697      0.0000      0.0000      0.0000      0.0000      1.1231
 19      0.0000      0.3682      0.0000      1.1213      0.0000      0.0000      0.6820      0.0000      0.3090
 20      0.0000      0.1734      0.0000      0.0000      0.3559      0.0000      0.0000      0.0000      0.0000
 21      0.0000      0.2978      0.0440      0.0000      0.0000      1.5236      0.0000      0.0908      0.2954
 22      0.0000      0.3712      0.0932      0.0591      0.0000      0.0000      0.0000      0.0000      0.0000
 23      0.0000      0.3390      0.0000      0.0000      0.0000      0.0000      0.1066      2.5204      1.6239
 24      0.0236      1.1474      0.5097      0.8125      1.1112      1.7413      1.1509      0.0000      0.4062
 25      3.2101      1.2448      3.6771      0.7128      0.5701      0.0000      1.9257      0.0000      0.0000
 26      0.0000      0.9757      1.3643      0.5631      3.0662      1.0144      0.0528      0.1512      0.0000
 27      0.0062      1.0802      0.8126      0.0000      0.0000      0.0000      1.0046      0.0000      5.2442
 28     33.6168     22.5731     30.3107     23.4585     24.4837     27.4644     25.7289     26.2218     27.0330
 29      0.0000      2.4496      0.0000      3.0574      2.4908      1.1887      0.0000      2.3862      1.9222
 30      0.0000      0.9108      0.8601      0.0000      0.1569      0.0000      0.7787      0.0889      1.7289
 31      0.0000      0.4330      1.8605      0.0000      0.0000      0.0000      0.0000      1.0474      0.0000
 32      0.0000      1.9953      3.4115      0.0000      1.9966      3.1804      1.9435      2.2889      1.9224
 33     13.8256      7.5800      7.8946      9.6006     10.9335      7.9685     11.0554      8.9282      9.6243
 34      4.9610      3.2603      4.4841      4.1391      3.9756      4.2684      3.8355      3.5636      3.3585
 35      0.0000      0.1637      0.0000      0.0000      0.0000      0.0703      0.0549      0.0000      1.0305
 36      0.0000      0.1462      0.0000      0.0000      1.7940      0.0000      0.0532      0.3214      0.0000
 37      0.0000      0.2924      0.0000      0.7092      0.0000      0.4622      0.0000      0.0000      0.0000
 38      0.0000      1.2412      3.2931      1.7844      0.7885      2.8582      0.3909      0.0000      1.4924
 39      0.0000      0.4044      0.8435      0.1058      0.8615      0.0000      0.6526      0.0000      0.7380
 40      2.0298      0.7710      0.5910      0.0000      0.6991      1.6425      2.6851      1.5989      1.2572
 41      0.0000      0.3808      0.0000      0.0000      0.0000      0.0000      0.0000      0.0000      0.0000
 42      0.0000      1.3942      1.8514      1.2864      4.3822      0.0000      0.0000      1.4829      0.1317
 43      1.5097      3.6113      1.4884      3.7369      1.8477      2.9257      6.8624      5.0684      4.9548
 44      0.0000      0.8909      0.0000      1.8182      1.5940      1.5900      0.0000      0.1685      0.5806
 45      4.9845      3.9377      1.4600      4.3949      2.3079      1.2199      4.5357      0.0000      3.7960
 46      0.0030      4.2399      2.9817      5.4540      5.0206      4.6143      4.2220      4.7618      5.7193
