###################################################################
## OUTPUT of StarlightChains_v04.for    [Cid@UFSC - 01/Apr/2007] ##
###################################################################

## Some input info
2001ch.txt                               [arq_obs]
Base.CB07.vall.4m                        [arq_base]
Masks.EmLines.NEW.gm                     [arq_masks]
StCv04.C11.config                        [arq_config]
   66                                    [N_base]
    0                                    [N_YAV_components = # of components with extra extinction!]
    0                                    [i_FitPowerLaw (1/0 = Yes/No)]
-9.99                                    [alpha_PowerLaw]
CCM                                      [red_law_option]
 1.458241                                [q_norm = A(l_norm)/A(V)]

## (Re)Sampling Parameters
 3741.00                                 [l_ini (A)]
 7218.00                                 [l_fin (A)]
    1.00                                 [dl    (A)]     (OBS: dl_cushion =    50.00 A)

## Normalization info
 4020.00                                 [l_norm (A) - for base]
 4010.00                                 [llow_norm (A) - window for f_obs]
 4060.00                                 [lupp_norm (A) - window for f_obs]
1.430557E-16                             [fobs_norm (in input units)]

## S/N
 3691.00                                 [llow_SN (A) - window for S/N]
 7268.00                                 [lupp_SN (A) - window for S/N]
   3.481                                 [S/N in S/N window]
   5.137                                 [S/N in norm. window]
   7.494                                 [S/N_err in S/N window]
  11.058                                 [S/N_err in norm. window]
  1.0000                                 [fscale_chi2]

## etc...
    -2007253                             [idum_orig]
  2385                                   [NOl_eff]
  2382                                   [Nl_eff]
     3    NSIGMA                         [Ntot_cliped & clip_method]
   992460                                [Nglobal_steps]
   7                                     [N_chains]
  15                                     [NEX0s_base = N_base in EX0s-fits]
 0   0   1       30   2.0   1.885E+01    [Clip-Bug, RC-Crash & Burn-In warning-flags, n_censored_weights, wei_nsig_threshold & wei_limit]
    15     14.317     13.817      0.500  [idt_all, wdt_TotTime, wdt_UsrTime & wdt_SysTime (sec)]

## Synthesis Results - Best model ##

 2.61440E-01                             [chi2/Nl_eff]
     5.25328                             [adev (%)]

   101.21119                             [sum-of-x (%)]
 3.79477E-16                             [Flux_tot (units of input spectrum!)]
 3.02072E-12                             [Mini_tot (???)]
 1.52649E-12                             [Mcor_tot (???)]

-499.45                                  [v0_min  (km/s)]
 150.00                                  [vd_min  (km/s)]
 0.7174                                  [AV_min  (mag)]
 0.0000                                  [YAV_min (mag)]

# j     x_j(%)      Mini_j(%)     Mcor_j(%)     age_j(yr)     Z_j      (L/M)_j    YAV?  Mstars   component_j        a/Fe...       SSP_chi2r SSP_adev(%)   SSP_AV   SSP_x(%)
  1     10.2417     1.1620E-01    2.2994E-01    1.000000E+06  0.00400  1.094E-02    0   1.0000   age020_m42            0.0000     4.3233E-01     6.8798   1.8206    93.0632
  2      0.0000     0.0000E+00    0.0000E+00    3.160000E+06  0.00400  4.007E-02    0   0.9999   age045_m42            0.0000     4.3437E-01     6.9076   1.1447    97.2292
  3      0.0000     0.0000E+00    0.0000E+00    5.010000E+06  0.00400  2.539E-02    0   0.9488   age055_m42            0.0000     4.2164E-01     6.8164   1.4420    95.8663
  4      0.0000     0.0000E+00    0.0000E+00    6.610000E+06  0.00400  2.620E-02    0   0.9220   age061_m42            0.0000     4.2472E-01     6.7823   1.0730    97.4291
  5      0.0000     0.0000E+00    0.0000E+00    1.000000E+07  0.00400  1.322E-02    0   0.8862   age070_m42            0.0000     3.3979E-01     5.9898   0.7805   100.2527
  6      0.0000     0.0000E+00    0.0000E+00    1.445000E+07  0.00400  7.883E-03    0   0.8571   age078_m42            0.0000     3.3933E-01     6.0182   1.0967    98.1944
  7      0.0000     0.0000E+00    0.0000E+00    2.512000E+07  0.00400  5.251E-03    0   0.8174   age090_m42            0.0000     3.3693E-01     5.9420   0.6526   100.7604
  8      0.0000     0.0000E+00    0.0000E+00    4.000000E+07  0.00400  3.649E-03    0   0.7851   age104_m42            0.0000     3.5224E-01     6.0543   0.4328   101.1872
  9      0.0000     0.0000E+00    0.0000E+00    5.500000E+07  0.00400  3.098E-03    0   0.7629   age110_m42            0.0000     3.9705E-01     6.3955   0.6005   100.4524
 10      0.0000     0.0000E+00    0.0000E+00    1.015200E+08  0.00400  2.228E-03    0   0.7207   age116_m42            0.0000     4.3304E-01     6.6641   0.6310   100.1176
 11      0.0000     0.0000E+00    0.0000E+00    2.861200E+08  0.00400  1.093E-03    0   0.6648   age125_m42            0.0000     4.2492E-01     6.4663   0.0692   102.8107
 12      0.0000     0.0000E+00    0.0000E+00    5.088000E+08  0.00400  6.597E-04    0   0.6365   age130_m42            0.0000     4.8448E-01     6.9023   0.0721   102.9347
 13      0.0000     0.0000E+00    0.0000E+00    1.434000E+09  0.00400  2.132E-04    0   0.5798   age139_m42            0.0000     5.5455E-01     7.5324  -0.8890   104.2394
 14      0.0000     0.0000E+00    0.0000E+00    4.250000E+09  0.00400  5.895E-05    0   0.5377   age158_m42            0.0000     9.0627E-01     9.5616  -1.0000    88.5357
 15      4.0434     1.4298E+01    1.4747E+01    7.500000E+09  0.00400  3.510E-05    0   0.5212   age171_m42            0.0000     1.3071E+00    11.4513  -1.0000    81.5178
 16      0.0000     0.0000E+00    0.0000E+00    1.300000E+10  0.00400  2.005E-05    0   0.5034   age193_m42            0.0000     1.7562E+00    13.3286  -1.0000    75.6571
 17      1.6133     1.3131E+01    1.2906E+01    1.800000E+10  0.00400  1.525E-05    0   0.4967   age213_m42            0.0000     1.8121E+00    13.6015  -1.0000    74.5870
 18     15.4314     1.5471E-01    3.0616E-01    1.000000E+06  0.00800  1.238E-02    0   1.0000   age020_m52            0.0000     4.3382E-01     6.8913   1.8166    93.2541
 19      0.0000     0.0000E+00    0.0000E+00    3.160000E+06  0.00800  3.074E-02    0   0.9966   age045_m52            0.0000     4.3712E-01     6.9285   1.7435    93.9225
 20      0.0000     0.0000E+00    0.0000E+00    5.010000E+06  0.00800  2.668E-02    0   0.9443   age055_m52            0.0000     4.1860E-01     6.7760   1.5174    95.3291
 21      0.0000     0.0000E+00    0.0000E+00    6.610000E+06  0.00800  2.136E-02    0   0.9177   age061_m52            0.0000     3.4294E-01     6.0874   0.2707   101.6980
 22      0.0000     0.0000E+00    0.0000E+00    1.000000E+07  0.00800  1.215E-02    0   0.8827   age070_m52            0.0000     3.1867E-01     5.8018   0.9496   100.5884
 23      0.0000     0.0000E+00    0.0000E+00    1.445000E+07  0.00800  8.717E-03    0   0.8552   age078_m52            0.0000     3.3919E-01     6.0200   1.0648    99.4359
 24      0.0000     0.0000E+00    0.0000E+00    2.512000E+07  0.00800  5.592E-03    0   0.8162   age090_m52            0.0000     3.4079E-01     5.9532   0.7184   101.8767
 25      0.0000     0.0000E+00    0.0000E+00    4.000000E+07  0.00800  3.896E-03    0   0.7841   age104_m52            0.0000     3.6393E-01     6.1110   0.6431   102.0459
 26      0.0000     0.0000E+00    0.0000E+00    1.015200E+08  0.00800  2.148E-03    0   0.7226   age116_m52            0.0000     4.0546E-01     6.4563   0.5928   101.2299
 27      0.0000     0.0000E+00    0.0000E+00    2.861200E+08  0.00800  9.925E-04    0   0.6683   age125_m52            0.0000     4.9310E-01     6.9560   0.1377   103.8676
 28      0.0000     0.0000E+00    0.0000E+00    9.047900E+08  0.00800  3.141E-04    0   0.6138   age135_m52            0.0000     6.4745E-01     8.0149  -0.6316   106.4615
 29      0.0000     0.0000E+00    0.0000E+00    1.434000E+09  0.00800  1.719E-04    0   0.5853   age139_m52            0.0000     7.6723E-01     8.8010  -1.0000    96.5228
 30      0.0000     0.0000E+00    0.0000E+00    2.500000E+09  0.00800  7.872E-05    0   0.5600   age150_m52            0.0000     1.2893E+00    11.4000  -1.0000    84.4094
 31      0.0000     0.0000E+00    0.0000E+00    4.250000E+09  0.00800  4.336E-05    0   0.5426   age158_m52            0.0000     1.3391E+00    11.5515  -1.0000    83.0997
 32      0.0000     0.0000E+00    0.0000E+00    6.250000E+09  0.00800  3.159E-05    0   0.5319   age166_m52            0.0000     1.8985E+00    13.8287  -1.0000    76.3126
 33      0.0000     0.0000E+00    0.0000E+00    1.300000E+10  0.00800  1.361E-05    0   0.5073   age193_m52            0.0000     3.5102E+00    19.4099  -1.0000    61.5551
 34      4.0950     5.1414E+01    5.0769E+01    1.800000E+10  0.00800  9.886E-06    0   0.4990   age213_m52            0.0000     3.9605E+00    20.5452  -1.0000    58.2654
 35      8.2919     6.6658E-02    1.3191E-01    1.000000E+06  0.02000  1.544E-02    0   1.0000   age020_m62            0.0000     4.3412E-01     6.8909   1.8115    93.5151
 36     11.6377     3.8397E-02    7.4903E-02    3.160000E+06  0.02000  3.762E-02    0   0.9858   age045_m62            0.0000     4.3970E-01     6.9394   1.7522    94.2681
 37      0.0000     0.0000E+00    0.0000E+00    5.010000E+06  0.02000  3.296E-02    0   0.9342   age055_m62            0.0000     4.4012E-01     6.9517   1.4109    96.6374
 38      2.6493     2.8495E-02    4.9966E-02    8.710000E+06  0.02000  1.154E-02    0   0.8861   age067_m62            0.0000     3.2979E-01     5.9806   0.3647   105.6163
 39      0.0023     3.7669E-05    6.3151E-05    1.445000E+07  0.02000  7.663E-03    0   0.8472   age078_m62            0.0000     3.0509E-01     5.6797   0.5891   103.3094
 40      0.0000     0.0000E+00    0.0000E+00    2.512000E+07  0.02000  4.532E-03    0   0.8099   age090_m62            0.0000     3.1688E-01     5.7773   0.5843   102.9393
 41      0.0000     0.0000E+00    0.0000E+00    5.500000E+07  0.02000  2.733E-03    0   0.7595   age110_m62            0.0000     3.5669E-01     6.0747   0.6190   101.6054
 42      0.0000     0.0000E+00    0.0000E+00    1.609000E+08  0.02000  1.369E-03    0   0.6985   age120_m62            0.0000     4.4481E-01     6.6612   0.4876   102.8686
 43      0.0000     0.0000E+00    0.0000E+00    2.861200E+08  0.02000  9.013E-04    0   0.6714   age125_m62            0.0000     5.2302E-01     7.1623   0.2567   104.7750
 44      0.0000     0.0000E+00    0.0000E+00    5.088000E+08  0.02000  5.028E-04    0   0.6449   age130_m62            0.0000     6.4125E-01     8.0123  -0.0956   106.0970
 45      0.0000     0.0000E+00    0.0000E+00    9.047900E+08  0.02000  2.428E-04    0   0.6179   age135_m62            0.0000     6.9985E-01     8.4480  -0.6869   105.5188
 46      0.0000     0.0000E+00    0.0000E+00    1.434000E+09  0.02000  1.263E-04    0   0.5908   age139_m62            0.0000     8.0853E-01     9.0138  -1.0000    99.1100
 47      0.0000     0.0000E+00    0.0000E+00    2.500000E+09  0.02000  5.985E-05    0   0.5673   age150_m62            0.0000     1.4270E+00    11.8668  -1.0000    84.6784
 48      0.0000     0.0000E+00    0.0000E+00    4.250000E+09  0.02000  3.271E-05    0   0.5468   age158_m62            0.0000     2.3046E+00    15.1817  -1.0000    73.7839
 49      0.0000     0.0000E+00    0.0000E+00    1.000000E+10  0.02000  1.360E-05    0   0.5167   age181_m62            0.0000     3.5562E+00    19.1100  -1.0000    62.8958
 50      1.1796     2.0552E+01    2.0387E+01    1.800000E+10  0.02000  7.124E-06    0   0.5013   age213_m62            0.0000     4.4049E+00    21.3462  -1.0000    56.6263
 51     42.0257     2.0125E-01    3.9816E-01    1.000000E+06  0.05000  2.592E-02    0   0.9998   age020_m72            0.0000     4.3173E-01     6.8520   1.7983    93.7428
 52      0.0000     0.0000E+00    0.0000E+00    3.160000E+06  0.05000  4.845E-02    0   0.9577   age045_m72            0.0000     4.5113E-01     7.0473   1.6498    94.8833
 53      0.0000     0.0000E+00    0.0000E+00    5.010000E+06  0.05000  3.072E-02    0   0.9147   age055_m72            0.0000     3.2649E-01     5.8824   1.1698    99.5065
 54      0.0000     0.0000E+00    0.0000E+00    6.610000E+06  0.05000  1.455E-02    0   0.8877   age061_m72            0.0000     5.0099E-01     7.5455   0.4009   107.3679
 55      0.0000     0.0000E+00    0.0000E+00    1.000000E+07  0.05000  9.074E-03    0   0.8524   age070_m72            0.0000     3.7944E-01     6.3859   1.3561    99.1364
 56      0.0000     0.0000E+00    0.0000E+00    2.512000E+07  0.05000  4.250E-03    0   0.7902   age090_m72            0.0000     3.6133E-01     6.1538   1.0738   100.1737
 57      0.0000     0.0000E+00    0.0000E+00    4.000000E+07  0.05000  3.087E-03    0   0.7618   age104_m72            0.0000     3.7237E-01     6.2315   0.8519   101.5739
 58      0.0000     0.0000E+00    0.0000E+00    1.015200E+08  0.05000  1.700E-03    0   0.7096   age116_m72            0.0000     4.1860E-01     6.4369   0.6225   102.8768
 59      0.0000     0.0000E+00    0.0000E+00    2.861200E+08  0.05000  7.384E-04    0   0.6633   age125_m72            0.0000     5.8760E-01     7.6259   0.1378   105.4663
 60      0.0000     0.0000E+00    0.0000E+00    5.088000E+08  0.05000  3.819E-04    0   0.6372   age130_m72            0.0000     6.8598E-01     8.4179  -0.3462   106.5215
 61      0.0000     0.0000E+00    0.0000E+00    9.047900E+08  0.05000  1.676E-04    0   0.6110   age135_m72            0.0000     8.9130E-01     9.6142  -1.0000   102.8034
 62      0.0000     0.0000E+00    0.0000E+00    1.434000E+09  0.05000  8.837E-05    0   0.5874   age139_m72            0.0000     1.4763E+00    12.0770  -1.0000    85.8422
 63      0.0000     0.0000E+00    0.0000E+00    2.500000E+09  0.05000  4.233E-05    0   0.5598   age150_m72            0.0000     2.3583E+00    15.2955  -1.0000    74.3578
 64      0.0000     0.0000E+00    0.0000E+00    6.250000E+09  0.05000  1.435E-05    0   0.5249   age166_m72            0.0000     3.9440E+00    20.2280  -1.0000    59.8934
 65      0.0000     0.0000E+00    0.0000E+00    1.300000E+10  0.05000  6.513E-06    0   0.5036   age193_m72            0.0000     5.1149E+00    23.1297  -1.0000    53.0075
 66      0.0000     0.0000E+00    0.0000E+00    1.800000E+10  0.05000  4.527E-06    0   0.4945   age213_m72            0.0000     5.8194E+00    24.7315  -1.0000    48.9692


## Synthesis Results - Average & Chains ##

# j      x_j: min, <> & last-chain-values for 1 ...  7 chains
  1     10.2417      4.6436      4.2672      4.8010      0.0000      8.6636      4.9935     14.8163      0.0000
  2      0.0000      0.8099      1.8927      0.4499      0.0000      0.0000      0.0000      0.0000      0.0000
  3      0.0000      0.7703      0.0000      1.1238      1.4056      0.0000      0.0000      0.2998      0.0000
  4      0.0000      0.8580      0.0000      0.0000      0.0000      0.0000      0.0000      0.0000      0.0000
  5      0.0000      1.3321      0.0000      0.0000      0.0000      0.0000      0.0000      0.0000      0.7001
  6      0.0000      0.9486      0.0000      3.2162      0.3522      0.0000      0.0000      0.0000      2.2501
  7      0.0000      1.2051      0.0095      0.0000      0.0000      0.0000      0.0000      0.0000      0.0000
  8      0.0000      0.7389      0.0000      0.0000      0.2238      0.0000      0.0000      0.0000      0.0000
  9      0.0000      0.5388      0.0000      0.0000      0.0000      0.0000      0.0000      0.0000      0.0000
 10      0.0000      0.3501      0.0000      0.0000      0.0000      0.0000      0.0000      0.0000      0.0000
 11      0.0000      0.3544      0.0000      0.0000      0.2909      0.0137      1.4343      0.0000      0.0000
 12      0.0000      0.4096      0.0000      0.5157      0.0000      0.0000      0.0000      0.0000      0.0000
 13      0.0000      0.3230      0.0000      1.9622      0.0000      0.8597      0.0000      0.0000      0.0000
 14      0.0000      0.0706      0.7238      0.0000      0.0000      0.0000      0.0431      0.0000      0.7238
 15      4.0434      0.6097      0.6610      0.9540      0.0000      2.5121      1.6208      0.0000      0.0000
 16      0.0000      0.0285      0.0000      0.0000      0.0000      0.0000      0.0282      0.8643      0.0000
 17      1.6133      0.0759      0.3677      0.3611      0.0000      0.0000      1.0674      0.0000      0.0000
 18     15.4314      8.2843      8.4677     16.4416     13.6807      9.0677      8.9920      6.1007      6.3880
 19      0.0000      2.4932      3.5317      6.2765      5.6271      3.4277      4.0439      5.1927      1.2155
 20      0.0000      0.8269      0.0000      0.5268      0.0000      0.0000      0.0000      2.1638      0.0000
 21      0.0000      6.6890     12.8368      8.2217      7.3701      8.4796      0.0000     18.3011     12.7739
 22      0.0000      1.2448      0.0000      0.0000      0.0000      0.0000      0.0000      0.0000      0.0000
 23      0.0000      1.0335      0.0000      0.0000      0.0000      0.0000      0.0000      0.0000      0.0000
 24      0.0000      0.7746      0.0000      0.0000      0.0000      0.8961      0.0000      0.0000      0.0000
 25      0.0000      0.4847      0.0000      0.0000      0.0968      0.0000      0.0000      0.0000      0.0000
 26      0.0000      0.5618      0.0000      0.0000      0.0000      0.0000      0.0000      0.0000      0.0000
 27      0.0000      0.3637      0.0000      0.0000      0.0000      0.0000      0.0000      0.0000      1.1303
 28      0.0000      0.0987      0.0000      0.0000      0.0000      0.0864      0.1909      0.0000      0.1657
 29      0.0000      0.1650      0.0000      1.2089      1.5270      0.0000      0.0000      0.0000      0.0000
 30      0.0000      0.0778      0.0000      0.4277      0.0000      0.0000      0.0000      0.0000      0.0000
 31      0.0000      0.0653      0.0000      0.0000      0.0000      0.0000      0.0000      0.0000      0.0000
 32      0.0000      0.2754      0.0000      0.8867      0.8753      0.0000      0.0000      0.0000      1.8142
 33      0.0000      0.0334      0.0000      0.0000      0.0000      0.0000      0.0000      0.0000      0.6167
 34      4.0950      0.2701      0.6557      0.0000      0.0000      0.0000      2.0436      0.0000      0.0000
 35      8.2919      4.8845      6.8748      8.8645      7.1240      8.4671      6.4040      1.7867      8.1531
 36     11.6377      4.8577      5.3320      0.0000      9.7736      5.7416     15.6822      5.4966     13.0211
 37      0.0000      0.5860      0.5820      0.0000      0.0000      0.5440      0.6620      0.0000      0.0000
 38      2.6493     30.8903     35.5091     32.5755     35.9516     36.7588     29.2385     33.0633     28.9736
 39      0.0023      1.7841      3.5127      0.0000      0.0000      0.0000      0.9051      0.0000      0.7599
 40      0.0000      1.2281      0.7774      0.4767      1.2861      0.0000      0.3390      0.0000      0.0000
 41      0.0000      0.7094      0.0000      0.0000      0.0000      0.0000      0.6764      0.0000      0.0000
 42      0.0000      0.2974      0.0000      0.2875      0.0000      0.0000      0.0000      0.0000      0.0721
 43      0.0000      0.2250      0.0000      0.0000      0.5586      0.0000      0.0000      0.0000      0.0000
 44      0.0000      0.3775      0.0000      0.0000      0.0000      0.0000      0.0000      0.0000      0.0000
 45      0.0000      0.1889      0.0000      0.0000      0.0000      1.2594      0.0000      0.0000      0.0000
 46      0.0000      0.0552      0.0650      0.0000      0.0000      0.0000      0.0000      0.0000      0.0171
