###################################################################
## OUTPUT of StarlightChains_v04.for    [Cid@UFSC - 01/Apr/2007] ##
###################################################################

## Some input info
2001ee.txt                               [arq_obs]
Base.CB07.vall.4m                        [arq_base]
Masks.EmLines.NEW.gm                     [arq_masks]
StCv04.C11.config                        [arq_config]
   66                                    [N_base]
    0                                    [N_YAV_components = # of components with extra extinction!]
    0                                    [i_FitPowerLaw (1/0 = Yes/No)]
-9.99                                    [alpha_PowerLaw]
CCM                                      [red_law_option]
 1.458241                                [q_norm = A(l_norm)/A(V)]

## (Re)Sampling Parameters
 3741.00                                 [l_ini (A)]
 7218.00                                 [l_fin (A)]
    1.00                                 [dl    (A)]     (OBS: dl_cushion =    50.00 A)

## Normalization info
 4020.00                                 [l_norm (A) - for base]
 4010.00                                 [llow_norm (A) - window for f_obs]
 4060.00                                 [lupp_norm (A) - window for f_obs]
1.757203E-16                             [fobs_norm (in input units)]

## S/N
 3691.00                                 [llow_SN (A) - window for S/N]
 7268.00                                 [lupp_SN (A) - window for S/N]
   6.107                                 [S/N in S/N window]
   7.942                                 [S/N in norm. window]
  12.391                                 [S/N_err in S/N window]
  16.113                                 [S/N_err in norm. window]
  1.0000                                 [fscale_chi2]

## etc...
    -2007256                             [idum_orig]
  2384                                   [NOl_eff]
  2384                                   [Nl_eff]
     0    NSIGMA                         [Ntot_cliped & clip_method]
  1335390                                [Nglobal_steps]
   7                                     [N_chains]
  23                                     [NEX0s_base = N_base in EX0s-fits]
 0   0   1        2   2.0   2.629E+01    [Clip-Bug, RC-Crash & Burn-In warning-flags, n_censored_weights, wei_nsig_threshold & wei_limit]
    16     15.532     15.033      0.499  [idt_all, wdt_TotTime, wdt_UsrTime & wdt_SysTime (sec)]

## Synthesis Results - Best model ##

 3.26109E-01                             [chi2/Nl_eff]
     3.63036                             [adev (%)]

   103.23259                             [sum-of-x (%)]
 2.84692E-16                             [Flux_tot (units of input spectrum!)]
 1.09855E-12                             [Mini_tot (???)]
 6.05458E-13                             [Mcor_tot (???)]

-237.75                                  [v0_min  (km/s)]
 206.51                                  [vd_min  (km/s)]
 0.3356                                  [AV_min  (mag)]
 0.0000                                  [YAV_min (mag)]

# j     x_j(%)      Mini_j(%)     Mcor_j(%)     age_j(yr)     Z_j      (L/M)_j    YAV?  Mstars   component_j        a/Fe...       SSP_chi2r SSP_adev(%)   SSP_AV   SSP_x(%)
  1      0.0000     0.0000E+00    0.0000E+00    1.000000E+06  0.00400  1.094E-02    0   1.0000   age020_m42            0.0000     6.0583E-01     5.0747   2.3163    92.6059
  2      0.0660     4.1359E-04    7.5034E-04    3.160000E+06  0.00400  4.007E-02    0   0.9999   age045_m42            0.0000     4.9207E-01     4.4752   1.6261    97.0502
  3      0.0000     0.0000E+00    0.0000E+00    5.010000E+06  0.00400  2.539E-02    0   0.9488   age055_m42            0.0000     5.1585E-01     4.5588   1.9290    95.5478
  4      0.0000     0.0000E+00    0.0000E+00    6.610000E+06  0.00400  2.620E-02    0   0.9220   age061_m42            0.0000     4.7288E-01     4.3881   1.5521    97.2416
  5      0.0000     0.0000E+00    0.0000E+00    1.000000E+07  0.00400  1.322E-02    0   0.8862   age070_m42            0.0000     4.3509E-01     4.1043   1.2534    99.7679
  6      0.0111     3.5366E-04    5.4999E-04    1.445000E+07  0.00400  7.883E-03    0   0.8571   age078_m42            0.0000     4.5593E-01     4.2114   1.5727    97.7169
  7      0.0000     0.0000E+00    0.0000E+00    2.512000E+07  0.00400  5.251E-03    0   0.8174   age090_m42            0.0000     4.5027E-01     4.1814   1.1232   100.2312
  8      0.0000     0.0000E+00    0.0000E+00    4.000000E+07  0.00400  3.649E-03    0   0.7851   age104_m42            0.0000     4.3350E-01     4.1420   0.9022   100.7340
  9      0.0000     0.0000E+00    0.0000E+00    5.500000E+07  0.00400  3.098E-03    0   0.7629   age110_m42            0.0000     4.4979E-01     4.2779   1.0702   100.1890
 10      0.0000     0.0000E+00    0.0000E+00    1.015200E+08  0.00400  2.228E-03    0   0.7207   age116_m42            0.0000     4.7657E-01     4.4686   1.1007    99.9662
 11      0.0000     0.0000E+00    0.0000E+00    2.861200E+08  0.00400  1.093E-03    0   0.6648   age125_m42            0.0000     4.8398E-01     4.5148   0.5335   102.6512
 12      2.3896     9.0933E-01    1.0502E+00    5.088000E+08  0.00400  6.597E-04    0   0.6365   age130_m42            0.0000     5.1526E-01     4.7002   0.5386   102.8890
 13      0.0005     5.9839E-04    6.2951E-04    1.434000E+09  0.00400  2.132E-04    0   0.5798   age139_m42            0.0000     5.0634E-01     4.6152  -0.4180   104.0477
 14      0.0000     0.0000E+00    0.0000E+00    4.250000E+09  0.00400  5.895E-05    0   0.5377   age158_m42            0.0000     5.7688E-01     4.7493  -0.8591   100.3367
 15      2.2988     1.6441E+01    1.5548E+01    7.500000E+09  0.00400  3.510E-05    0   0.5212   age171_m42            0.0000     7.1448E-01     5.1894  -1.0000    98.0033
 16      0.0000     0.0000E+00    0.0000E+00    1.300000E+10  0.00400  2.005E-05    0   0.5034   age193_m42            0.0000     1.1355E+00     6.5099  -1.0000    91.6724
 17      2.3987     3.9486E+01    3.5585E+01    1.800000E+10  0.00400  1.525E-05    0   0.4967   age213_m42            0.0000     1.1944E+00     6.6890  -1.0000    90.4427
 18      5.4621     1.1076E-01    2.0096E-01    1.000000E+06  0.00800  1.238E-02    0   1.0000   age020_m52            0.0000     6.0607E-01     5.0768   2.3112    92.8364
 19      1.4107     1.1520E-02    2.0831E-02    3.160000E+06  0.00800  3.074E-02    0   0.9966   age045_m52            0.0000     5.9969E-01     5.0124   2.2373    93.5270
 20      0.0000     0.0000E+00    0.0000E+00    5.010000E+06  0.00800  2.668E-02    0   0.9443   age055_m52            0.0000     5.2455E-01     4.6044   2.0052    94.9824
 21     46.1053     5.4186E-01    9.0225E-01    6.610000E+06  0.00800  2.136E-02    0   0.9177   age061_m52            0.0000     3.6183E-01     3.8605   0.7486   101.1175
 22      0.0000     0.0000E+00    0.0000E+00    1.000000E+07  0.00800  1.215E-02    0   0.8827   age070_m52            0.0000     4.5196E-01     4.1854   1.4228    99.9566
 23      0.0000     0.0000E+00    0.0000E+00    1.445000E+07  0.00800  8.717E-03    0   0.8552   age078_m52            0.0000     4.3831E-01     4.1209   1.5402    98.9212
 24      0.0000     0.0000E+00    0.0000E+00    2.512000E+07  0.00800  5.592E-03    0   0.8162   age090_m52            0.0000     4.4554E-01     4.1644   1.1885   101.2928
 25      0.0000     0.0000E+00    0.0000E+00    4.000000E+07  0.00800  3.896E-03    0   0.7841   age104_m52            0.0000     4.3705E-01     4.1658   1.1117   101.5772
 26      0.0000     0.0000E+00    0.0000E+00    1.015200E+08  0.00800  2.148E-03    0   0.7226   age116_m52            0.0000     4.3309E-01     4.2513   1.0634   100.9046
 27      0.0000     0.0000E+00    0.0000E+00    2.861200E+08  0.00800  9.925E-04    0   0.6683   age125_m52            0.0000     5.1321E-01     4.6820   0.6041   103.7691
 28      0.3013     2.4082E-01    2.6820E-01    9.047900E+08  0.00800  3.141E-04    0   0.6138   age135_m52            0.0000     6.3282E-01     5.1494  -0.1643   106.5080
 29      0.0000     0.0000E+00    0.0000E+00    1.434000E+09  0.00800  1.719E-04    0   0.5853   age139_m52            0.0000     5.8493E-01     4.8879  -0.7524   104.7622
 30      0.0000     0.0000E+00    0.0000E+00    2.500000E+09  0.00800  7.872E-05    0   0.5600   age150_m52            0.0000     7.6557E-01     5.4448  -1.0000   101.3522
 31      0.9996     5.7872E+00    5.6975E+00    4.250000E+09  0.00800  4.336E-05    0   0.5426   age158_m52            0.0000     8.0643E-01     5.5001  -1.0000    99.8777
 32      0.0000     0.0000E+00    0.0000E+00    6.250000E+09  0.00800  3.159E-05    0   0.5319   age166_m52            0.0000     1.3718E+00     7.2017  -1.0000    92.5774
 33      0.0000     0.0000E+00    0.0000E+00    1.300000E+10  0.00800  1.361E-05    0   0.5073   age193_m52            0.0000     4.4608E+00    13.1084  -1.0000    75.7789
 34      0.0000     0.0000E+00    0.0000E+00    1.800000E+10  0.00800  9.886E-06    0   0.4990   age213_m52            0.0000     5.5536E+00    14.5432  -1.0000    71.9574
 35      2.7786     4.5178E-02    8.1971E-02    1.000000E+06  0.02000  1.544E-02    0   1.0000   age020_m62            0.0000     6.1076E-01     5.0998   2.3067    93.0913
 36      0.0000     0.0000E+00    0.0000E+00    3.160000E+06  0.02000  3.762E-02    0   0.9858   age045_m62            0.0000     6.1326E-01     5.0803   2.2455    93.9246
 37      0.1076     8.1958E-04    1.3892E-03    5.010000E+06  0.02000  3.296E-02    0   0.9342   age055_m62            0.0000     5.0517E-01     4.4992   1.8951    96.4461
 38      0.0000     0.0000E+00    0.0000E+00    8.710000E+06  0.02000  1.154E-02    0   0.8861   age067_m62            0.0000     8.7221E-01     6.3410   0.8303   104.2209
 39      0.0074     2.4242E-04    3.7264E-04    1.445000E+07  0.02000  7.663E-03    0   0.8472   age078_m62            0.0000     5.0694E-01     4.5489   1.0583   102.5014
 40      0.0000     0.0000E+00    0.0000E+00    2.512000E+07  0.02000  4.532E-03    0   0.8099   age090_m62            0.0000     5.5658E-01     4.7271   1.0524   102.0791
 41      0.0000     0.0000E+00    0.0000E+00    5.500000E+07  0.02000  2.733E-03    0   0.7595   age110_m62            0.0000     4.2086E-01     4.0604   1.0894   101.0997
 42      0.0000     0.0000E+00    0.0000E+00    1.609000E+08  0.02000  1.369E-03    0   0.6985   age120_m62            0.0000     4.7900E-01     4.4926   0.9541   102.6941
 43      0.0000     0.0000E+00    0.0000E+00    2.861200E+08  0.02000  9.013E-04    0   0.6714   age125_m62            0.0000     5.6571E-01     4.8985   0.7198   104.8072
 44      0.0000     0.0000E+00    0.0000E+00    5.088000E+08  0.02000  5.028E-04    0   0.6449   age130_m62            0.0000     6.7620E-01     5.3189   0.3680   106.4037
 45      4.0908     4.2296E+00    4.7419E+00    9.047900E+08  0.02000  2.428E-04    0   0.6179   age135_m62            0.0000     6.5872E-01     5.2489  -0.2129   105.5649
 46      0.0000     0.0000E+00    0.0000E+00    1.434000E+09  0.02000  1.263E-04    0   0.5908   age139_m62            0.0000     7.3252E-01     5.3648  -0.6582   104.1173
 47      0.0000     0.0000E+00    0.0000E+00    2.500000E+09  0.02000  5.985E-05    0   0.5673   age150_m62            0.0000     9.9002E-01     6.1068  -1.0000   101.8650
 48      0.0000     0.0000E+00    0.0000E+00    4.250000E+09  0.02000  3.271E-05    0   0.5468   age158_m62            0.0000     2.0423E+00     8.7721  -1.0000    89.9349
 49      0.0000     0.0000E+00    0.0000E+00    1.000000E+10  0.02000  1.360E-05    0   0.5167   age181_m62            0.0000     4.5799E+00    13.0994  -1.0000    77.4830
 50      0.0000     0.0000E+00    0.0000E+00    1.800000E+10  0.02000  7.124E-06    0   0.5013   age213_m62            0.0000     6.6695E+00    15.7368  -1.0000    70.1201
 51      0.0000     0.0000E+00    0.0000E+00    1.000000E+06  0.05000  2.592E-02    0   0.9998   age020_m72            0.0000     6.2749E-01     5.1923   2.2934    93.3174
 52      3.2739     1.6963E-02    2.9477E-02    3.160000E+06  0.05000  4.845E-02    0   0.9577   age045_m72            0.0000     5.7867E-01     4.8392   2.1404    94.6099
 53      4.7563     3.8867E-02    6.4506E-02    5.010000E+06  0.05000  3.072E-02    0   0.9147   age055_m72            0.0000     4.9225E-01     4.4363   1.6481    98.8978
 54      0.0000     0.0000E+00    0.0000E+00    6.610000E+06  0.05000  1.455E-02    0   0.8877   age061_m72            0.0000     1.6325E+00     8.7080   0.8627   105.7988
 55      2.8084     7.7695E-02    1.2016E-01    1.000000E+07  0.05000  9.074E-03    0   0.8524   age070_m72            0.0000     6.7588E-01     5.0545   1.8353    98.5885
 56      0.0000     0.0000E+00    0.0000E+00    2.512000E+07  0.05000  4.250E-03    0   0.7902   age090_m72            0.0000     5.5599E-01     4.5859   1.5462    99.6431
 57      0.0000     0.0000E+00    0.0000E+00    4.000000E+07  0.05000  3.087E-03    0   0.7618   age104_m72            0.0000     5.8455E-01     4.7136   1.3214   100.9929
 58      0.0159     2.3419E-03    3.0152E-03    1.015200E+08  0.05000  1.700E-03    0   0.7096   age116_m72            0.0000     4.9013E-01     4.5026   1.0885   102.5809
 59      0.0000     0.0000E+00    0.0000E+00    2.861200E+08  0.05000  7.384E-04    0   0.6633   age125_m72            0.0000     6.1072E-01     5.0350   0.6013   105.5803
 60      4.5384     2.9833E+00    3.4491E+00    5.088000E+08  0.05000  3.819E-04    0   0.6372   age130_m72            0.0000     6.6262E-01     5.3261   0.1258   106.5543
 61     19.4116     2.9075E+01    3.2233E+01    9.047900E+08  0.05000  1.676E-04    0   0.6110   age135_m72            0.0000     9.1956E-01     6.1245  -0.5587   104.4021
 62      0.0000     0.0000E+00    0.0000E+00    1.434000E+09  0.05000  8.837E-05    0   0.5874   age139_m72            0.0000     1.0910E+00     6.4202  -1.0000   103.2515
 63      0.0000     0.0000E+00    0.0000E+00    2.500000E+09  0.05000  4.233E-05    0   0.5598   age150_m72            0.0000     2.1613E+00     9.0026  -1.0000    90.6883
 64      0.0000     0.0000E+00    0.0000E+00    6.250000E+09  0.05000  1.435E-05    0   0.5249   age166_m72            0.0000     5.4841E+00    14.3544  -1.0000    73.9886
 65      0.0000     0.0000E+00    0.0000E+00    1.300000E+10  0.05000  6.513E-06    0   0.5036   age193_m72            0.0000     8.5433E+00    17.8001  -1.0000    65.8569
 66      0.0000     0.0000E+00    0.0000E+00    1.800000E+10  0.05000  4.527E-06    0   0.4945   age213_m72            0.0000     1.0510E+01    19.6897  -1.0000    60.9891


## Synthesis Results - Average & Chains ##

# j      x_j: min, <> & last-chain-values for 1 ...  7 chains
  1      0.0000      1.7058      4.4084      4.1332      0.0000      0.0000      2.0424      2.1779      2.2501
  2      0.0660      0.7572      1.2867      0.0000      3.0074      2.9752      0.0000      0.0618      0.0000
  3      0.0000      0.3722      0.0000      1.1254      0.2916      0.7448      0.0000      0.0000      0.0000
  4      0.0000      0.3923      0.0000      0.0000      0.0000      2.0213      0.0000      0.0000      0.4545
  5      0.0000      0.4754      0.0000      0.0000      0.2538      0.0000      0.2974      0.0000      0.9927
  6      0.0111      0.4879      0.0000      1.0899      0.6469      0.0473      0.0000      0.0000      0.0000
  7      0.0000      0.6946      0.0000      0.0000      0.0000      0.0000      1.6405      0.0000      0.0000
  8      0.0000      0.6888      0.0000      0.0000      0.0000      0.0000      0.1191      0.0000      2.2993
  9      0.0000      0.5043      0.0000      0.0000      0.0000      0.0000      2.3921      0.0000      0.0000
 10      0.0000      0.6451      0.8892      0.0000      0.2143      0.0000      0.0000      0.7552      0.0000
 11      0.0000      0.8324      0.0000      0.0000      0.3818      0.0000      0.0000      1.0806      0.1630
 12      2.3896      0.8853      0.8124      0.0771      1.1681      0.0731      0.0000      0.0000      1.7468
 13      0.0005      0.1891      0.0000      0.0000      1.8068      0.1663      0.0000      0.0000      0.0000
 14      0.0000      0.1116      0.0000      0.6266      0.0000      0.0000      0.0000      0.0000      0.0000
 15      2.2988      0.1029      0.0000      0.0000      0.8111      0.2361      0.0000      0.0000      0.0000
 16      0.0000      0.1246      0.0000      0.0000      0.2260      0.0000      0.9785      0.0000      0.0000
 17      2.3987      0.0574      0.0000      0.0000      0.4020      0.0000      0.0000      0.0906      0.0000
 18      5.4621      1.0900      3.2389      0.0000      2.7699      0.0000      2.8515      1.7075      0.0000
 19      1.4107      2.1835      2.7522      1.9062      4.2900      1.5737      2.0740      3.3692      1.3049
 20      0.0000      0.4366      0.6402      0.7965      0.0000      0.0000      0.0000      0.0000      0.0000
 21     46.1053     42.5790     46.0044     48.0582     44.7876     46.0394     47.7849     44.2981     49.7240
 22      0.0000      0.5374      1.0725      0.0000      0.0000      0.1922      0.2423      0.0000      0.0000
 23      0.0000      0.6778      0.0000      0.0000      0.0000      0.0000      0.0000      0.0000      0.0000
 24      0.0000      0.5409      0.0000      0.0000      0.0000      1.1992      0.0000      0.1721      0.0000
 25      0.0000      0.5019      0.2909      0.0000      1.7388      0.0000      0.0000      0.1084      0.0000
 26      0.0000      0.6484      0.0000      0.0000      0.0000      0.0000      0.0000      0.0504      2.7243
 27      0.0000      0.7807      1.9185      0.0000      0.0000      0.0000      0.6413      0.1728      0.0000
 28      0.3013      4.6092      4.4778      5.9923      2.7284      4.5326      4.9390      2.6335      2.3981
 29      0.0000      0.1373      0.0000      0.0000      0.0000      0.0000      0.0000      0.4009      0.0000
 30      0.0000      0.1118      0.0000      0.0000      0.0000      0.0000      0.0000      0.0000      0.0000
 31      0.9996      0.2755      0.0000      0.4632      1.6422      0.0000      0.0000      0.0000      0.0000
 32      0.0000      0.0703      0.0000      0.0000      0.0000      0.0000      0.0171      0.0000      0.0000
 33      0.0000      0.0247      0.0000      0.0000      0.0000      0.0000      0.0000      0.0000      0.0000
 34      0.0000      0.0290      0.0000      0.0000      0.0000      0.0000      0.0000      0.0000      0.0000
 35      2.7786      1.2839      0.0000      1.9346      0.9816      0.0000      0.0000      1.1337      0.9609
 36      0.0000      0.7207      0.0000      2.4901      0.0000      1.3487      0.0669      2.0915      1.4490
 37      0.1076      1.9190      1.6483      1.9532      3.4716      1.1462      1.2226      0.7394      0.0000
 38      0.0000      0.7542      0.0000      0.0000      0.0000      0.0000      0.0000      0.0000      0.0000
 39      0.0074      0.8968      0.0000      0.0000      1.2786      0.0000      0.0000      0.6322      0.1479
 40      0.0000      0.7394      0.0000      0.0000      0.0000      3.8019      0.5116      0.0000      3.2819
 41      0.0000      0.8453      1.6287      1.0916      0.0000      0.0000      0.0000      0.2588      0.0000
 42      0.0000      0.4776      0.0000      0.0000      0.0000      0.0000      0.0000      3.4221      0.0000
 43      0.0000      0.5159      0.0000      0.0000      2.9299      0.0000      0.8340      0.0000      0.0000
 44      0.0000      0.7499      0.0000      0.0000      0.0000      0.0000      0.6040      0.6062      0.0000
 45      4.0908      2.1890      4.4982      0.4179      1.7843      2.3350      2.9347      2.5654      3.0097
 46      0.0000      0.1725      0.0000      0.0000      0.0000      0.0000      0.3929      1.9660      0.6606
