###################################################################
## OUTPUT of StarlightChains_v04.for    [Cid@UFSC - 01/Apr/2007] ##
###################################################################

## Some input info
2001I.txt                                [arq_obs]
Base.CB07.vall.4m                        [arq_base]
Masks.EmLines.NEW.gm                     [arq_masks]
StCv04.C11.config                        [arq_config]
   66                                    [N_base]
    0                                    [N_YAV_components = # of components with extra extinction!]
    0                                    [i_FitPowerLaw (1/0 = Yes/No)]
-9.99                                    [alpha_PowerLaw]
CCM                                      [red_law_option]
 1.458241                                [q_norm = A(l_norm)/A(V)]

## (Re)Sampling Parameters
 3741.00                                 [l_ini (A)]
 7218.00                                 [l_fin (A)]
    1.00                                 [dl    (A)]     (OBS: dl_cushion =    50.00 A)

## Normalization info
 4020.00                                 [l_norm (A) - for base]
 4010.00                                 [llow_norm (A) - window for f_obs]
 4060.00                                 [lupp_norm (A) - window for f_obs]
1.390080E-15                             [fobs_norm (in input units)]

## S/N
 3691.00                                 [llow_SN (A) - window for S/N]
 7268.00                                 [lupp_SN (A) - window for S/N]
   9.450                                 [S/N in S/N window]
  11.719                                 [S/N in norm. window]
  21.556                                 [S/N_err in S/N window]
  26.734                                 [S/N_err in norm. window]
  1.0000                                 [fscale_chi2]

## etc...
    -2007261                             [idum_orig]
  2383                                   [NOl_eff]
  2365                                   [Nl_eff]
    18    NSIGMA                         [Ntot_cliped & clip_method]
  2419340                                [Nglobal_steps]
   7                                     [N_chains]
  35                                     [NEX0s_base = N_base in EX0s-fits]
 0   0   1        6   2.0   9.913E+01    [Clip-Bug, RC-Crash & Burn-In warning-flags, n_censored_weights, wei_nsig_threshold & wei_limit]
    21     20.464     19.968      0.497  [idt_all, wdt_TotTime, wdt_UsrTime & wdt_SysTime (sec)]

## Synthesis Results - Best model ##

 7.20908E-01                             [chi2/Nl_eff]
     2.50627                             [adev (%)]

    97.11969                             [sum-of-x (%)]
 2.90549E-15                             [Flux_tot (units of input spectrum!)]
 1.97354E-11                             [Mini_tot (???)]
 1.06109E-11                             [Mcor_tot (???)]

  17.39                                  [v0_min  (km/s)]
 192.15                                  [vd_min  (km/s)]
 0.5707                                  [AV_min  (mag)]
 0.0000                                  [YAV_min (mag)]

# j     x_j(%)      Mini_j(%)     Mcor_j(%)     age_j(yr)     Z_j      (L/M)_j    YAV?  Mstars   component_j        a/Fe...       SSP_chi2r SSP_adev(%)   SSP_AV   SSP_x(%)
  1      1.3417     1.8591E-02    3.4577E-02    1.000000E+06  0.00400  1.094E-02    0   1.0000   age020_m42            0.0000     2.7243E+00     6.1187   2.9312    75.2127
  2      0.0000     0.0000E+00    0.0000E+00    3.160000E+06  0.00400  4.007E-02    0   0.9999   age045_m42            0.0000     2.2932E+00     5.2307   2.1655    82.1261
  3      0.0000     0.0000E+00    0.0000E+00    5.010000E+06  0.00400  2.539E-02    0   0.9488   age055_m42            0.0000     2.3274E+00     5.4175   2.4944    79.6939
  4      0.0005     2.8257E-06    4.8456E-06    6.610000E+06  0.00400  2.620E-02    0   0.9220   age061_m42            0.0000     2.0339E+00     4.9001   2.0710    83.1796
  5      2.9731     3.4091E-02    5.6191E-02    1.000000E+07  0.00400  1.322E-02    0   0.8862   age070_m42            0.0000     1.2267E+00     3.3963   1.6681    90.1257
  6      3.0162     5.8000E-02    9.2460E-02    1.445000E+07  0.00400  7.883E-03    0   0.8571   age078_m42            0.0000     1.4368E+00     3.8469   2.0230    86.6320
  7      5.6746     1.6382E-01    2.4905E-01    2.512000E+07  0.00400  5.251E-03    0   0.8174   age090_m42            0.0000     1.1283E+00     3.1583   1.5114    91.8191
  8      3.8372     1.5941E-01    2.3277E-01    4.000000E+07  0.00400  3.649E-03    0   0.7851   age104_m42            0.0000     1.0725E+00     3.0315   1.2890    92.3817
  9      3.9094     1.9129E-01    2.7143E-01    5.500000E+07  0.00400  3.098E-03    0   0.7629   age110_m42            0.0000     1.2722E+00     3.5034   1.4900    90.3241
 10      0.8659     5.8911E-02    7.8966E-02    1.015200E+08  0.00400  2.228E-03    0   0.7207   age116_m42            0.0000     1.4434E+00     3.9308   1.5388    89.2706
 11      0.0000     0.0000E+00    0.0000E+00    2.861200E+08  0.00400  1.093E-03    0   0.6648   age125_m42            0.0000     1.3881E+00     3.4323   0.9189    94.5583
 12      0.0000     0.0000E+00    0.0000E+00    5.088000E+08  0.00400  6.597E-04    0   0.6365   age130_m42            0.0000     1.5189E+00     3.9796   0.9578    93.0781
 13      0.0000     0.0000E+00    0.0000E+00    1.434000E+09  0.00400  2.132E-04    0   0.5798   age139_m42            0.0000     1.2797E+00     3.9565   0.0001    94.1499
 14      0.0000     0.0000E+00    0.0000E+00    4.250000E+09  0.00400  5.895E-05    0   0.5377   age158_m42            0.0000     1.7342E+00     5.2690  -0.3400    86.1689
 15      0.4695     2.0276E+00    1.9656E+00    7.500000E+09  0.00400  3.510E-05    0   0.5212   age171_m42            0.0000     1.9926E+00     5.8276  -0.4903    84.1305
 16      0.0000     0.0000E+00    0.0000E+00    1.300000E+10  0.00400  2.005E-05    0   0.5034   age193_m42            0.0000     2.2912E+00     6.3663  -0.6197    82.3382
 17      1.4596     1.4509E+01    1.3403E+01    1.800000E+10  0.00400  1.525E-05    0   0.4967   age213_m42            0.0000     2.2825E+00     6.2707  -0.6513    82.2788
 18      0.3788     4.6385E-03    8.6272E-03    1.000000E+06  0.00800  1.238E-02    0   1.0000   age020_m52            0.0000     2.7164E+00     6.1167   2.9284    75.3252
 19      0.0001     3.3552E-07    6.2191E-07    3.160000E+06  0.00800  3.074E-02    0   0.9966   age045_m52            0.0000     2.6940E+00     6.0619   2.8507    76.0182
 20      0.0000     0.0000E+00    0.0000E+00    5.010000E+06  0.00800  2.668E-02    0   0.9443   age055_m52            0.0000     2.2953E+00     5.4196   2.5771    78.9338
 21      0.0001     6.7935E-07    1.1595E-06    6.610000E+06  0.00800  2.136E-02    0   0.9177   age061_m52            0.0000     1.1399E+00     3.4219   1.1848    90.3030
 22      1.4865     1.8546E-02    3.0449E-02    1.000000E+07  0.00800  1.215E-02    0   0.8827   age070_m52            0.0000     1.1986E+00     3.3664   1.8248    90.9678
 23      0.4282     7.4465E-03    1.1844E-02    1.445000E+07  0.00800  8.717E-03    0   0.8552   age078_m52            0.0000     1.2926E+00     3.6328   1.9778    88.2818
 24      0.0000     0.0000E+00    0.0000E+00    2.512000E+07  0.00800  5.592E-03    0   0.8162   age090_m52            0.0000     1.0154E+00     2.9941   1.5662    93.3730
 25      2.0154     7.8419E-02    1.1436E-01    4.000000E+07  0.00800  3.896E-03    0   0.7841   age104_m52            0.0000     1.0324E+00     2.9840   1.4954    93.4183
 26      0.0000     0.0000E+00    0.0000E+00    1.015200E+08  0.00800  2.148E-03    0   0.7226   age116_m52            0.0000     1.2357E+00     3.4478   1.4812    91.1439
 27      0.0000     0.0000E+00    0.0000E+00    2.861200E+08  0.00800  9.925E-04    0   0.6683   age125_m52            0.0000     1.3079E+00     3.7872   1.0203    94.0478
 28      0.0000     0.0000E+00    0.0000E+00    9.047900E+08  0.00800  3.141E-04    0   0.6138   age135_m52            0.0000     1.6820E+00     4.6671   0.2817    95.2389
 29      0.0000     0.0000E+00    0.0000E+00    1.434000E+09  0.00800  1.719E-04    0   0.5853   age139_m52            0.0000     1.8977E+00     4.9652  -0.2777    92.3496
 30      0.0000     0.0000E+00    0.0000E+00    2.500000E+09  0.00800  7.872E-05    0   0.5600   age150_m52            0.0000     2.2659E+00     6.1808  -0.4559    85.9663
 31      0.0000     0.0000E+00    0.0000E+00    4.250000E+09  0.00800  4.336E-05    0   0.5426   age158_m52            0.0000     2.2599E+00     6.2377  -0.4652    84.9108
 32      0.0000     0.0000E+00    0.0000E+00    6.250000E+09  0.00800  3.159E-05    0   0.5319   age166_m52            0.0000     2.7578E+00     7.0442  -0.6207    83.0777
 33      0.0000     0.0000E+00    0.0000E+00    1.300000E+10  0.00800  1.361E-05    0   0.5073   age193_m52            0.0000     3.5098E+00     8.2281  -1.0000    79.0753
 34      2.3113     3.5441E+01    3.2893E+01    1.800000E+10  0.00800  9.886E-06    0   0.4990   age213_m52            0.0000     4.2688E+00     9.3301  -1.0000    74.7178
 35      0.0605     5.9382E-04    1.1045E-03    1.000000E+06  0.02000  1.544E-02    0   1.0000   age020_m62            0.0000     2.7332E+00     6.1416   2.9252    75.4665
 36      0.0000     0.0000E+00    0.0000E+00    3.160000E+06  0.02000  3.762E-02    0   0.9858   age045_m62            0.0000     2.7522E+00     6.1491   2.8685    75.9782
 37      3.0143     1.3863E-02    2.4088E-02    5.010000E+06  0.02000  3.296E-02    0   0.9342   age055_m62            0.0000     2.2647E+00     5.4243   2.4620    80.4105
 38     21.9634     2.8851E-01    4.7548E-01    8.710000E+06  0.02000  1.154E-02    0   0.8861   age067_m62            0.0000     2.4915E+00     5.2081   1.0775   103.1676
 39      0.0000     0.0000E+00    0.0000E+00    1.445000E+07  0.02000  7.663E-03    0   0.8472   age078_m62            0.0000     1.3289E+00     3.3961   1.4064    96.1941
 40      0.0006     1.9611E-05    2.9541E-05    2.512000E+07  0.02000  4.532E-03    0   0.8099   age090_m62            0.0000     1.4625E+00     3.5496   1.3821    96.7824
 41      3.2089     1.7799E-01    2.5143E-01    5.500000E+07  0.02000  2.733E-03    0   0.7595   age110_m62            0.0000     9.8159E-01     2.9968   1.4818    92.5444
 42      1.3028     1.4426E-01    1.8741E-01    1.609000E+08  0.02000  1.369E-03    0   0.6985   age120_m62            0.0000     1.1947E+00     3.5394   1.3638    93.2053
 43      0.2435     4.0950E-02    5.1136E-02    2.861200E+08  0.02000  9.013E-04    0   0.6714   age125_m62            0.0000     1.3429E+00     3.8943   1.1281    95.2126
 44      0.0000     0.0000E+00    0.0000E+00    5.088000E+08  0.02000  5.028E-04    0   0.6449   age130_m62            0.0000     1.8072E+00     4.9050   0.8240    94.4106
 45      0.0000     0.0000E+00    0.0000E+00    9.047900E+08  0.02000  2.428E-04    0   0.6179   age135_m62            0.0000     1.8397E+00     5.3728   0.2864    91.7098
 46      0.0000     0.0000E+00    0.0000E+00    1.434000E+09  0.02000  1.263E-04    0   0.5908   age139_m62            0.0000     2.0127E+00     5.8123  -0.1292    89.0864
 47      0.0000     0.0000E+00    0.0000E+00    2.500000E+09  0.02000  5.985E-05    0   0.5673   age150_m62            0.0000     2.6618E+00     6.9992  -0.4217    84.8283
 48      4.6394     2.1501E+01    2.1866E+01    4.250000E+09  0.02000  3.271E-05    0   0.5468   age158_m62            0.0000     3.5224E+00     8.2451  -0.6568    81.3521
 49      0.0000     0.0000E+00    0.0000E+00    1.000000E+10  0.02000  1.360E-05    0   0.5167   age181_m62            0.0000     4.6458E+00     9.5772  -0.9318    78.3340
 50      0.0000     0.0000E+00    0.0000E+00    1.800000E+10  0.02000  7.124E-06    0   0.5013   age213_m62            0.0000     5.7010E+00    10.8972  -1.0000    72.6329
 51      0.6334     3.7044E-03    6.8884E-03    1.000000E+06  0.05000  2.592E-02    0   0.9998   age020_m72            0.0000     2.7635E+00     6.1853   2.9142    75.5560
 52      0.0000     0.0000E+00    0.0000E+00    3.160000E+06  0.05000  4.845E-02    0   0.9577   age045_m72            0.0000     2.6447E+00     5.9548   2.7502    77.0769
 53      0.0000     0.0000E+00    0.0000E+00    5.010000E+06  0.05000  3.072E-02    0   0.9147   age055_m72            0.0000     1.8511E+00     4.3265   2.1080    87.6544
 54      0.0000     0.0000E+00    0.0000E+00    6.610000E+06  0.05000  1.455E-02    0   0.8877   age061_m72            0.0000     8.0269E+00     8.1927   1.0962   106.9569
 55      0.0000     0.0000E+00    0.0000E+00    1.000000E+07  0.05000  9.074E-03    0   0.8524   age070_m72            0.0000     2.9288E+00     5.3301   2.3378    86.1186
 56      0.0000     0.0000E+00    0.0000E+00    2.512000E+07  0.05000  4.250E-03    0   0.7902   age090_m72            0.0000     2.1129E+00     4.1762   1.9727    90.1463
 57      0.0000     0.0000E+00    0.0000E+00    4.000000E+07  0.05000  3.087E-03    0   0.7618   age104_m72            0.0000     2.2406E+00     3.9836   1.7088    93.2670
 58      0.0005     4.1486E-05    5.4753E-05    1.015200E+08  0.05000  1.700E-03    0   0.7096   age116_m72            0.0000     1.2121E+00     3.3491   1.4776    94.2102
 59      0.2522     5.1769E-02    6.3866E-02    2.861200E+08  0.05000  7.384E-04    0   0.6633   age125_m72            0.0000     1.4526E+00     4.2793   1.0281    95.0660
 60     20.4055     8.0996E+00    9.5991E+00    5.088000E+08  0.05000  3.819E-04    0   0.6372   age130_m72            0.0000     1.7075E+00     5.1966   0.6057    93.3308
 61     10.5274     9.5217E+00    1.0821E+01    9.047900E+08  0.05000  1.676E-04    0   0.6110   age135_m72            0.0000     2.5243E+00     6.9235   0.0197    86.9764
 62      0.0000     0.0000E+00    0.0000E+00    1.434000E+09  0.05000  8.837E-05    0   0.5874   age139_m72            0.0000     2.8972E+00     7.2375  -0.4160    85.8096
 63      0.0000     0.0000E+00    0.0000E+00    2.500000E+09  0.05000  4.233E-05    0   0.5598   age150_m72            0.0000     3.9188E+00     8.6842  -0.6327    81.1032
 64      0.6992     7.3859E+00    7.2106E+00    6.250000E+09  0.05000  1.435E-05    0   0.5249   age166_m72            0.0000     5.1948E+00    10.0836  -1.0000    76.9389
 65      0.0000     0.0000E+00    0.0000E+00    1.300000E+10  0.05000  6.513E-06    0   0.5036   age193_m72            0.0000     7.1919E+00    12.3451  -1.0000    67.8152
 66      0.0000     0.0000E+00    0.0000E+00    1.800000E+10  0.05000  4.527E-06    0   0.4945   age213_m72            0.0000     8.9938E+00    13.8544  -1.0000    62.5815


## Synthesis Results - Average & Chains ##

# j      x_j: min, <> & last-chain-values for 1 ...  7 chains
  1      1.3417      1.5219      1.4758      1.5718      1.2975      1.4947      1.3635      2.0209      1.5120
  2      0.0000      0.1750      0.0000      0.0000      0.0000      0.0000      0.1321      0.0000      0.2733
  3      0.0000      0.0907      0.1262      0.0000      0.0000      0.0000      0.0000      0.0000      0.0000
  4      0.0005      0.1174      0.0000      0.0778      0.0000      0.4516      0.0072      0.0000      0.0000
  5      2.9731      2.9064      1.8629      2.9404      3.0962      2.8054      2.5062      2.5342      3.1159
  6      3.0162      2.7900      2.9071      2.4199      2.7387      2.7497      2.8768      2.4872      2.7199
  7      5.6746      4.1252      4.5005      4.6531      4.9141      4.6579      3.9477      4.2467      4.4483
  8      3.8372      2.8440      2.5739      3.0298      3.4397      2.9176      3.4104      2.7195      3.1530
  9      3.9094      2.7051      2.6628      2.7980      3.1908      2.9655      2.6092      3.3678      2.6796
 10      0.8659      0.6733      0.3300      0.6468      1.1233      0.7136      0.6687      0.6104      0.8187
 11      0.0000      0.3912      0.0000      0.2535      0.0000      0.3907      0.0000      0.3492      0.0000
 12      0.0000      0.2307      0.2541      0.1105      0.0000      0.0000      0.0000      0.0000      0.0000
 13      0.0000      3.5704      3.9574      3.1642      3.2757      2.5806      3.1452      3.5001      3.6319
 14      0.0000      0.0392      0.0000      0.0000      0.0000      0.0000      0.0000      0.0000      0.0493
 15      0.4695      1.0823      0.9355      0.6970      1.0990      1.0586      1.1360      0.8776      1.2965
 16      0.0000      0.3215      0.3450      0.4171      0.0535      0.2795      0.2756      0.3208      0.0000
 17      1.4596      1.5801      1.5252      1.6683      1.6125      1.3642      1.5278      1.4793      1.4853
 18      0.3788      0.8675      0.8274      0.7637      0.6693      0.6890      0.9553      0.8278      1.3277
 19      0.0001      0.4778      0.4598      0.8216      0.2932      0.6584      0.1217      0.5190      0.3480
 20      0.0000      0.1077      0.2131      0.0000      0.0437      0.0000      0.0000      0.2884      0.0000
 21      0.0001      0.6270      0.7108      0.4684      0.0000      0.5881      0.0000      0.6395      1.2672
 22      1.4865      2.3109      2.3647      2.2028      2.5417      2.2012      2.2474      2.1678      2.1671
 23      0.4282      0.8303      0.7858      1.2022      0.9757      0.6830      0.9860      1.1161      1.5857
 24      0.0000      0.6717      0.9100      0.3938      1.0096      0.0000      0.0185      0.8102      0.8794
 25      2.0154      1.7793      1.6566      2.1200      2.1643      1.6298      1.3814      1.2906      1.5809
 26      0.0000      0.2894      0.0665      0.2918      0.0000      0.3580      2.3459      0.1965      0.0000
 27      0.0000      0.3706      1.4575      0.0000      0.2514      0.0326      0.2894      0.0000      0.0000
 28      0.0000      0.1077      0.0000      0.0000      0.0000      0.0000      0.0000      0.0000      0.0662
 29      0.0000      0.0463      0.0000      0.0000      0.0000      0.0000      0.0000      0.0000      0.0000
 30      0.0000      0.0186      0.0000      0.0000      0.0459      0.0000      0.0000      0.0000      0.0000
 31      0.0000      0.0236      0.0000      0.0000      0.0000      0.0000      0.0000      0.0000      0.0000
 32      0.0000      0.0125      0.0000      0.0000      0.0000      0.0000      0.0000      0.0000      0.0000
 33      0.0000      0.3090      0.3124      0.4458      0.2897      0.3129      0.3880      0.2749      0.3225
 34      2.3113      2.1834      2.1458      2.0991      2.4082      1.9666      2.1464      2.2096      2.3167
 35      0.0605      0.7355      0.7107      0.8557      0.4364      1.0778      0.6608      0.1229      0.9174
 36      0.0000      0.2062      0.2096      0.0313      0.1605      0.0000      0.0000      0.2628      0.0000
 37      3.0143      3.8776      3.7330      3.7561      3.7862      3.2195      4.0068      4.0048      3.7551
 38     21.9634     14.4612     16.1021     15.1497     14.4647     15.2274     16.5136     14.7770     14.4240
 39      0.0000      0.1471      0.0000      0.1003      0.5263      0.2990      0.0000      0.0000      0.2864
 40      0.0006      0.3731      0.0267      0.2671      0.4422      1.8326      0.4682      0.3135      0.1593
 41      3.2089      2.7531      4.1016      2.9561      2.7052      2.0288      2.5270      3.1858      2.4856
 42      1.3028      1.9597      2.3952      1.4012      1.5685      2.0123      2.1575      1.8373      0.6504
 43      0.2435      0.4599      0.0000      0.3560      0.1945      0.4554      0.0000      0.4268      0.7510
 44      0.0000      0.2710      0.0000      0.0000      0.0707      0.0000      0.2964      0.0000      0.0698
 45      0.0000      0.1481      0.0000      0.0000      0.0000      0.0000      0.1060      0.0411      0.0000
 46      0.0000      0.0518      0.0000      0.0000      0.0000      0.0362      0.2114      0.0000      0.0000
