###################################################################
## OUTPUT of StarlightChains_v04.for    [Cid@UFSC - 01/Apr/2007] ##
###################################################################

## Some input info
2001H.txt                                [arq_obs]
Base.CB07.vall.4m                        [arq_base]
Masks.EmLines.NEW.gm                     [arq_masks]
StCv04.C11.config                        [arq_config]
   66                                    [N_base]
    0                                    [N_YAV_components = # of components with extra extinction!]
    0                                    [i_FitPowerLaw (1/0 = Yes/No)]
-9.99                                    [alpha_PowerLaw]
CCM                                      [red_law_option]
 1.458241                                [q_norm = A(l_norm)/A(V)]

## (Re)Sampling Parameters
 3741.00                                 [l_ini (A)]
 7218.00                                 [l_fin (A)]
    1.00                                 [dl    (A)]     (OBS: dl_cushion =    50.00 A)

## Normalization info
 4020.00                                 [l_norm (A) - for base]
 4010.00                                 [llow_norm (A) - window for f_obs]
 4060.00                                 [lupp_norm (A) - window for f_obs]
1.162631E-16                             [fobs_norm (in input units)]

## S/N
 3691.00                                 [llow_SN (A) - window for S/N]
 7268.00                                 [lupp_SN (A) - window for S/N]
   9.028                                 [S/N in S/N window]
   8.874                                 [S/N in norm. window]
  17.032                                 [S/N_err in S/N window]
  16.742                                 [S/N_err in norm. window]
  1.0000                                 [fscale_chi2]

## etc...
    -2007260                             [idum_orig]
  2386                                   [NOl_eff]
  2386                                   [Nl_eff]
     0    NSIGMA                         [Ntot_cliped & clip_method]
  1926820                                [Nglobal_steps]
   7                                     [N_chains]
  34                                     [NEX0s_base = N_base in EX0s-fits]
 0   0   1        1   2.0   2.826E+01    [Clip-Bug, RC-Crash & Burn-In warning-flags, n_censored_weights, wei_nsig_threshold & wei_limit]
    16     15.530     15.035      0.496  [idt_all, wdt_TotTime, wdt_UsrTime & wdt_SysTime (sec)]

## Synthesis Results - Best model ##

 4.14091E-01                             [chi2/Nl_eff]
     3.10620                             [adev (%)]

   104.39650                             [sum-of-x (%)]
 2.33173E-16                             [Flux_tot (units of input spectrum!)]
 2.35885E-12                             [Mini_tot (???)]
 1.31099E-12                             [Mcor_tot (???)]

  37.52                                  [v0_min  (km/s)]
 157.89                                  [vd_min  (km/s)]
 0.4861                                  [AV_min  (mag)]
 0.0000                                  [YAV_min (mag)]

# j     x_j(%)      Mini_j(%)     Mcor_j(%)     age_j(yr)     Z_j      (L/M)_j    YAV?  Mstars   component_j        a/Fe...       SSP_chi2r SSP_adev(%)   SSP_AV   SSP_x(%)
  1      3.8674     3.3473E-02    6.0228E-02    1.000000E+06  0.00400  1.094E-02    0   1.0000   age020_m42            0.0000     1.7369E+00     6.1810   3.3030    84.7828
  2      0.0000     0.0000E+00    0.0000E+00    3.160000E+06  0.00400  4.007E-02    0   0.9999   age045_m42            0.0000     1.3360E+00     5.1922   2.5484    92.0750
  3      0.0000     0.0000E+00    0.0000E+00    5.010000E+06  0.00400  2.539E-02    0   0.9488   age055_m42            0.0000     1.4652E+00     5.5303   2.8781    89.3260
  4      0.0000     0.0000E+00    0.0000E+00    6.610000E+06  0.00400  2.620E-02    0   0.9220   age061_m42            0.0000     1.2929E+00     5.1251   2.4693    92.6035
  5      0.0005     3.3091E-06    5.2764E-06    1.000000E+07  0.00400  1.322E-02    0   0.8862   age070_m42            0.0000     1.1823E+00     5.0040   2.1545    96.4299
  6      0.0000     0.0000E+00    0.0000E+00    1.445000E+07  0.00400  7.883E-03    0   0.8571   age078_m42            0.0000     1.3180E+00     5.2911   2.4953    93.2784
  7      0.0000     0.0000E+00    0.0000E+00    2.512000E+07  0.00400  5.251E-03    0   0.8174   age090_m42            0.0000     1.1841E+00     5.0177   2.0139    97.5410
  8      0.0000     0.0000E+00    0.0000E+00    4.000000E+07  0.00400  3.649E-03    0   0.7851   age104_m42            0.0000     1.0708E+00     4.7871   1.7833    98.5081
  9      0.0000     0.0000E+00    0.0000E+00    5.500000E+07  0.00400  3.098E-03    0   0.7629   age110_m42            0.0000     1.0794E+00     4.7261   1.9490    97.8363
 10      0.0000     0.0000E+00    0.0000E+00    1.015200E+08  0.00400  2.228E-03    0   0.7207   age116_m42            0.0000     1.1247E+00     4.7838   1.9755    97.6730
 11      0.0000     0.0000E+00    0.0000E+00    2.861200E+08  0.00400  1.093E-03    0   0.6648   age125_m42            0.0000     1.0917E+00     4.8846   1.3909   101.7582
 12      0.0000     0.0000E+00    0.0000E+00    5.088000E+08  0.00400  6.597E-04    0   0.6365   age130_m42            0.0000     1.0648E+00     4.7884   1.3903   101.9836
 13      4.2407     1.8834E+00    1.9648E+00    1.434000E+09  0.00400  2.132E-04    0   0.5798   age139_m42            0.0000     6.2256E-01     3.7344   0.4087   104.4370
 14      0.0165     2.6547E-02    2.5684E-02    4.250000E+09  0.00400  5.895E-05    0   0.5377   age158_m42            0.0000     6.2915E-01     3.8395   0.0051    98.4148
 15      0.0000     0.0000E+00    0.0000E+00    7.500000E+09  0.00400  3.510E-05    0   0.5212   age171_m42            0.0000     7.5100E-01     4.2271  -0.1655    96.9798
 16      0.0000     0.0000E+00    0.0000E+00    1.300000E+10  0.00400  2.005E-05    0   0.5034   age193_m42            0.0000     9.1577E-01     4.6959  -0.3134    95.7021
 17      0.0104     6.4443E-02    5.7593E-02    1.800000E+10  0.00400  1.525E-05    0   0.4967   age213_m42            0.0000     8.7819E-01     4.5951  -0.3406    95.4530
 18      1.8535     1.4176E-02    2.5507E-02    1.000000E+06  0.00800  1.238E-02    0   1.0000   age020_m52            0.0000     1.7302E+00     6.1771   3.2993    84.9442
 19      0.0000     0.0000E+00    0.0000E+00    3.160000E+06  0.00800  3.074E-02    0   0.9966   age045_m52            0.0000     1.6793E+00     6.0729   3.2203    85.7844
 20      0.0000     0.0000E+00    0.0000E+00    5.010000E+06  0.00800  2.668E-02    0   0.9443   age055_m52            0.0000     1.4708E+00     5.6088   2.9622    88.4368
 21      0.0000     0.0000E+00    0.0000E+00    6.610000E+06  0.00800  2.136E-02    0   0.9177   age061_m52            0.0000     9.1304E-01     4.4874   1.6554    97.3826
 22      0.0000     0.0000E+00    0.0000E+00    1.000000E+07  0.00800  1.215E-02    0   0.8827   age070_m52            0.0000     1.2709E+00     5.2542   2.3318    96.4169
 23      0.0000     0.0000E+00    0.0000E+00    1.445000E+07  0.00800  8.717E-03    0   0.8552   age078_m52            0.0000     1.2309E+00     5.1145   2.4546    94.8701
 24      0.0000     0.0000E+00    0.0000E+00    2.512000E+07  0.00800  5.592E-03    0   0.8162   age090_m52            0.0000     1.1306E+00     4.9390   2.0746    98.9216
 25      0.0118     2.8734E-04    4.0539E-04    4.000000E+07  0.00800  3.896E-03    0   0.7841   age104_m52            0.0000     1.0521E+00     4.7602   1.9888    99.6176
 26      0.0000     0.0000E+00    0.0000E+00    1.015200E+08  0.00800  2.148E-03    0   0.7226   age116_m52            0.0000     1.0124E+00     4.6249   1.9358    98.9145
 27      0.0000     0.0000E+00    0.0000E+00    2.861200E+08  0.00800  9.925E-04    0   0.6683   age125_m52            0.0000     9.7526E-01     4.5980   1.4507   103.1404
 28      0.0000     0.0000E+00    0.0000E+00    9.047900E+08  0.00800  3.141E-04    0   0.6138   age135_m52            0.0000     7.7475E-01     4.1583   0.6608   106.9525
 29      0.0000     0.0000E+00    0.0000E+00    1.434000E+09  0.00800  1.719E-04    0   0.5853   age139_m52            0.0000     6.4214E-01     3.8290   0.0914   104.2314
 30      0.0001     1.4901E-04    1.5014E-04    2.500000E+09  0.00800  7.872E-05    0   0.5600   age150_m52            0.0000     7.9444E-01     4.3706  -0.1430    99.5975
 31      0.0000     0.0000E+00    0.0000E+00    4.250000E+09  0.00800  4.336E-05    0   0.5426   age158_m52            0.0000     8.3295E-01     4.4765  -0.1535    98.4298
 32      0.0000     0.0000E+00    0.0000E+00    6.250000E+09  0.00800  3.159E-05    0   0.5319   age166_m52            0.0000     1.0780E+00     5.1372  -0.3372    97.5560
 33      0.0000     0.0000E+00    0.0000E+00    1.300000E+10  0.00800  1.361E-05    0   0.5073   age193_m52            0.0000     1.4760E+00     6.0668  -0.7821    95.8328
 34      0.0000     0.0000E+00    0.0000E+00    1.800000E+10  0.00800  9.886E-06    0   0.4990   age213_m52            0.0000     1.8565E+00     6.8648  -0.8661    94.2873
 35      0.6397     3.9233E-03    7.0592E-03    1.000000E+06  0.02000  1.544E-02    0   1.0000   age020_m62            0.0000     1.7422E+00     6.2092   3.2956    85.1202
 36      0.0000     0.0000E+00    0.0000E+00    3.160000E+06  0.02000  3.762E-02    0   0.9858   age045_m62            0.0000     1.7294E+00     6.1876   3.2358    85.8180
 37      0.0006     1.7996E-06    3.0250E-06    5.010000E+06  0.02000  3.296E-02    0   0.9342   age055_m62            0.0000     1.3973E+00     5.3875   2.8366    90.4998
 38     17.7214     1.4541E-01    2.3183E-01    8.710000E+06  0.02000  1.154E-02    0   0.8861   age067_m62            0.0000     2.3973E+00     7.5022   1.7367   102.1332
 39      1.3287     1.6418E-02    2.5028E-02    1.445000E+07  0.02000  7.663E-03    0   0.8472   age078_m62            0.0000     1.3807E+00     5.6108   1.9609    99.7642
 40      0.0081     1.7005E-04    2.4781E-04    2.512000E+07  0.02000  4.532E-03    0   0.8099   age090_m62            0.0000     1.4774E+00     5.7800   1.9482    99.8382
 41      0.0000     0.0000E+00    0.0000E+00    5.500000E+07  0.02000  2.733E-03    0   0.7595   age110_m62            0.0000     1.0513E+00     4.7475   1.9741    98.7484
 42      0.0000     0.0000E+00    0.0000E+00    1.609000E+08  0.02000  1.369E-03    0   0.6985   age120_m62            0.0000     1.0462E+00     4.6715   1.8152   101.2899
 43      0.0000     0.0000E+00    0.0000E+00    2.861200E+08  0.02000  9.013E-04    0   0.6714   age125_m62            0.0000     1.0470E+00     4.7044   1.5594   104.4272
 44      2.1574     4.0627E-01    4.7142E-01    5.088000E+08  0.02000  5.028E-04    0   0.6449   age130_m62            0.0000     1.0133E+00     4.6569   1.1975   106.2903
 45      0.0000     0.0000E+00    0.0000E+00    9.047900E+08  0.02000  2.428E-04    0   0.6179   age135_m62            0.0000     7.5985E-01     4.1404   0.6275   104.8409
 46      4.3051     3.2276E+00    3.4310E+00    1.434000E+09  0.02000  1.263E-04    0   0.5908   age139_m62            0.0000     7.4092E-01     4.1494   0.1960   102.6364
 47      0.0068     1.0733E-02    1.0956E-02    2.500000E+09  0.02000  5.985E-05    0   0.5673   age150_m62            0.0000     1.0163E+00     4.9818  -0.1391    99.6655
 48      3.4803     1.0075E+01    9.9119E+00    4.250000E+09  0.02000  3.271E-05    0   0.5468   age158_m62            0.0000     1.4635E+00     6.1162  -0.4152    97.4337
 49      0.0000     0.0000E+00    0.0000E+00    1.000000E+10  0.02000  1.360E-05    0   0.5167   age181_m62            0.0000     2.1622E+00     7.4974  -0.7257    95.3703
 50      0.9147     1.2157E+01    1.0966E+01    1.800000E+10  0.02000  7.124E-06    0   0.5013   age213_m62            0.0000     2.7652E+00     8.5635  -0.9010    93.1223
 51      4.2108     1.5382E-02    2.7672E-02    1.000000E+06  0.05000  2.592E-02    0   0.9998   age020_m72            0.0000     1.7778E+00     6.3036   3.2883    85.0866
 52      0.0000     0.0000E+00    0.0000E+00    3.160000E+06  0.05000  4.845E-02    0   0.9577   age045_m72            0.0000     1.6196E+00     5.8955   3.1131    87.2280
 53      0.0000     0.0000E+00    0.0000E+00    5.010000E+06  0.05000  3.072E-02    0   0.9147   age055_m72            0.0000     1.5075E+00     5.8410   2.5921    93.7360
 54      0.0000     0.0000E+00    0.0000E+00    6.610000E+06  0.05000  1.455E-02    0   0.8877   age061_m72            0.0000     4.1692E+00     9.9474   1.7946   103.5664
 55      0.0000     0.0000E+00    0.0000E+00    1.000000E+07  0.05000  9.074E-03    0   0.8524   age070_m72            0.0000     1.9243E+00     6.5987   2.7982    92.8459
 56      0.0000     0.0000E+00    0.0000E+00    2.512000E+07  0.05000  4.250E-03    0   0.7902   age090_m72            0.0000     1.5591E+00     5.8755   2.4634    96.0302
 57      0.0000     0.0000E+00    0.0000E+00    4.000000E+07  0.05000  3.087E-03    0   0.7618   age104_m72            0.0000     1.5574E+00     5.8717   2.2195    98.4769
 58      0.0023     1.2593E-04    1.6078E-04    1.015200E+08  0.05000  1.700E-03    0   0.7096   age116_m72            0.0000     1.1277E+00     4.8881   1.9513   101.3090
 59      2.1340     2.7365E-01    3.2660E-01    2.861200E+08  0.05000  7.384E-04    0   0.6633   age125_m72            0.0000     9.9592E-01     4.5852   1.4347   105.4561
 60     15.8198     3.9223E+00    4.4970E+00    5.088000E+08  0.05000  3.819E-04    0   0.6372   age130_m72            0.0000     8.1414E-01     4.1546   0.9578   106.1960
 61     16.7909     9.4862E+00    1.0429E+01    9.047900E+08  0.05000  1.676E-04    0   0.6110   age135_m72            0.0000     9.8074E-01     4.8737   0.3066   102.0031
 62     15.3473     1.6444E+01    1.7380E+01    1.434000E+09  0.05000  8.837E-05    0   0.5874   age139_m72            0.0000     1.0983E+00     5.1789  -0.1405   101.1618
 63      4.8318     1.0808E+01    1.0886E+01    2.500000E+09  0.05000  4.233E-05    0   0.5598   age150_m72            0.0000     1.6319E+00     6.4962  -0.4074    97.8530
 64      4.6958     3.0985E+01    2.9264E+01    6.250000E+09  0.05000  1.435E-05    0   0.5249   age166_m72            0.0000     2.3271E+00     7.8690  -0.8132    94.5268
 65      0.0000     0.0000E+00    0.0000E+00    1.300000E+10  0.05000  6.513E-06    0   0.5036   age193_m72            0.0000     3.1764E+00     9.2524  -1.0000    91.5748
 66      0.0000     0.0000E+00    0.0000E+00    1.800000E+10  0.05000  4.527E-06    0   0.4945   age213_m72            0.0000     3.9116E+00    10.2629  -1.0000    85.2061


## Synthesis Results - Average & Chains ##

# j      x_j: min, <> & last-chain-values for 1 ...  7 chains
  1      3.8674      1.6312      1.0795      1.6467      1.8175      1.7526      2.5720      1.6812      2.9792
  2      0.0000      0.6390      0.0000      0.2108      0.8706      0.5011      0.2733      0.0020      1.0483
  3      0.0000      0.4702      0.2245      1.4073      0.0000      0.2667      0.0000      1.9241      0.4865
  4      0.0000      0.0984      0.0000      0.0000      0.1910      0.0000      0.0152      0.0000      0.0000
  5      0.0005      0.6943      0.0000      0.4505      0.6642      0.0000      0.3583      0.9115      0.2660
  6      0.0000      0.1930      0.0000      0.0000      0.0000      0.0000      0.0000      0.4115      0.0000
  7      0.0000      0.2398      0.5294      0.1232      0.0829      0.0000      0.9394      0.0000      0.0000
  8      0.0000      0.3114      1.1053      0.6334      0.0000      0.0881      0.0000      0.0000      1.7956
  9      0.0000      0.2690      0.0000      0.3753      0.0951      0.0000      0.7100      0.7265      1.0525
 10      0.0000      0.2924      0.4719      0.2036      0.0000      0.0000      0.0000      0.0000      0.1657
 11      0.0000      0.3248      0.0000      0.0000      0.0000      0.0000      0.3380      0.0719      0.0000
 12      0.0000      0.3898      0.6956      0.0422      0.0000      1.3140      0.0000      0.0000      0.0000
 13      4.2407      3.5007      3.7993      4.5974      0.7295      1.7460      3.9289      4.7922      5.2193
 14      0.0165      0.4652      0.4747      0.0000      2.3697      1.0590      0.0000      0.0000      0.4399
 15      0.0000      0.8167      0.0000      0.0000      1.3516      0.0000      0.0000      0.5861      0.0000
 16      0.0000      0.2926      1.3192      0.0000      0.0000      0.1030      0.8479      0.0000      0.0000
 17      0.0104      0.1754      0.0000      0.1100      0.4447      0.0000      0.0000      0.0000      0.0000
 18      1.8535      1.0978      0.2363      0.8647      1.1925      1.2156      2.0703      0.0000      1.3580
 19      0.0000      0.4168      0.0000      0.0000      0.2985      0.0000      0.0000      0.0000      0.2745
 20      0.0000      0.2618      1.0708      0.0000      0.5452      0.0041      0.9955      0.4364      0.1231
 21      0.0000      1.5424      2.0625      0.5266      1.8308      4.6353      1.4583      2.7187      0.0000
 22      0.0000      1.3103      1.3466      2.6535      1.8464      0.7621      1.7401      0.4740      1.4924
 23      0.0000      0.4943      1.2477      0.7982      0.4271      0.0000      0.6521      1.0016      0.0000
 24      0.0000      0.2098      0.8393      0.0000      0.0000      0.0000      0.1268      0.0000      0.0000
 25      0.0118      0.9680      2.6438      0.6650      0.6664      0.7457      0.0000      0.0000      0.1597
 26      0.0000      0.2954      0.0000      0.0000      0.0000      0.0000      1.0499      0.0000      0.5726
 27      0.0000      0.4210      0.0000      0.0000      0.0000      0.1031      0.0000      0.0000      0.0000
 28      0.0000      1.3324      0.0000      2.5445      0.4695      0.5578      0.3925      0.0000      0.0000
 29      0.0000      0.5856      0.0254      0.0000      0.0000      0.0000      0.0000      0.0000      0.0000
 30      0.0001      1.8699      0.8543      1.7162      0.4496      1.0895      1.7945      2.2220      3.0321
 31      0.0000      0.1930      1.3694      0.0000      0.0760      0.0000      1.0937      0.0000      0.0897
 32      0.0000      0.5861      0.0000      0.0000      0.6338      0.7200      0.0000      0.0000      0.0000
 33      0.0000      0.4687      0.4593      0.4788      0.0000      0.5090      0.0000      0.4557      0.3629
 34      0.0000      0.1573      0.0000      0.0000      0.0000      0.0000      0.4394      0.3258      0.0000
 35      0.6397      0.4164      0.0000      0.9237      0.6679      0.0000      0.5015      0.0838      0.7284
 36      0.0000      0.3323      0.5169      1.0229      0.0000      0.0000      0.3826      0.1949      0.0000
 37      0.0006      1.4013      0.0000      1.0473      1.4452      2.6317      1.6097      1.4127      1.9971
 38     17.7214      8.1831      9.9933      9.6487      9.6120     11.9188      8.6155      9.0246      8.6785
 39      1.3287      4.3744      4.7095      4.6128      3.7761      6.5067      4.7579      5.9735      4.2887
 40      0.0081      1.4844      1.0872      0.5674      2.8497      0.0000      1.1836      1.1718      1.4813
 41      0.0000      0.2122      0.0000      0.2121      0.0000      0.0000      0.0000      0.0000      0.0000
 42      0.0000      0.2462      1.3565      0.0000      0.0000      0.9274      0.0000      0.3756      0.0000
 43      0.0000      0.4195      0.7911      0.2896      0.0000      0.0000      0.3636      0.3403      0.0000
 44      2.1574      0.9318      0.3574      0.8424      3.5034      2.5383      0.0000      2.1032      0.0000
 45      0.0000      1.8179      0.0000      0.0000      1.1358      0.1293      0.5288      1.9473      2.3423
 46      4.3051      4.5755      6.3304      5.1279      4.8757      5.2003      2.8556      4.0370      6.6563
