###################################################################
## OUTPUT of StarlightChains_v04.for    [Cid@UFSC - 01/Apr/2007] ##
###################################################################

## Some input info
2001fe.txt                               [arq_obs]
Base.CB07.vall.4m                        [arq_base]
Masks.EmLines.NEW.gm                     [arq_masks]
StCv04.C11.config                        [arq_config]
   66                                    [N_base]
    0                                    [N_YAV_components = # of components with extra extinction!]
    0                                    [i_FitPowerLaw (1/0 = Yes/No)]
-9.99                                    [alpha_PowerLaw]
CCM                                      [red_law_option]
 1.458241                                [q_norm = A(l_norm)/A(V)]

## (Re)Sampling Parameters
 3741.00                                 [l_ini (A)]
 7218.00                                 [l_fin (A)]
    1.00                                 [dl    (A)]     (OBS: dl_cushion =    50.00 A)

## Normalization info
 4020.00                                 [l_norm (A) - for base]
 4010.00                                 [llow_norm (A) - window for f_obs]
 4060.00                                 [lupp_norm (A) - window for f_obs]
4.064749E-17                             [fobs_norm (in input units)]

## S/N
 3691.00                                 [llow_SN (A) - window for S/N]
 7268.00                                 [lupp_SN (A) - window for S/N]
   7.310                                 [S/N in S/N window]
   8.129                                 [S/N in norm. window]
  10.000                                 [S/N_err in S/N window]
  11.120                                 [S/N_err in norm. window]
  1.0000                                 [fscale_chi2]

## etc...
    -2007258                             [idum_orig]
  2250                                   [NOl_eff]
  2213                                   [Nl_eff]
    37    NSIGMA                         [Ntot_cliped & clip_method]
  1418830                                [Nglobal_steps]
   7                                     [N_chains]
  26                                     [NEX0s_base = N_base in EX0s-fits]
 0   0   1       93   2.0   1.631E+01    [Clip-Bug, RC-Crash & Burn-In warning-flags, n_censored_weights, wei_nsig_threshold & wei_limit]
    12     12.262     11.773      0.490  [idt_all, wdt_TotTime, wdt_UsrTime & wdt_SysTime (sec)]

## Synthesis Results - Best model ##

 5.96367E-01                             [chi2/Nl_eff]
     5.68018                             [adev (%)]

   105.35181                             [sum-of-x (%)]
 4.00812E-17                             [Flux_tot (units of input spectrum!)]
 3.08377E-13                             [Mini_tot (???)]
 1.73792E-13                             [Mcor_tot (???)]

 110.13                                  [v0_min  (km/s)]
  89.46                                  [vd_min  (km/s)]
-0.0493                                  [AV_min  (mag)]
 0.0000                                  [YAV_min (mag)]

# j     x_j(%)      Mini_j(%)     Mcor_j(%)     age_j(yr)     Z_j      (L/M)_j    YAV?  Mstars   component_j        a/Fe...       SSP_chi2r SSP_adev(%)   SSP_AV   SSP_x(%)
  1      0.0000     0.0000E+00    0.0000E+00    1.000000E+06  0.00400  1.094E-02    0   1.0000   age020_m42            0.0000     1.3194E+00     8.3013   2.8936    85.8892
  2      0.0055     1.6830E-05    2.9860E-05    3.160000E+06  0.00400  4.007E-02    0   0.9999   age045_m42            0.0000     9.6569E-01     7.2062   2.1286    93.5635
  3      0.0000     0.0000E+00    0.0000E+00    5.010000E+06  0.00400  2.539E-02    0   0.9488   age055_m42            0.0000     1.0912E+00     7.5521   2.4648    90.5619
  4      0.0000     0.0000E+00    0.0000E+00    6.610000E+06  0.00400  2.620E-02    0   0.9220   age061_m42            0.0000     9.5542E-01     7.0753   2.0532    93.8900
  5      0.0000     0.0000E+00    0.0000E+00    1.000000E+07  0.00400  1.322E-02    0   0.8862   age070_m42            0.0000     1.0118E+00     7.0810   1.7915    95.2193
  6      0.0000     0.0000E+00    0.0000E+00    1.445000E+07  0.00400  7.883E-03    0   0.8571   age078_m42            0.0000     1.0971E+00     7.3916   2.1272    92.3839
  7      0.0000     0.0000E+00    0.0000E+00    2.512000E+07  0.00400  5.251E-03    0   0.8174   age090_m42            0.0000     1.0177E+00     7.1049   1.6613    95.7904
  8      0.0000     0.0000E+00    0.0000E+00    4.000000E+07  0.00400  3.649E-03    0   0.7851   age104_m42            0.0000     9.4135E-01     6.8677   1.4237    97.0605
  9      0.0000     0.0000E+00    0.0000E+00    5.500000E+07  0.00400  3.098E-03    0   0.7629   age110_m42            0.0000     9.1051E-01     6.7830   1.5639    97.5895
 10      0.0000     0.0000E+00    0.0000E+00    1.015200E+08  0.00400  2.228E-03    0   0.7207   age116_m42            0.0000     9.1299E-01     6.7862   1.5749    98.1518
 11      0.0000     0.0000E+00    0.0000E+00    2.861200E+08  0.00400  1.093E-03    0   0.6648   age125_m42            0.0000     8.7262E-01     6.6400   1.0081   101.3607
 12      0.0000     0.0000E+00    0.0000E+00    5.088000E+08  0.00400  6.597E-04    0   0.6365   age130_m42            0.0000     8.6951E-01     6.6150   0.9815   102.8797
 13      0.0000     0.0000E+00    0.0000E+00    1.434000E+09  0.00400  2.132E-04    0   0.5798   age139_m42            0.0000     6.8684E-01     6.0294  -0.0105   105.9284
 14     10.8228     2.2650E+01    2.1611E+01    4.250000E+09  0.00400  5.895E-05    0   0.5377   age158_m42            0.0000     6.8912E-01     6.2036  -0.4530   101.8136
 15      0.0000     0.0000E+00    0.0000E+00    7.500000E+09  0.00400  3.510E-05    0   0.5212   age171_m42            0.0000     7.7984E-01     6.5504  -0.6417   101.2052
 16      0.0000     0.0000E+00    0.0000E+00    1.300000E+10  0.00400  2.005E-05    0   0.5034   age193_m42            0.0000     8.9051E-01     6.9387  -0.8053   100.6512
 17      0.0000     0.0000E+00    0.0000E+00    1.800000E+10  0.00400  1.525E-05    0   0.4967   age213_m42            0.0000     8.6552E-01     6.8340  -0.8266   100.1281
 18      0.0000     0.0000E+00    0.0000E+00    1.000000E+06  0.00800  1.238E-02    0   1.0000   age020_m52            0.0000     1.3166E+00     8.2910   2.8900    86.0595
 19      0.0000     0.0000E+00    0.0000E+00    3.160000E+06  0.00800  3.074E-02    0   0.9966   age045_m52            0.0000     1.2722E+00     8.1477   2.8078    87.0325
 20      0.0000     0.0000E+00    0.0000E+00    5.010000E+06  0.00800  2.668E-02    0   0.9443   age055_m52            0.0000     1.1207E+00     7.6267   2.5529    89.5309
 21      0.0000     0.0000E+00    0.0000E+00    6.610000E+06  0.00800  2.136E-02    0   0.9177   age061_m52            0.0000     9.1271E-01     6.8084   1.2881    96.4479
 22      0.0000     0.0000E+00    0.0000E+00    1.000000E+07  0.00800  1.215E-02    0   0.8827   age070_m52            0.0000     1.0720E+00     7.2680   1.9846    94.5247
 23      0.0000     0.0000E+00    0.0000E+00    1.445000E+07  0.00800  8.717E-03    0   0.8552   age078_m52            0.0000     1.0478E+00     7.1987   2.0902    93.8117
 24      0.0000     0.0000E+00    0.0000E+00    2.512000E+07  0.00800  5.592E-03    0   0.8162   age090_m52            0.0000     9.7937E-01     6.9345   1.7257    97.0099
 25      0.0000     0.0000E+00    0.0000E+00    4.000000E+07  0.00800  3.896E-03    0   0.7841   age104_m52            0.0000     9.1261E-01     6.7313   1.6283    98.2292
 26      0.0000     0.0000E+00    0.0000E+00    1.015200E+08  0.00800  2.148E-03    0   0.7226   age116_m52            0.0000     8.5211E-01     6.5909   1.5476    98.8303
 27      0.0000     0.0000E+00    0.0000E+00    2.861200E+08  0.00800  9.925E-04    0   0.6683   age125_m52            0.0000     8.4206E-01     6.4516   1.0459   103.9192
 28      0.0000     0.0000E+00    0.0000E+00    9.047900E+08  0.00800  3.141E-04    0   0.6138   age135_m52            0.0000     7.6885E-01     6.3331   0.2219   109.5814
 29     48.5032     3.4811E+01    3.6153E+01    1.434000E+09  0.00800  1.719E-04    0   0.5853   age139_m52            0.0000     6.7202E-01     6.0402  -0.3496   107.0465
 30      0.0000     0.0000E+00    0.0000E+00    2.500000E+09  0.00800  7.872E-05    0   0.5600   age150_m52            0.0000     7.9498E-01     6.6338  -0.6296   104.5027
 31      0.0000     0.0000E+00    0.0000E+00    4.250000E+09  0.00800  4.336E-05    0   0.5426   age158_m52            0.0000     8.3238E-01     6.7609  -0.6436   103.4167
 32      0.0000     0.0000E+00    0.0000E+00    6.250000E+09  0.00800  3.159E-05    0   0.5319   age166_m52            0.0000     9.8901E-01     7.2954  -0.8529   103.7497
 33      0.0000     0.0000E+00    0.0000E+00    1.300000E+10  0.00800  1.361E-05    0   0.5073   age193_m52            0.0000     1.6710E+00     8.6387  -1.0000    91.8018
 34      0.0000     0.0000E+00    0.0000E+00    1.800000E+10  0.00800  9.886E-06    0   0.4990   age213_m52            0.0000     2.2022E+00     9.8667  -1.0000    87.6216
 35      0.0000     0.0000E+00    0.0000E+00    1.000000E+06  0.02000  1.544E-02    0   1.0000   age020_m62            0.0000     1.3250E+00     8.3129   2.8868    86.2275
 36      0.0000     0.0000E+00    0.0000E+00    3.160000E+06  0.02000  3.762E-02    0   0.9858   age045_m62            0.0000     1.3044E+00     8.2507   2.8233    87.0994
 37      0.0000     0.0000E+00    0.0000E+00    5.010000E+06  0.02000  3.296E-02    0   0.9342   age055_m62            0.0000     1.0155E+00     7.2842   2.4131    92.1837
 38      0.0000     0.0000E+00    0.0000E+00    8.710000E+06  0.02000  1.154E-02    0   0.8861   age067_m62            0.0000     1.6370E+00     9.2483   1.4877    95.3185
 39      0.0000     0.0000E+00    0.0000E+00    1.445000E+07  0.02000  7.663E-03    0   0.8472   age078_m62            0.0000     1.1218E+00     7.4521   1.6467    96.2973
 40      1.7020     4.6334E-02    6.6586E-02    2.512000E+07  0.02000  4.532E-03    0   0.8099   age090_m62            0.0000     1.1390E+00     7.4772   1.6402    96.0605
 41      0.0000     0.0000E+00    0.0000E+00    5.500000E+07  0.02000  2.733E-03    0   0.7595   age110_m62            0.0000     9.2529E-01     6.7128   1.6133    97.4106
 42      0.0000     0.0000E+00    0.0000E+00    1.609000E+08  0.02000  1.369E-03    0   0.6985   age120_m62            0.0000     8.9485E-01     6.5814   1.4214   101.4541
 43      0.0000     0.0000E+00    0.0000E+00    2.861200E+08  0.02000  9.013E-04    0   0.6714   age125_m62            0.0000     9.2817E-01     6.6389   1.1501   105.3473
 44      0.0000     0.0000E+00    0.0000E+00    5.088000E+08  0.02000  5.028E-04    0   0.6449   age130_m62            0.0000     9.1385E-01     6.7709   0.7486   109.3033
 45      0.0000     0.0000E+00    0.0000E+00    9.047900E+08  0.02000  2.428E-04    0   0.6179   age135_m62            0.0000     7.7764E-01     6.4660   0.1583   108.9464
 46      0.0000     0.0000E+00    0.0000E+00    1.434000E+09  0.02000  1.263E-04    0   0.5908   age139_m62            0.0000     7.9378E-01     6.5952  -0.2834   107.2350
 47      0.0000     0.0000E+00    0.0000E+00    2.500000E+09  0.02000  5.985E-05    0   0.5673   age150_m62            0.0000     9.5284E-01     7.2276  -0.6563   106.0219
 48      0.0000     0.0000E+00    0.0000E+00    4.250000E+09  0.02000  3.271E-05    0   0.5468   age158_m62            0.0000     1.2301E+00     8.1301  -0.9737   105.6451
 49      0.0000     0.0000E+00    0.0000E+00    1.000000E+10  0.02000  1.360E-05    0   0.5167   age181_m62            0.0000     2.0851E+00     9.6941  -1.0000    93.6867
 50      0.0000     0.0000E+00    0.0000E+00    1.800000E+10  0.02000  7.124E-06    0   0.5013   age213_m62            0.0000     3.0629E+00    11.6802  -1.0000    85.6188
 51      0.0000     0.0000E+00    0.0000E+00    1.000000E+06  0.05000  2.592E-02    0   0.9998   age020_m72            0.0000     1.3677E+00     8.4202   2.8832    86.0596
 52      0.3220     8.1992E-04    1.3933E-03    3.160000E+06  0.05000  4.845E-02    0   0.9577   age045_m72            0.0000     1.1777E+00     7.8602   2.6904    88.9020
 53      0.0224     9.0058E-05    1.4617E-04    5.010000E+06  0.05000  3.072E-02    0   0.9147   age055_m72            0.0000     1.1510E+00     7.5382   2.2446    92.1985
 54      4.0953     3.4724E-02    5.4696E-02    6.610000E+06  0.05000  1.455E-02    0   0.8877   age061_m72            0.0000     1.9606E+00    10.5174   1.5927    94.9502
 55      0.0000     0.0000E+00    0.0000E+00    1.000000E+07  0.05000  9.074E-03    0   0.8524   age070_m72            0.0000     1.1863E+00     7.7476   2.4538    91.4832
 56      1.4130     4.1018E-02    5.7513E-02    2.512000E+07  0.05000  4.250E-03    0   0.7902   age090_m72            0.0000     1.0473E+00     7.1802   2.1176    94.3602
 57      9.0144     3.6026E-01    4.8698E-01    4.000000E+07  0.05000  3.087E-03    0   0.7618   age104_m72            0.0000     1.0122E+00     7.0458   1.8832    96.2795
 58     13.4205     9.7395E-01    1.2263E+00    1.015200E+08  0.05000  1.700E-03    0   0.7096   age116_m72            0.0000     9.1126E-01     6.6341   1.5772   100.5807
 59      0.0000     0.0000E+00    0.0000E+00    2.861200E+08  0.05000  7.384E-04    0   0.6633   age125_m72            0.0000     9.2004E-01     6.6694   1.0047   107.4304
 60      0.0000     0.0000E+00    0.0000E+00    5.088000E+08  0.05000  3.819E-04    0   0.6372   age130_m72            0.0000     8.2248E-01     6.5554   0.4914   110.1003
 61      0.0000     0.0000E+00    0.0000E+00    9.047900E+08  0.05000  1.676E-04    0   0.6110   age135_m72            0.0000     9.0888E-01     7.1587  -0.2126   108.4879
 62     13.4336     1.8754E+01    1.9547E+01    1.434000E+09  0.05000  8.837E-05    0   0.5874   age139_m72            0.0000     1.0166E+00     7.3982  -0.6609   107.8041
 63      0.0000     0.0000E+00    0.0000E+00    2.500000E+09  0.05000  4.233E-05    0   0.5598   age150_m72            0.0000     1.3333E+00     8.4351  -0.9787   106.7698
 64      2.5970     2.2327E+01    2.0795E+01    6.250000E+09  0.05000  1.435E-05    0   0.5249   age166_m72            0.0000     2.4131E+00    10.4529  -1.0000    89.9089
 65      0.0000     0.0000E+00    0.0000E+00    1.300000E+10  0.05000  6.513E-06    0   0.5036   age193_m72            0.0000     3.8965E+00    13.3466  -1.0000    81.0359
 66      0.0000     0.0000E+00    0.0000E+00    1.800000E+10  0.05000  4.527E-06    0   0.4945   age213_m72            0.0000     4.8934E+00    15.0901  -1.0000    75.5479


## Synthesis Results - Average & Chains ##

# j      x_j: min, <> & last-chain-values for 1 ...  7 chains
  1      0.0000      0.1461      0.0000      0.5791      0.0000      0.0000      0.0000      0.0000      0.0000
  2      0.0055      0.2227      0.0000      0.5405      0.0000      0.0000      1.9056      0.9488      0.0000
  3      0.0000      0.6049      0.0000      0.0000      0.2219      0.1002      0.0000      0.0000      0.3792
  4      0.0000      0.3806      0.0000      1.9623      0.0000      0.4157      0.0000      0.0000      0.0000
  5      0.0000      0.2195      1.6654      0.0000      0.0000      0.0000      0.0000      0.1233      0.2827
  6      0.0000      0.6181      1.9346      0.0000      0.7993      1.7474      0.0000      0.0000      1.4128
  7      0.0000      0.3133      0.0000      0.0000      0.0000      0.0000      0.0000      0.0000      0.6348
  8      0.0000      1.4111      0.0000      1.8467      0.0000      2.2221      2.4660      3.8061      0.0000
  9      0.0000      0.5678      0.0000      1.6106      0.0000      0.0000      2.6652      0.0000      0.0000
 10      0.0000      0.3576      0.0000      0.5879      0.0694      0.0000      0.0000      0.0000      0.0000
 11      0.0000      0.5167      1.2340      0.0000      0.7728      1.8988      0.0000      0.0000      0.0000
 12      0.0000      1.3094      6.2798      0.0000      1.6824      0.0000      0.0000      0.0000      0.4273
 13      0.0000      5.8690      1.3892      0.1333      3.7394      0.0000      1.5824      4.9098      3.1808
 14     10.8228      4.9725      6.9074      6.1403      7.7823      7.8661      5.6978      4.4342     11.0439
 15      0.0000      1.1630      0.0000      0.0000      0.0000      0.6354      0.4291      4.9259      0.0000
 16      0.0000      0.6150      0.0000      1.2391      0.0000      0.0000      0.2844      0.0000      0.0000
 17      0.0000      0.7986      0.8681      1.2530      0.0000      1.1945      0.0000      0.2746      0.0000
 18      0.0000      0.1569      0.0000      0.7763      2.1445      0.0000      0.0000      0.5744      0.0000
 19      0.0000      0.2350      2.2647      0.0000      0.0000      1.7005      0.0000      0.0000      0.0000
 20      0.0000      0.5540      0.0000      0.9515      0.0000      0.0000      1.0372      0.0000      0.0000
 21      0.0000      0.7940      0.1439      0.2801      0.0000      4.5346      1.8558      2.3464      0.0000
 22      0.0000      0.1973      0.0819      0.0000      0.6749      0.0000      0.0000      0.0000      0.0000
 23      0.0000      0.4608      0.0000      0.0000      0.2003      0.0000      0.0000      0.0000      0.2354
 24      0.0000      0.7185      0.8084      0.0000      0.0000      1.0428      3.1381      0.2395      0.0000
 25      0.0000      0.7984      1.9200      0.1289      0.8983      0.0000      1.4026      1.0064      0.0000
 26      0.0000      0.4210      0.2372      0.0000      0.0851      0.0000      1.5520      0.0000      0.6503
 27      0.0000      1.1127      0.0000      0.5141      0.0000      3.4531      3.0892      0.0000      1.6036
 28      0.0000      2.0951      0.0000      1.2943      0.0000      1.8233      1.1200      2.9109      0.0000
 29     48.5032     30.0090     40.2875     50.4776     42.5103     32.3679     37.3858     33.2175     33.5428
 30      0.0000      0.8272      0.0000      0.0000      0.0000      0.0000      5.3211      2.1857      1.6264
 31      0.0000      2.6451      3.0875      0.0249      0.7943      0.0671      1.8373      2.5425      3.8281
 32      0.0000      0.3522      0.0000      0.0000      0.0000      0.4245      0.0000      0.0000      0.0000
 33      0.0000      0.3606      0.0000      0.0000      0.0000      1.3932      0.1220      0.0000      0.0000
 34      0.0000      0.1393      0.7623      0.0000      0.0000      0.0000      0.0000      0.0000      0.0000
 35      0.0000      0.4070      0.0000      1.5372      0.0000      0.1950      0.0000      0.0000      2.6880
 36      0.0000      0.5502      0.0000      0.0000      0.7870      0.0000      0.0000      0.0000      0.4841
 37      0.0000      0.3657      0.0000      0.0000      0.0000      0.0000      0.0000      0.0000      0.0000
 38      0.0000      0.7612      0.0000      0.0690      0.1770      0.0910      0.0000      0.0000      0.0000
 39      0.0000      1.0624      0.7351      0.0000      0.0574      5.6095      2.4663      5.0507      0.0000
 40      1.7020      1.0953      2.1450      4.0989      0.0000      0.0000      0.0000      0.0000      1.7843
 41      0.0000      0.5279      1.9511      0.0000      0.0000      0.0000      0.3819      1.0555      1.1357
 42      0.0000      0.6318      0.0000      0.0000      0.0000      0.2459      0.5726      0.2052      0.0000
 43      0.0000      1.3978      0.0000      0.0000      0.0000      7.8866      0.0000      1.0357      1.2516
 44      0.0000      1.2262      0.0000      4.2208      0.0000      0.0000      0.0000      0.0000      0.5023
 45      0.0000      1.9789      2.1160      0.0000      3.4030      0.0000      2.3595      0.2533      0.0000
 46      0.0000      2.0368      0.0000      0.0205      2.3196      0.0000      0.0000      0.0000      2.4133
