###################################################################
## OUTPUT of StarlightChains_v04.for    [Cid@UFSC - 01/Apr/2007] ##
###################################################################

## Some input info
2002jg.txt                               [arq_obs]
Base.CB07.vall.4m                        [arq_base]
Masks.EmLines.NEW.gm                     [arq_masks]
StCv04.C11.config                        [arq_config]
   66                                    [N_base]
    0                                    [N_YAV_components = # of components with extra extinction!]
    0                                    [i_FitPowerLaw (1/0 = Yes/No)]
-9.99                                    [alpha_PowerLaw]
CCM                                      [red_law_option]
 1.458241                                [q_norm = A(l_norm)/A(V)]

## (Re)Sampling Parameters
 3741.00                                 [l_ini (A)]
 7218.00                                 [l_fin (A)]
    1.00                                 [dl    (A)]     (OBS: dl_cushion =    50.00 A)

## Normalization info
 4020.00                                 [l_norm (A) - for base]
 4010.00                                 [llow_norm (A) - window for f_obs]
 4060.00                                 [lupp_norm (A) - window for f_obs]
2.238287E-16                             [fobs_norm (in input units)]

## S/N
 3691.00                                 [llow_SN (A) - window for S/N]
 7268.00                                 [lupp_SN (A) - window for S/N]
   4.795                                 [S/N in S/N window]
   6.697                                 [S/N in norm. window]
  19.125                                 [S/N_err in S/N window]
  26.711                                 [S/N_err in norm. window]
  1.0000                                 [fscale_chi2]

## etc...
    -2007268                             [idum_orig]
  2384                                   [NOl_eff]
  2381                                   [Nl_eff]
     3    NSIGMA                         [Ntot_cliped & clip_method]
   968310                                [Nglobal_steps]
   7                                     [N_chains]
  15                                     [NEX0s_base = N_base in EX0s-fits]
 0   0   1        1   2.0   6.216E+01    [Clip-Bug, RC-Crash & Burn-In warning-flags, n_censored_weights, wei_nsig_threshold & wei_limit]
    13     13.466     12.968      0.498  [idt_all, wdt_TotTime, wdt_UsrTime & wdt_SysTime (sec)]

## Synthesis Results - Best model ##

 3.82017E-01                             [chi2/Nl_eff]
     2.40508                             [adev (%)]

   102.93825                             [sum-of-x (%)]
 4.88068E-16                             [Flux_tot (units of input spectrum!)]
 5.08934E-13                             [Mini_tot (???)]
 3.36147E-13                             [Mcor_tot (???)]

  63.37                                  [v0_min  (km/s)]
 132.18                                  [vd_min  (km/s)]
 0.5589                                  [AV_min  (mag)]
 0.0000                                  [YAV_min (mag)]

# j     x_j(%)      Mini_j(%)     Mcor_j(%)     age_j(yr)     Z_j      (L/M)_j    YAV?  Mstars   component_j        a/Fe...       SSP_chi2r SSP_adev(%)   SSP_AV   SSP_x(%)
  1      0.0000     0.0000E+00    0.0000E+00    1.000000E+06  0.00400  1.094E-02    0   1.0000   age020_m42            0.0000     1.6326E+00     5.2712   2.2336    86.4157
  2      0.0000     0.0000E+00    0.0000E+00    3.160000E+06  0.00400  4.007E-02    0   0.9999   age045_m42            0.0000     8.6956E-01     3.6971   1.4812    93.6673
  3      0.0000     0.0000E+00    0.0000E+00    5.010000E+06  0.00400  2.539E-02    0   0.9488   age055_m42            0.0000     1.0742E+00     4.2231   1.8056    91.1279
  4      0.0000     0.0000E+00    0.0000E+00    6.610000E+06  0.00400  2.620E-02    0   0.9220   age061_m42            0.0000     7.3764E-01     3.3494   1.3949    94.4700
  5      0.9294     6.5499E-02    8.7882E-02    1.000000E+07  0.00400  1.322E-02    0   0.8862   age070_m42            0.0000     6.7414E-01     3.2289   1.0586    99.0420
  6      0.0218     2.5797E-03    3.3476E-03    1.445000E+07  0.00400  7.883E-03    0   0.8571   age078_m42            0.0000     8.2958E-01     3.6331   1.3991    95.8676
  7      7.0801     1.2561E+00    1.5546E+00    2.512000E+07  0.00400  5.251E-03    0   0.8174   age090_m42            0.0000     6.7915E-01     3.2461   0.9163   100.2086
  8      0.0130     3.3232E-03    3.9502E-03    4.000000E+07  0.00400  3.649E-03    0   0.7851   age104_m42            0.0000     5.8517E-01     2.9670   0.6914   100.9515
  9      6.5388     1.9663E+00    2.2712E+00    5.500000E+07  0.00400  3.098E-03    0   0.7629   age110_m42            0.0000     4.7404E-01     2.6037   0.8646   100.0260
 10     41.4987     1.7353E+01    1.8934E+01    1.015200E+08  0.00400  2.228E-03    0   0.7207   age116_m42            0.0000     4.5481E-01     2.5894   0.8957    99.7158
 11      0.0000     0.0000E+00    0.0000E+00    2.861200E+08  0.00400  1.093E-03    0   0.6648   age125_m42            0.0000     5.7444E-01     2.8384   0.3006   104.0546
 12      0.0000     0.0000E+00    0.0000E+00    5.088000E+08  0.00400  6.597E-04    0   0.6365   age130_m42            0.0000     5.5666E-01     2.9311   0.3159   103.6840
 13      0.0000     0.0000E+00    0.0000E+00    1.434000E+09  0.00400  2.132E-04    0   0.5798   age139_m42            0.0000     6.7142E-01     3.3532  -0.6307   104.5515
 14      0.0000     0.0000E+00    0.0000E+00    4.250000E+09  0.00400  5.895E-05    0   0.5377   age158_m42            0.0000     1.0493E+00     4.2512  -1.0000    97.1898
 15      0.0000     0.0000E+00    0.0000E+00    7.500000E+09  0.00400  3.510E-05    0   0.5212   age171_m42            0.0000     1.7203E+00     5.6789  -1.0000    88.8205
 16      0.0000     0.0000E+00    0.0000E+00    1.300000E+10  0.00400  2.005E-05    0   0.5034   age193_m42            0.0000     2.9087E+00     7.5748  -1.0000    81.9796
 17      0.0000     0.0000E+00    0.0000E+00    1.800000E+10  0.00400  1.525E-05    0   0.4967   age213_m42            0.0000     3.1091E+00     7.8795  -1.0000    80.7508
 18      0.0000     0.0000E+00    0.0000E+00    1.000000E+06  0.00800  1.238E-02    0   1.0000   age020_m52            0.0000     1.6293E+00     5.2731   2.2299    86.5832
 19      0.0000     0.0000E+00    0.0000E+00    3.160000E+06  0.00800  3.074E-02    0   0.9966   age045_m52            0.0000     1.5264E+00     5.1539   2.1514    87.4392
 20      0.0000     0.0000E+00    0.0000E+00    5.010000E+06  0.00800  2.668E-02    0   0.9443   age055_m52            0.0000     1.1335E+00     4.3970   1.8883    90.2819
 21      0.0000     0.0000E+00    0.0000E+00    6.610000E+06  0.00800  2.136E-02    0   0.9177   age061_m52            0.0000     7.8467E-01     3.4172   0.5801    99.1397
 22      0.0000     0.0000E+00    0.0000E+00    1.000000E+07  0.00800  1.215E-02    0   0.8827   age070_m52            0.0000     8.5739E-01     3.6510   1.2269    99.3132
 23      0.0000     0.0000E+00    0.0000E+00    1.445000E+07  0.00800  8.717E-03    0   0.8552   age078_m52            0.0000     7.5808E-01     3.4700   1.3593    97.4434
 24     12.0003     1.9993E+00    2.4706E+00    2.512000E+07  0.00800  5.592E-03    0   0.8162   age090_m52            0.0000     6.7570E-01     3.2401   0.9742   101.6833
 25      0.0000     0.0000E+00    0.0000E+00    4.000000E+07  0.00800  3.896E-03    0   0.7841   age104_m52            0.0000     5.6525E-01     2.8965   0.8938   102.1560
 26      0.0045     1.9656E-03    2.1504E-03    1.015200E+08  0.00800  2.148E-03    0   0.7226   age116_m52            0.0000     4.4687E-01     2.5097   0.8528   101.0216
 27      0.0000     0.0000E+00    0.0000E+00    2.861200E+08  0.00800  9.925E-04    0   0.6683   age125_m52            0.0000     5.1061E-01     2.8331   0.3777   104.8124
 28      0.0000     0.0000E+00    0.0000E+00    9.047900E+08  0.00800  3.141E-04    0   0.6138   age135_m52            0.0000     8.4773E-01     3.8480  -0.3716   106.7294
 29      0.0000     0.0000E+00    0.0000E+00    1.434000E+09  0.00800  1.719E-04    0   0.5853   age139_m52            0.0000     1.0791E+00     4.2429  -0.9354   103.7045
 30      0.0000     0.0000E+00    0.0000E+00    2.500000E+09  0.00800  7.872E-05    0   0.5600   age150_m52            0.0000     1.7299E+00     5.7795  -1.0000    92.1325
 31      0.0000     0.0000E+00    0.0000E+00    4.250000E+09  0.00800  4.336E-05    0   0.5426   age158_m52            0.0000     1.8141E+00     5.8760  -1.0000    90.6320
 32      0.0000     0.0000E+00    0.0000E+00    6.250000E+09  0.00800  3.159E-05    0   0.5319   age166_m52            0.0000     3.2876E+00     8.1415  -1.0000    82.7086
 33      0.0000     0.0000E+00    0.0000E+00    1.300000E+10  0.00800  1.361E-05    0   0.5073   age193_m52            0.0000     9.2679E+00    14.4742  -1.0000    65.9792
 34      0.0000     0.0000E+00    0.0000E+00    1.800000E+10  0.00800  9.886E-06    0   0.4990   age213_m52            0.0000     1.0924E+01    15.7782  -1.0000    62.3839
 35      0.0000     0.0000E+00    0.0000E+00    1.000000E+06  0.02000  1.544E-02    0   1.0000   age020_m62            0.0000     1.6473E+00     5.3249   2.2268    86.7474
 36      0.0000     0.0000E+00    0.0000E+00    3.160000E+06  0.02000  3.762E-02    0   0.9858   age045_m62            0.0000     1.5944E+00     5.2898   2.1641    87.5802
 37      0.0000     0.0000E+00    0.0000E+00    5.010000E+06  0.02000  3.296E-02    0   0.9342   age055_m62            0.0000     9.3723E-01     3.9025   1.7649    92.3063
 38      0.0000     0.0000E+00    0.0000E+00    8.710000E+06  0.02000  1.154E-02    0   0.8861   age067_m62            0.0000     2.8940E+00     6.8463   0.5914   106.4537
 39      0.0000     0.0000E+00    0.0000E+00    1.445000E+07  0.02000  7.663E-03    0   0.8472   age078_m62            0.0000     1.2900E+00     4.4018   0.8446   103.0103
 40      0.0000     0.0000E+00    0.0000E+00    2.512000E+07  0.02000  4.532E-03    0   0.8099   age090_m62            0.0000     1.3535E+00     4.6053   0.8249   103.3417
 41      0.0009     3.2363E-04    3.7214E-04    5.500000E+07  0.02000  2.733E-03    0   0.7595   age110_m62            0.0000     5.8428E-01     2.9734   0.8774   101.3595
 42      0.0001     8.3267E-05    8.8058E-05    1.609000E+08  0.02000  1.369E-03    0   0.6985   age120_m62            0.0000     4.3700E-01     2.5734   0.7317   103.4613
 43      0.0000     0.0000E+00    0.0000E+00    2.861200E+08  0.02000  9.013E-04    0   0.6714   age125_m62            0.0000     5.2047E-01     2.8947   0.4900   106.0294
 44      0.0000     0.0000E+00    0.0000E+00    5.088000E+08  0.02000  5.028E-04    0   0.6449   age130_m62            0.0000     7.6891E-01     3.6964   0.1585   106.5573
 45      0.0000     0.0000E+00    0.0000E+00    9.047900E+08  0.02000  2.428E-04    0   0.6179   age135_m62            0.0000     9.6476E-01     4.1351  -0.3880   103.9948
 46      0.0000     0.0000E+00    0.0000E+00    1.434000E+09  0.02000  1.263E-04    0   0.5908   age139_m62            0.0000     1.2762E+00     4.6939  -0.8077   101.2842
 47      0.0000     0.0000E+00    0.0000E+00    2.500000E+09  0.02000  5.985E-05    0   0.5673   age150_m62            0.0000     2.0660E+00     6.2748  -1.0000    92.4319
 48      0.0000     0.0000E+00    0.0000E+00    4.250000E+09  0.02000  3.271E-05    0   0.5468   age158_m62            0.0000     4.4618E+00     9.5764  -1.0000    79.8136
 49      0.0000     0.0000E+00    0.0000E+00    1.000000E+10  0.02000  1.360E-05    0   0.5167   age181_m62            0.0000     8.9628E+00    14.0910  -1.0000    67.5654
 50      0.0000     0.0000E+00    0.0000E+00    1.800000E+10  0.02000  7.124E-06    0   0.5013   age213_m62            0.0000     1.2297E+01    16.7235  -1.0000    60.6729
 51      0.0000     0.0000E+00    0.0000E+00    1.000000E+06  0.05000  2.592E-02    0   0.9998   age020_m72            0.0000     1.7257E+00     5.4679   2.2181    86.7651
 52      0.0000     0.0000E+00    0.0000E+00    3.160000E+06  0.05000  4.845E-02    0   0.9577   age045_m72            0.0000     1.3398E+00     4.8233   2.0422    88.9974
 53      0.0000     0.0000E+00    0.0000E+00    5.010000E+06  0.05000  3.072E-02    0   0.9147   age055_m72            0.0000     1.3227E+00     4.5362   1.4795    96.7861
 54      0.0000     0.0000E+00    0.0000E+00    6.610000E+06  0.05000  1.455E-02    0   0.8877   age061_m72            0.0000     5.9433E+00     9.4441   0.6050   109.3277
 55      0.0000     0.0000E+00    0.0000E+00    1.000000E+07  0.05000  9.074E-03    0   0.8524   age070_m72            0.0000     2.0442E+00     5.3189   1.6658    96.5193
 56      0.0000     0.0000E+00    0.0000E+00    2.512000E+07  0.05000  4.250E-03    0   0.7902   age090_m72            0.0000     1.2892E+00     4.2661   1.3406    99.4626
 57      0.0000     0.0000E+00    0.0000E+00    4.000000E+07  0.05000  3.087E-03    0   0.7618   age104_m72            0.0000     1.2903E+00     4.1886   1.0939   102.0473
 58      0.0000     0.0000E+00    0.0000E+00    1.015200E+08  0.05000  1.700E-03    0   0.7096   age116_m72            0.0000     5.2498E-01     2.7545   0.8554   103.9288
 59     14.7946     1.8666E+01    1.8745E+01    2.861200E+08  0.05000  7.384E-04    0   0.6633   age125_m72            0.0000     6.3239E-01     3.2600   0.3801   106.3748
 60     16.9265     4.1291E+01    3.9835E+01    5.088000E+08  0.05000  3.819E-04    0   0.6372   age130_m72            0.0000     8.6123E-01     3.9435  -0.0617   105.5837
 61      3.1292     1.7394E+01    1.6091E+01    9.047900E+08  0.05000  1.676E-04    0   0.6110   age135_m72            0.0000     1.6544E+00     5.4666  -0.6800   100.0487
 62      0.0000     0.0000E+00    0.0000E+00    1.434000E+09  0.05000  8.837E-05    0   0.5874   age139_m72            0.0000     2.2710E+00     6.5874  -1.0000    93.7498
 63      0.0000     0.0000E+00    0.0000E+00    2.500000E+09  0.05000  4.233E-05    0   0.5598   age150_m72            0.0000     4.6295E+00     9.7637  -1.0000    80.4660
 64      0.0000     0.0000E+00    0.0000E+00    6.250000E+09  0.05000  1.435E-05    0   0.5249   age166_m72            0.0000     1.0526E+01    15.3651  -1.0000    64.2535
 65      0.0000     0.0000E+00    0.0000E+00    1.300000E+10  0.05000  6.513E-06    0   0.5036   age193_m72            0.0000     1.5398E+01    18.7873  -1.0000    56.7077
 66      0.0000     0.0000E+00    0.0000E+00    1.800000E+10  0.05000  4.527E-06    0   0.4945   age213_m72            0.0000     1.8471E+01    20.6265  -1.0000    52.3376


## Synthesis Results - Average & Chains ##

# j      x_j: min, <> & last-chain-values for 1 ...  7 chains
  1      0.0000      0.1084      0.0000      0.0000      0.7484      0.0000      0.0000      0.0000      0.0000
  2      0.0000      0.5386      1.3128      0.0000      0.0000      0.0000      0.0000      0.0000      0.0105
  3      0.0000      0.7363      1.8257      1.1114      0.0000      0.0000      3.0142      0.0000      0.0000
  4      0.0000      1.0972      0.0980      0.3935      0.0000      1.7461      0.0000      0.0000      0.0000
  5      0.9294      3.1856      3.4585      3.9756      4.1714      3.7702      4.9410      0.6943      6.0678
  6      0.0218      0.5602      0.0000      0.4067      0.0000      1.4557      1.4608      0.0000      1.3892
  7      7.0801      2.7805      5.4686      4.7539      5.0614      2.5419      2.1597      0.6595      2.1225
  8      0.0130      3.0741      3.3487      4.3927      2.9599      0.0000      1.5920      2.8760      2.8076
  9      6.5388     10.3325      8.3518     12.9351      9.6504      8.5681      6.3516     12.6100     14.1580
 10     41.4987     14.1348     12.4322     15.5180     15.8405     15.2822     22.7179     15.5998     15.9486
 11      0.0000      0.1626      0.0000      0.0000      0.0000      0.0000      0.2435      0.0000      0.0000
 12      0.0000      0.2788      0.0000      0.0000      0.0000      0.0000      0.0000      0.0000      0.0000
 13      0.0000      0.0560      0.0000      0.0000      0.0000      0.0312      0.0000      0.0000      0.0000
 14      0.0000      0.0076      0.0000      0.0000      0.0000      0.0000      0.0000      0.0000      0.0000
 15      0.0000      0.0040      0.0000      0.0000      0.0000      0.0000      0.0000      0.0000      0.0000
 16      0.0000      0.0074      0.0000      0.0000      0.0000      0.0000      0.0000      0.0000      0.0000
 17      0.0000      0.0056      0.0000      0.0000      0.0000      0.0022      0.0000      0.0000      0.0000
 18      0.0000      0.0516      0.0000      0.0000      0.0000      0.0000      0.5728      0.0000      0.0000
 19      0.0000      0.1417      0.0000      0.0000      0.0145      0.0000      0.0000      0.0000      0.0000
 20      0.0000      0.2338      0.0000      0.6269      0.0000      0.2402      0.1393      0.1826      0.1531
 21      0.0000      2.5276      0.2125      1.7525      2.6706      3.2522      0.0000      5.9799      0.0000
 22      0.0000      0.4374      0.0000      0.0000      0.0000      0.0000      0.0000      0.0000      4.2945
 23      0.0000      0.2057      0.0000      0.0057      0.0000      0.0000      0.0248      0.8954      0.1642
 24     12.0003      3.0417      5.0223      2.0155      5.3244      5.2875      6.4114      8.5563      2.2889
 25      0.0000      2.0464      3.1169      4.1678      0.0000      1.4645      0.0000      0.0000      0.0609
 26      0.0045      4.4676      8.5602      3.5515      4.1415      6.8881      1.6276      4.9482      4.8396
 27      0.0000      0.5739      0.0000      0.0000      0.0000      0.0000      0.2612      0.0000      0.0000
 28      0.0000      0.0528      0.0000      0.0000      0.0000      0.0000      0.0000      0.0000      0.0000
 29      0.0000      0.0042      0.0000      0.0000      0.0000      0.0000      0.0000      0.0000      0.0000
 30      0.0000      0.0183      0.0000      0.0000      0.0000      0.0000      0.0000      0.0000      0.0000
 31      0.0000      0.0065      0.0000      0.0000      0.0000      0.0000      0.0000      0.0000      0.0000
 32      0.0000      0.0043      0.0000      0.0000      0.0000      0.0000      0.0000      0.0521      0.0000
 33      0.0000      0.0010      0.0000      0.0000      0.0000      0.0000      0.0000      0.0000      0.0000
 34      0.0000      0.0004      0.0000      0.0000      0.0000      0.0000      0.0000      0.0000      0.0000
 35      0.0000      0.1499      0.3687      0.0000      0.0000      0.3721      0.0000      0.0000      0.7887
 36      0.0000      0.1170      0.0000      0.0000      0.0000      0.0000      0.1142      1.4861      0.0000
 37      0.0000      0.6204      0.0000      0.0000      1.8419      0.9515      0.0000      0.0000      0.0000
 38      0.0000      0.3920      0.0000      0.0000      0.0000      0.0000      0.0000      0.0000      0.0143
 39      0.0000      0.4724      0.1839      0.0000      0.0000      1.6184      0.0000      0.0000      0.0000
 40      0.0000      0.3806      0.0000      0.0000      0.0000      0.0000      0.0000      0.0000      0.0000
 41      0.0009      1.1299      1.2668      0.0000      0.4466      0.4174      2.8121      0.0000      0.0000
 42      0.0001      2.7834      0.6953      2.7148      0.0000      5.1313      7.2236      3.1950      0.8987
 43      0.0000     12.4917     14.5509     11.3965     14.5066     14.7381      9.7212     11.0938     12.6576
 44      0.0000      0.7330      1.3173      0.6606      0.2307      0.0000      0.0000      0.0000      1.0933
 45      0.0000      0.0634      0.0000      0.0000      0.0000      0.0000      0.0000      0.0000      0.0000
 46      0.0000      0.0403      0.0000      0.0000      0.0000      0.0000      0.0000      0.5123      0.0000
