###################################################################
## OUTPUT of StarlightChains_v04.for    [Cid@UFSC - 01/Apr/2007] ##
###################################################################

## Some input info
2002au.txt                               [arq_obs]
Base.CB07.vall.4m                        [arq_base]
Masks.EmLines.NEW.gm                     [arq_masks]
StCv04.C11.config                        [arq_config]
   66                                    [N_base]
    0                                    [N_YAV_components = # of components with extra extinction!]
    0                                    [i_FitPowerLaw (1/0 = Yes/No)]
-9.99                                    [alpha_PowerLaw]
CCM                                      [red_law_option]
 1.458241                                [q_norm = A(l_norm)/A(V)]

## (Re)Sampling Parameters
 3741.00                                 [l_ini (A)]
 7218.00                                 [l_fin (A)]
    1.00                                 [dl    (A)]     (OBS: dl_cushion =    50.00 A)

## Normalization info
 4020.00                                 [l_norm (A) - for base]
 4010.00                                 [llow_norm (A) - window for f_obs]
 4060.00                                 [lupp_norm (A) - window for f_obs]
3.375749E-17                             [fobs_norm (in input units)]

## S/N
 3691.00                                 [llow_SN (A) - window for S/N]
 7268.00                                 [lupp_SN (A) - window for S/N]
   0.484                                 [S/N in S/N window]
   0.302                                 [S/N in norm. window]
   9.829                                 [S/N_err in S/N window]
   6.128                                 [S/N_err in norm. window]
  1.0000                                 [fscale_chi2]

## etc...
    -2007262                             [idum_orig]
  2304                                   [NOl_eff]
  2231                                   [Nl_eff]
    73    NSIGMA                         [Ntot_cliped & clip_method]
   933030                                [Nglobal_steps]
   7                                     [N_chains]
  18                                     [NEX0s_base = N_base in EX0s-fits]
 0   0   1      118   2.0   1.404E+01    [Clip-Bug, RC-Crash & Burn-In warning-flags, n_censored_weights, wei_nsig_threshold & wei_limit]
    11     11.216     10.723      0.493  [idt_all, wdt_TotTime, wdt_UsrTime & wdt_SysTime (sec)]

## Synthesis Results - Best model ##

 4.39616E-01                             [chi2/Nl_eff]
     5.37436                             [adev (%)]

   106.42854                             [sum-of-x (%)]
 7.48215E-17                             [Flux_tot (units of input spectrum!)]
 9.61073E-13                             [Mini_tot (???)]
 5.29254E-13                             [Mcor_tot (???)]

-175.30                                  [v0_min  (km/s)]
 314.26                                  [vd_min  (km/s)]
 0.5462                                  [AV_min  (mag)]
 0.0000                                  [YAV_min (mag)]

# j     x_j(%)      Mini_j(%)     Mcor_j(%)     age_j(yr)     Z_j      (L/M)_j    YAV?  Mstars   component_j        a/Fe...       SSP_chi2r SSP_adev(%)   SSP_AV   SSP_x(%)
  1      0.0000     0.0000E+00    0.0000E+00    1.000000E+06  0.00400  1.094E-02    0   1.0000   age020_m42            0.0000     1.0973E+00     8.1177   3.7835    87.6200
  2      1.8493     3.3761E-03    6.1300E-03    3.160000E+06  0.00400  4.007E-02    0   0.9999   age045_m42            0.0000     7.9592E-01     7.0889   3.0232    95.1379
  3      0.0000     0.0000E+00    0.0000E+00    5.010000E+06  0.00400  2.539E-02    0   0.9488   age055_m42            0.0000     9.1730E-01     7.5335   3.3600    92.0868
  4      0.0000     0.0000E+00    0.0000E+00    6.610000E+06  0.00400  2.620E-02    0   0.9220   age061_m42            0.0000     8.0561E-01     7.1136   2.9498    95.3349
  5      0.0000     0.0000E+00    0.0000E+00    1.000000E+07  0.00400  1.322E-02    0   0.8862   age070_m42            0.0000     9.7193E-01     7.8323   2.6844    96.5463
  6      0.0000     0.0000E+00    0.0000E+00    1.445000E+07  0.00400  7.883E-03    0   0.8571   age078_m42            0.0000     1.0254E+00     8.0308   3.0185    93.8117
  7      0.0000     0.0000E+00    0.0000E+00    2.512000E+07  0.00400  5.251E-03    0   0.8174   age090_m42            0.0000     9.9512E-01     7.9621   2.5543    97.0746
  8      1.0266     2.0580E-02    2.9340E-02    4.000000E+07  0.00400  3.649E-03    0   0.7851   age104_m42            0.0000     9.1907E-01     7.6704   2.3177    98.3101
  9      0.0000     0.0000E+00    0.0000E+00    5.500000E+07  0.00400  3.098E-03    0   0.7629   age110_m42            0.0000     8.2884E-01     7.2502   2.4597    98.9010
 10      0.0000     0.0000E+00    0.0000E+00    1.015200E+08  0.00400  2.228E-03    0   0.7207   age116_m42            0.0000     7.8899E-01     7.0300   2.4707    99.5368
 11      0.0000     0.0000E+00    0.0000E+00    2.861200E+08  0.00400  1.093E-03    0   0.6648   age125_m42            0.0000     7.9783E-01     7.1166   1.9010   102.6871
 12      0.0000     0.0000E+00    0.0000E+00    5.088000E+08  0.00400  6.597E-04    0   0.6365   age130_m42            0.0000     7.1702E-01     6.6699   1.8750   104.3480
 13     35.3172     1.2117E+01    1.2758E+01    1.434000E+09  0.00400  2.132E-04    0   0.5798   age139_m42            0.0000     5.1959E-01     5.7088   0.8830   107.4007
 14     41.6446     5.1676E+01    5.0457E+01    4.250000E+09  0.00400  5.895E-05    0   0.5377   age158_m42            0.0000     4.5517E-01     5.4442   0.4395   103.4025
 15      0.0000     0.0000E+00    0.0000E+00    7.500000E+09  0.00400  3.510E-05    0   0.5212   age171_m42            0.0000     4.8847E-01     5.5746   0.2467   102.9975
 16      0.0000     0.0000E+00    0.0000E+00    1.300000E+10  0.00400  2.005E-05    0   0.5034   age193_m42            0.0000     5.4850E-01     5.8200   0.0790   102.6242
 17      0.0000     0.0000E+00    0.0000E+00    1.800000E+10  0.00400  1.525E-05    0   0.4967   age213_m42            0.0000     5.4161E-01     5.7868   0.0583   102.0537
 18      0.0000     0.0000E+00    0.0000E+00    1.000000E+06  0.00800  1.238E-02    0   1.0000   age020_m52            0.0000     1.0969E+00     8.1138   3.7789    87.8161
 19      0.0000     0.0000E+00    0.0000E+00    3.160000E+06  0.00800  3.074E-02    0   0.9966   age045_m52            0.0000     1.0621E+00     8.0024   3.6996    88.6967
 20      0.0000     0.0000E+00    0.0000E+00    5.010000E+06  0.00800  2.668E-02    0   0.9443   age055_m52            0.0000     9.5714E-01     7.6670   3.4464    91.0827
 21      0.0000     0.0000E+00    0.0000E+00    6.610000E+06  0.00800  2.136E-02    0   0.9177   age061_m52            0.0000     8.8014E-01     7.4960   2.1811    97.7832
 22      0.0000     0.0000E+00    0.0000E+00    1.000000E+07  0.00800  1.215E-02    0   0.8827   age070_m52            0.0000     1.0722E+00     8.2489   2.8750    95.8711
 23      0.0000     0.0000E+00    0.0000E+00    1.445000E+07  0.00800  8.717E-03    0   0.8552   age078_m52            0.0000     1.0010E+00     7.9270   2.9823    95.1935
 24      0.0000     0.0000E+00    0.0000E+00    2.512000E+07  0.00800  5.592E-03    0   0.8162   age090_m52            0.0000     9.8859E-01     7.9314   2.6187    98.2635
 25      0.0000     0.0000E+00    0.0000E+00    4.000000E+07  0.00800  3.896E-03    0   0.7841   age104_m52            0.0000     9.0296E-01     7.5887   2.5210    99.5300
 26      0.0000     0.0000E+00    0.0000E+00    1.015200E+08  0.00800  2.148E-03    0   0.7226   age116_m52            0.0000     7.8485E-01     7.0748   2.4442   100.0993
 27      0.0000     0.0000E+00    0.0000E+00    2.861200E+08  0.00800  9.925E-04    0   0.6683   age125_m52            0.0000     7.1509E-01     6.6435   1.9394   105.3702
 28      0.0000     0.0000E+00    0.0000E+00    9.047900E+08  0.00800  3.141E-04    0   0.6138   age135_m52            0.0000     5.3976E-01     5.7941   1.1103   111.4215
 29      0.0000     0.0000E+00    0.0000E+00    1.434000E+09  0.00800  1.719E-04    0   0.5853   age139_m52            0.0000     4.7118E-01     5.5463   0.5386   108.7616
 30      0.0000     0.0000E+00    0.0000E+00    2.500000E+09  0.00800  7.872E-05    0   0.5600   age150_m52            0.0000     4.8331E-01     5.5990   0.2565   106.4516
 31      0.0000     0.0000E+00    0.0000E+00    4.250000E+09  0.00800  4.336E-05    0   0.5426   age158_m52            0.0000     5.0628E-01     5.6864   0.2414   105.4198
 32      0.0000     0.0000E+00    0.0000E+00    6.250000E+09  0.00800  3.159E-05    0   0.5319   age166_m52            0.0000     5.8501E-01     5.9939   0.0275   106.0249
 33      0.0000     0.0000E+00    0.0000E+00    1.300000E+10  0.00800  1.361E-05    0   0.5073   age193_m52            0.0000     7.4916E-01     6.6051  -0.4551   106.0304
 34      0.0000     0.0000E+00    0.0000E+00    1.800000E+10  0.00800  9.886E-06    0   0.4990   age213_m52            0.0000     9.0310E-01     7.1668  -0.5743   106.0760
 35      0.0000     0.0000E+00    0.0000E+00    1.000000E+06  0.02000  1.544E-02    0   1.0000   age020_m62            0.0000     1.1052E+00     8.1355   3.7753    88.0014
 36      1.2658     2.4612E-03    4.4059E-03    3.160000E+06  0.02000  3.762E-02    0   0.9858   age045_m62            0.0000     1.0918E+00     8.0964   3.7140    88.7942
 37      0.0000     0.0000E+00    0.0000E+00    5.010000E+06  0.02000  3.296E-02    0   0.9342   age055_m62            0.0000     8.5455E-01     7.2533   3.3112    93.6214
 38      0.0000     0.0000E+00    0.0000E+00    8.710000E+06  0.02000  1.154E-02    0   0.8861   age067_m62            0.0000     1.8290E+00    11.3344   2.3665    96.5842
 39      0.0000     0.0000E+00    0.0000E+00    1.445000E+07  0.02000  7.663E-03    0   0.8472   age078_m62            0.0000     1.2005E+00     8.9117   2.5328    97.6165
 40      0.0000     0.0000E+00    0.0000E+00    2.512000E+07  0.02000  4.532E-03    0   0.8099   age090_m62            0.0000     1.2356E+00     9.0643   2.5264    97.3215
 41      0.0000     0.0000E+00    0.0000E+00    5.500000E+07  0.02000  2.733E-03    0   0.7595   age110_m62            0.0000     9.1194E-01     7.5858   2.5077    98.6410
 42      0.0000     0.0000E+00    0.0000E+00    1.609000E+08  0.02000  1.369E-03    0   0.6985   age120_m62            0.0000     7.9549E-01     6.9924   2.3172   102.7925
 43      0.0000     0.0000E+00    0.0000E+00    2.861200E+08  0.02000  9.013E-04    0   0.6714   age125_m62            0.0000     7.7453E-01     6.7902   2.0459   106.7827
 44      0.0077     1.1183E-03    1.3096E-03    5.088000E+08  0.02000  5.028E-04    0   0.6449   age130_m62            0.0000     6.6325E-01     6.2484   1.6407   111.0988
 45      0.0000     0.0000E+00    0.0000E+00    9.047900E+08  0.02000  2.428E-04    0   0.6179   age135_m62            0.0000     4.9315E-01     5.5835   1.0473   110.8833
 46      0.0000     0.0000E+00    0.0000E+00    1.434000E+09  0.02000  1.263E-04    0   0.5908   age139_m62            0.0000     4.8438E-01     5.5657   0.6033   109.2427
 47      0.0000     0.0000E+00    0.0000E+00    2.500000E+09  0.02000  5.985E-05    0   0.5673   age150_m62            0.0000     5.6073E-01     5.9229   0.2273   108.2566
 48      0.0000     0.0000E+00    0.0000E+00    4.250000E+09  0.02000  3.271E-05    0   0.5468   age158_m62            0.0000     7.0942E-01     6.5313  -0.0953   108.2110
 49      0.0000     0.0000E+00    0.0000E+00    1.000000E+10  0.02000  1.360E-05    0   0.5167   age181_m62            0.0000     1.0210E+00     7.6576  -0.4624   108.7382
 50      0.0000     0.0000E+00    0.0000E+00    1.800000E+10  0.02000  7.124E-06    0   0.5013   age213_m62            0.0000     1.3068E+00     8.6034  -0.6843   108.5056
 51      0.0000     0.0000E+00    0.0000E+00    1.000000E+06  0.05000  2.592E-02    0   0.9998   age020_m72            0.0000     1.1430E+00     8.2456   3.7702    87.8756
 52      0.0000     0.0000E+00    0.0000E+00    3.160000E+06  0.05000  4.845E-02    0   0.9577   age045_m72            0.0000     9.8578E-01     7.7423   3.5861    90.4308
 53      0.0000     0.0000E+00    0.0000E+00    5.010000E+06  0.05000  3.072E-02    0   0.9147   age055_m72            0.0000     1.1294E+00     8.4596   3.1285    93.7608
 54      0.0000     0.0000E+00    0.0000E+00    6.610000E+06  0.05000  1.455E-02    0   0.8877   age061_m72            0.0000     2.2862E+00    13.1322   2.4583    96.3273
 55      0.0000     0.0000E+00    0.0000E+00    1.000000E+07  0.05000  9.074E-03    0   0.8524   age070_m72            0.0000     1.1468E+00     8.5757   3.3349    93.1272
 56      0.0000     0.0000E+00    0.0000E+00    2.512000E+07  0.05000  4.250E-03    0   0.7902   age090_m72            0.0000     1.0542E+00     8.2276   3.0042    95.7718
 57      0.0000     0.0000E+00    0.0000E+00    4.000000E+07  0.05000  3.087E-03    0   0.7618   age104_m72            0.0000     1.0573E+00     8.2803   2.7694    97.6370
 58      0.0000     0.0000E+00    0.0000E+00    1.015200E+08  0.05000  1.700E-03    0   0.7096   age116_m72            0.0000     8.5952E-01     7.3133   2.4707   101.9094
 59      0.0000     0.0000E+00    0.0000E+00    2.861200E+08  0.05000  7.384E-04    0   0.6633   age125_m72            0.0000     7.2427E-01     6.5418   1.8979   109.0665
 60      0.9547     1.8286E-01    2.1158E-01    5.088000E+08  0.05000  3.819E-04    0   0.6372   age130_m72            0.0000     5.4745E-01     5.7513   1.3830   111.9932
 61      7.7408     3.3785E+00    3.7485E+00    9.047900E+08  0.05000  1.676E-04    0   0.6110   age135_m72            0.0000     5.3058E-01     5.8271   0.6750   110.6746
 62      0.0000     0.0000E+00    0.0000E+00    1.434000E+09  0.05000  8.837E-05    0   0.5874   age139_m72            0.0000     5.9546E-01     6.0556   0.2203   110.1949
 63     15.4662     2.6727E+01    2.7169E+01    2.500000E+09  0.05000  4.233E-05    0   0.5598   age150_m72            0.0000     7.8210E-01     6.8409  -0.1026   109.5023
 64      1.1557     5.8911E+00    5.6152E+00    6.250000E+09  0.05000  1.435E-05    0   0.5249   age166_m72            0.0000     1.0835E+00     7.9355  -0.5633   108.5145
 65      0.0000     0.0000E+00    0.0000E+00    1.300000E+10  0.05000  6.513E-06    0   0.5036   age193_m72            0.0000     1.4774E+00     9.2170  -0.8541   110.1270
 66      0.0000     0.0000E+00    0.0000E+00    1.800000E+10  0.05000  4.527E-06    0   0.4945   age213_m72            0.0000     1.7506E+00     9.9855  -1.0000   109.4062


## Synthesis Results - Average & Chains ##

# j      x_j: min, <> & last-chain-values for 1 ...  7 chains
  1      0.0000      0.0773      0.2267      0.0000      0.0000      0.0000      0.0000      0.0000      0.0000
  2      1.8493      0.2297      1.5710      0.0000      0.0000      1.2762      1.1575      0.0000      0.0000
  3      0.0000      0.0628      0.0000      1.2780      0.0000      0.0000      0.0000      0.0000      0.0000
  4      0.0000      0.1809      0.0000      0.0000      0.0000      0.0000      0.0000      0.0000      2.8069
  5      0.0000      0.2070      0.0245      3.1136      0.0000      0.0000      0.0000      0.0000      0.0000
  6      0.0000      0.0892      0.0000      0.0000      0.0000      0.0000      0.0000      0.0000      0.0000
  7      0.0000      0.2350      0.8589      0.0000      0.2054      0.0000      0.0000      0.0000      0.0000
  8      1.0266      0.4513      3.1710      0.0000      0.0000      0.4300      1.9899      0.0000      0.5634
  9      0.0000      0.4236      0.0000      0.0000      2.7463      0.1370      0.0000      0.9830      0.0000
 10      0.0000      0.2781      0.0000      0.0000      0.8913      0.0000      0.0000      0.0000      0.0000
 11      0.0000      0.8242      0.4303      0.0000      1.2219      0.1833      0.1593      2.3940      0.0000
 12      0.0000      1.1067      3.5283      3.7696      0.0000      2.4081      0.8415      0.0000      0.0000
 13     35.3172     17.3359     20.5880     18.2085     23.1492     21.9029     20.7441     22.2514     23.9223
 14     41.6446     29.0871     32.9746     42.3275     32.3287     34.5541     32.8675     32.6653     32.0002
 15      0.0000      4.7786      2.2353      0.5602      3.5160      4.4340      2.6614      5.8528      7.1203
 16      0.0000      0.9232      0.0000      0.0000      0.6661      0.0000      0.0000      1.5031      1.6142
 17      0.0000      1.8168      0.0000      4.7095      0.3556      1.6939      0.0000      0.0000      0.0000
 18      0.0000      0.1321      0.0000      0.0000      0.6372      0.2991      0.0000      0.0898      0.0763
 19      0.0000      0.1258      0.0000      0.0000      0.0000      0.0000      0.0000      1.2136      0.0000
 20      0.0000      0.1640      0.5208      0.0000      0.0000      0.0000      0.9889      0.0000      0.0000
 21      0.0000      0.2221      0.0000      0.0000      0.0000      0.0000      0.0000      0.0000      0.0000
 22      0.0000      0.1465      0.0000      0.0000      0.7682      0.0000      1.5098      0.4671      0.6628
 23      0.0000      0.1165      0.0000      0.0000      0.0000      0.0000      0.0000      0.0000      0.0000
 24      0.0000      0.1833      0.0000      0.0000      0.1069      0.0000      1.7122      0.0000      0.0000
 25      0.0000      0.1846      0.0000      0.0000      0.0000      0.0000      0.0000      0.0000      0.0000
 26      0.0000      0.3610      0.0000      0.0000      0.0000      0.0000      0.0000      1.5128      0.0000
 27      0.0000      0.5227      0.0000      0.0000      0.0000      0.0000      0.0000      0.2072      0.0000
 28      0.0000      1.2007      0.0000      0.0000      0.0000      0.0000      0.0000      0.0000      2.1839
 29      0.0000      2.3317      0.0000      0.0000      0.0000      0.0000      0.0000      0.3104      0.0000
 30      0.0000      5.0407      3.7447      3.5483      5.5811      5.4961      3.7850      3.8799      6.7130
 31      0.0000      2.3604      2.0869      0.0000      0.0000      0.0000      0.0000      0.0000      0.0000
 32      0.0000      0.7889      1.8227      0.0000      1.0369      0.0000      0.5025      0.0000      0.0000
 33      0.0000      0.1181      0.0000      0.0000      0.0000      0.1034      0.0000      0.0000      0.0000
 34      0.0000      0.0890      0.0000      0.0000      0.0000      0.0000      0.0000      0.0000      0.0000
 35      0.0000      0.0851      0.0000      0.2020      0.0959      0.0000      0.0000      0.0000      0.0000
 36      1.2658      0.1543      0.0828      0.0000      0.0000      1.3042      0.0000      1.0421      0.0000
 37      0.0000      0.1017      0.5200      0.0000      0.4714      0.0000      0.0000      0.0000      0.0000
 38      0.0000      0.2891      0.0000      0.0000      0.0000      0.0000      0.0000      0.0000      0.0000
 39      0.0000      0.2238      0.0000      0.0000      0.0000      0.2479      0.7229      0.0000      0.0000
 40      0.0000      0.1203      0.0000      0.0000      0.0000      0.0000      0.0000      0.0000      0.0000
 41      0.0000      0.2633      0.0000      0.0000      0.0000      0.0000      0.0000      0.0000      0.0000
 42      0.0000      0.3701      0.1956      0.0000      0.0914      0.0000      0.0000      0.0000      0.0000
 43      0.0000      0.5161      0.0000      0.0000      0.6077      0.2981      0.0000      0.0000      3.4602
 44      0.0077      1.1272      0.0000      4.9664      0.1929      2.4083      0.8731      2.7893      0.0000
 45      0.0000      2.0861      4.8370      0.0000      6.4305      2.8878      0.0000      2.8765      1.1585
 46      0.0000      2.8045      0.0000      1.7620      0.0000      0.0000      0.0000      1.2373      0.0000
