###################################################################
## OUTPUT of StarlightChains_v04.for    [Cid@UFSC - 01/Apr/2007] ##
###################################################################

## Some input info
2002aw.txt                               [arq_obs]
Base.CB07.vall.4m                        [arq_base]
Masks.EmLines.NEW.gm                     [arq_masks]
StCv04.C11.config                        [arq_config]
   66                                    [N_base]
    0                                    [N_YAV_components = # of components with extra extinction!]
    0                                    [i_FitPowerLaw (1/0 = Yes/No)]
-9.99                                    [alpha_PowerLaw]
CCM                                      [red_law_option]
 1.458241                                [q_norm = A(l_norm)/A(V)]

## (Re)Sampling Parameters
 3741.00                                 [l_ini (A)]
 7218.00                                 [l_fin (A)]
    1.00                                 [dl    (A)]     (OBS: dl_cushion =    50.00 A)

## Normalization info
 4020.00                                 [l_norm (A) - for base]
 4010.00                                 [llow_norm (A) - window for f_obs]
 4060.00                                 [lupp_norm (A) - window for f_obs]
2.528234E-17                             [fobs_norm (in input units)]

## S/N
 3691.00                                 [llow_SN (A) - window for S/N]
 7268.00                                 [lupp_SN (A) - window for S/N]
   5.632                                 [S/N in S/N window]
   4.542                                 [S/N in norm. window]
  19.833                                 [S/N_err in S/N window]
  15.995                                 [S/N_err in norm. window]
  1.0000                                 [fscale_chi2]

## etc...
    -2007263                             [idum_orig]
  2359                                   [NOl_eff]
  2354                                   [Nl_eff]
     5    NSIGMA                         [Ntot_cliped & clip_method]
   985040                                [Nglobal_steps]
   7                                     [N_chains]
  16                                     [NEX0s_base = N_base in EX0s-fits]
 0   0   1        4   2.0   2.251E+01    [Clip-Bug, RC-Crash & Burn-In warning-flags, n_censored_weights, wei_nsig_threshold & wei_limit]
    15     14.762     14.257      0.506  [idt_all, wdt_TotTime, wdt_UsrTime & wdt_SysTime (sec)]

## Synthesis Results - Best model ##

 3.73308E-01                             [chi2/Nl_eff]
     2.62040                             [adev (%)]

   110.73767                             [sum-of-x (%)]
 3.22473E-17                             [Flux_tot (units of input spectrum!)]
 8.26039E-13                             [Mini_tot (???)]
 4.39660E-13                             [Mcor_tot (???)]

  47.85                                  [v0_min  (km/s)]
 154.24                                  [vd_min  (km/s)]
 0.1052                                  [AV_min  (mag)]
 0.0000                                  [YAV_min (mag)]

# j     x_j(%)      Mini_j(%)     Mcor_j(%)     age_j(yr)     Z_j      (L/M)_j    YAV?  Mstars   component_j        a/Fe...       SSP_chi2r SSP_adev(%)   SSP_AV   SSP_x(%)
  1      0.0000     0.0000E+00    0.0000E+00    1.000000E+06  0.00400  1.094E-02    0   1.0000   age020_m42            0.0000     2.5409E+00     8.1513   3.5314    96.8593
  2      0.0000     0.0000E+00    0.0000E+00    3.160000E+06  0.00400  4.007E-02    0   0.9999   age045_m42            0.0000     2.1066E+00     7.0084   2.8146   103.1188
  3      0.0000     0.0000E+00    0.0000E+00    5.010000E+06  0.00400  2.539E-02    0   0.9488   age055_m42            0.0000     2.2781E+00     7.4818   3.1285   100.8528
  4      0.0000     0.0000E+00    0.0000E+00    6.610000E+06  0.00400  2.620E-02    0   0.9220   age061_m42            0.0000     2.0899E+00     6.9994   2.7361   103.5748
  5      0.0000     0.0000E+00    0.0000E+00    1.000000E+07  0.00400  1.322E-02    0   0.8862   age070_m42            0.0000     2.4046E+00     7.9049   2.4145   107.6357
  6      0.0000     0.0000E+00    0.0000E+00    1.445000E+07  0.00400  7.883E-03    0   0.8571   age078_m42            0.0000     2.4768E+00     8.0636   2.7443   104.7714
  7      0.0000     0.0000E+00    0.0000E+00    2.512000E+07  0.00400  5.251E-03    0   0.8174   age090_m42            0.0000     2.5114E+00     8.1026   2.2779   108.5502
  8      0.0000     0.0000E+00    0.0000E+00    4.000000E+07  0.00400  3.649E-03    0   0.7851   age104_m42            0.0000     2.3334E+00     7.7650   2.0540   109.3065
  9      0.0000     0.0000E+00    0.0000E+00    5.500000E+07  0.00400  3.098E-03    0   0.7629   age110_m42            0.0000     2.1370E+00     7.1939   2.2268   108.3939
 10      0.0000     0.0000E+00    0.0000E+00    1.015200E+08  0.00400  2.228E-03    0   0.7207   age116_m42            0.0000     2.0337E+00     6.8678   2.2601   107.9906
 11      0.0013     4.1899E-05    5.2333E-05    2.861200E+08  0.00400  1.093E-03    0   0.6648   age125_m42            0.0000     2.0711E+00     7.0199   1.6777   111.9988
 12      0.0000     0.0000E+00    0.0000E+00    5.088000E+08  0.00400  6.597E-04    0   0.6365   age130_m42            0.0000     1.7328E+00     6.3534   1.6859   112.0665
 13      0.0000     0.0000E+00    0.0000E+00    1.434000E+09  0.00400  2.132E-04    0   0.5798   age139_m42            0.0000     1.0281E+00     4.8717   0.7198   114.1781
 14      0.0000     0.0000E+00    0.0000E+00    4.250000E+09  0.00400  5.895E-05    0   0.5377   age158_m42            0.0000     5.4405E-01     3.5471   0.2983   108.9837
 15      0.0000     0.0000E+00    0.0000E+00    7.500000E+09  0.00400  3.510E-05    0   0.5212   age171_m42            0.0000     4.4800E-01     3.1189   0.1196   107.9023
 16     14.4272     2.5367E+01    2.3992E+01    1.300000E+10  0.00400  2.005E-05    0   0.5034   age193_m42            0.0000     4.2237E-01     2.9230  -0.0376   107.0362
 17      0.1117     2.5811E-01    2.4087E-01    1.800000E+10  0.00400  1.525E-05    0   0.4967   age213_m42            0.0000     4.2850E-01     2.9865  -0.0627   106.6544
 18      0.0000     0.0000E+00    0.0000E+00    1.000000E+06  0.00800  1.238E-02    0   1.0000   age020_m52            0.0000     2.5370E+00     8.1522   3.5277    97.0491
 19      0.0000     0.0000E+00    0.0000E+00    3.160000E+06  0.00800  3.074E-02    0   0.9966   age045_m52            0.0000     2.4932E+00     8.0331   3.4546    97.7603
 20      0.0000     0.0000E+00    0.0000E+00    5.010000E+06  0.00800  2.668E-02    0   0.9443   age055_m52            0.0000     2.3063E+00     7.6065   3.2084   100.0658
 21      0.0000     0.0000E+00    0.0000E+00    6.610000E+06  0.00800  2.136E-02    0   0.9177   age061_m52            0.0000     1.9170E+00     7.3785   1.9120   109.0715
 22      0.0000     0.0000E+00    0.0000E+00    1.000000E+07  0.00800  1.215E-02    0   0.8827   age070_m52            0.0000     2.6063E+00     8.3688   2.5831   107.9244
 23      0.0000     0.0000E+00    0.0000E+00    1.445000E+07  0.00800  8.717E-03    0   0.8552   age078_m52            0.0000     2.4098E+00     7.9466   2.7087   106.2816
 24      0.0000     0.0000E+00    0.0000E+00    2.512000E+07  0.00800  5.592E-03    0   0.8162   age090_m52            0.0000     2.4926E+00     8.0693   2.3414   109.8858
 25      0.0000     0.0000E+00    0.0000E+00    4.000000E+07  0.00800  3.896E-03    0   0.7841   age104_m52            0.0000     2.3100E+00     7.6567   2.2624   110.3330
 26      0.0000     0.0000E+00    0.0000E+00    1.015200E+08  0.00800  2.148E-03    0   0.7226   age116_m52            0.0000     2.0020E+00     6.9474   2.2181   109.3329
 27      0.0000     0.0000E+00    0.0000E+00    2.861200E+08  0.00800  9.925E-04    0   0.6683   age125_m52            0.0000     1.6911E+00     6.3042   1.7494   113.1555
 28      5.2976     5.9458E-01    6.8567E-01    9.047900E+08  0.00800  3.141E-04    0   0.6138   age135_m52            0.0000     9.1426E-01     4.5450   0.9737   116.9001
 29      8.6593     1.7758E+00    1.9528E+00    1.434000E+09  0.00800  1.719E-04    0   0.5853   age139_m52            0.0000     6.5050E-01     3.7997   0.3930   114.6934
 30      0.0000     0.0000E+00    0.0000E+00    2.500000E+09  0.00800  7.872E-05    0   0.5600   age150_m52            0.0000     4.0283E-01     2.8392   0.1472   110.5862
 31      8.9803     7.3013E+00    7.4432E+00    4.250000E+09  0.00800  4.336E-05    0   0.5426   age158_m52            0.0000     3.8640E-01     2.7511   0.1327   109.5155
 32     38.5809     4.3055E+01    4.3026E+01    6.250000E+09  0.00800  3.159E-05    0   0.5319   age166_m52            0.0000     3.8736E-01     2.6026  -0.0556   108.9388
 33      0.0000     0.0000E+00    0.0000E+00    1.300000E+10  0.00800  1.361E-05    0   0.5073   age193_m52            0.0000     5.4692E-01     3.2664  -0.5063   107.5043
 34      0.0000     0.0000E+00    0.0000E+00    1.800000E+10  0.00800  9.886E-06    0   0.4990   age213_m52            0.0000     7.2680E-01     3.9644  -0.5972   106.2626
 35      0.0000     0.0000E+00    0.0000E+00    1.000000E+06  0.02000  1.544E-02    0   1.0000   age020_m62            0.0000     2.5507E+00     8.1809   3.5240    97.2648
 36      0.0000     0.0000E+00    0.0000E+00    3.160000E+06  0.02000  3.762E-02    0   0.9858   age045_m62            0.0000     2.5425E+00     8.1450   3.4642    98.0778
 37      0.0000     0.0000E+00    0.0000E+00    5.010000E+06  0.02000  3.296E-02    0   0.9342   age055_m62            0.0000     2.1639E+00     7.1565   3.0941   101.8536
 38      0.0000     0.0000E+00    0.0000E+00    8.710000E+06  0.02000  1.154E-02    0   0.8861   age067_m62            0.0000     4.7088E+00    11.8872   1.9609   114.6646
 39      0.0000     0.0000E+00    0.0000E+00    1.445000E+07  0.02000  7.663E-03    0   0.8472   age078_m62            0.0000     2.9621E+00     9.1726   2.2071   111.5730
 40      0.0000     0.0000E+00    0.0000E+00    2.512000E+07  0.02000  4.532E-03    0   0.8099   age090_m62            0.0000     3.1612E+00     9.3878   2.1966   111.4076
 41      0.0000     0.0000E+00    0.0000E+00    5.500000E+07  0.02000  2.733E-03    0   0.7595   age110_m62            0.0000     2.2541E+00     7.5855   2.2432   109.6457
 42      0.0000     0.0000E+00    0.0000E+00    1.609000E+08  0.02000  1.369E-03    0   0.6985   age120_m62            0.0000     1.9484E+00     6.7746   2.1057   111.5121
 43      0.0000     0.0000E+00    0.0000E+00    2.861200E+08  0.02000  9.013E-04    0   0.6714   age125_m62            0.0000     1.7561E+00     6.4566   1.8640   114.2976
 44      0.0000     0.0000E+00    0.0000E+00    5.088000E+08  0.02000  5.028E-04    0   0.6449   age130_m62            0.0000     1.2595E+00     5.4723   1.5123   116.1347
 45      4.7984     6.9669E-01    8.0880E-01    9.047900E+08  0.02000  2.428E-04    0   0.6179   age135_m62            0.0000     6.4987E-01     3.7919   0.9353   115.1779
 46      2.6131     7.2938E-01    8.0962E-01    1.434000E+09  0.02000  1.263E-04    0   0.5908   age139_m62            0.0000     4.5170E-01     3.0383   0.4942   113.4146
 47      8.3953     4.9450E+00    5.2706E+00    2.500000E+09  0.02000  5.985E-05    0   0.5673   age150_m62            0.0000     4.0429E-01     2.6611   0.1468   111.0707
 48      5.4898     5.9167E+00    6.0784E+00    4.250000E+09  0.02000  3.271E-05    0   0.5468   age158_m62            0.0000     5.6331E-01     3.2439  -0.1369   109.2326
 49      1.3855     3.5914E+00    3.4864E+00    1.000000E+10  0.02000  1.360E-05    0   0.5167   age181_m62            0.0000     9.5236E-01     4.6644  -0.4593   107.7002
 50      0.0000     0.0000E+00    0.0000E+00    1.800000E+10  0.02000  7.124E-06    0   0.5013   age213_m62            0.0000     1.3758E+00     5.7890  -0.6458   105.8692
 51      0.0000     0.0000E+00    0.0000E+00    1.000000E+06  0.05000  2.592E-02    0   0.9998   age020_m72            0.0000     2.6026E+00     8.3007   3.5144    97.3374
 52      0.0000     0.0000E+00    0.0000E+00    3.160000E+06  0.05000  4.845E-02    0   0.9577   age045_m72            0.0000     2.4055E+00     7.7383   3.3532    99.1182
 53      0.0000     0.0000E+00    0.0000E+00    5.010000E+06  0.05000  3.072E-02    0   0.9147   age055_m72            0.0000     2.6816E+00     8.5636   2.8233   106.0085
 54      0.0000     0.0000E+00    0.0000E+00    6.610000E+06  0.05000  1.455E-02    0   0.8877   age061_m72            0.0000     7.2159E+00    14.5549   1.9933   116.9409
 55      0.0000     0.0000E+00    0.0000E+00    1.000000E+07  0.05000  9.074E-03    0   0.8524   age070_m72            0.0000     3.1315E+00     9.0528   3.0185   105.4415
 56      0.0000     0.0000E+00    0.0000E+00    2.512000E+07  0.05000  4.250E-03    0   0.7902   age090_m72            0.0000     2.8561E+00     8.5568   2.7096   107.6013
 57      0.0000     0.0000E+00    0.0000E+00    4.000000E+07  0.05000  3.087E-03    0   0.7618   age104_m72            0.0000     2.9730E+00     8.6932   2.4752   109.7030
 58      0.0000     0.0000E+00    0.0000E+00    1.015200E+08  0.05000  1.700E-03    0   0.7096   age116_m72            0.0000     2.2158E+00     7.2553   2.2387   111.5201
 59      0.0000     0.0000E+00    0.0000E+00    2.861200E+08  0.05000  7.384E-04    0   0.6633   age125_m72            0.0000     1.4728E+00     5.9339   1.7458   115.2134
 60      0.0000     0.0000E+00    0.0000E+00    5.088000E+08  0.05000  3.819E-04    0   0.6372   age130_m72            0.0000     8.7772E-01     4.5338   1.2726   116.2362
 61      6.7823     1.4266E+00    1.6377E+00    9.047900E+08  0.05000  1.676E-04    0   0.6110   age135_m72            0.0000     5.1710E-01     3.1711   0.6038   113.0540
 62      0.0000     0.0000E+00    0.0000E+00    1.434000E+09  0.05000  8.837E-05    0   0.5874   age139_m72            0.0000     4.5038E-01     2.7922   0.1496   112.5587
 63      5.2151     4.3432E+00    4.5680E+00    2.500000E+09  0.05000  4.233E-05    0   0.5598   age150_m72            0.0000     6.6427E-01     3.6422  -0.1296   109.8211
 64      0.0000     0.0000E+00    0.0000E+00    6.250000E+09  0.05000  1.435E-05    0   0.5249   age166_m72            0.0000     1.1384E+00     5.0775  -0.5475   106.9002
 65      0.0000     0.0000E+00    0.0000E+00    1.300000E+10  0.05000  6.513E-06    0   0.5036   age193_m72            0.0000     1.7644E+00     6.5294  -0.7972   106.6212
 66      0.0000     0.0000E+00    0.0000E+00    1.800000E+10  0.05000  4.527E-06    0   0.4945   age213_m72            0.0000     2.2474E+00     7.4423  -0.9378   105.5366


## Synthesis Results - Average & Chains ##

# j      x_j: min, <> & last-chain-values for 1 ...  7 chains
  1      0.0000      0.0350      0.0000      0.0000      0.0000      0.0000      0.0000      0.0000      0.0000
  2      0.0000      0.0272      0.0000      0.0000      0.0341      0.0000      0.0000      0.0000      0.0000
  3      0.0000      0.0412      0.0000      0.0438      0.0000      0.0000      0.0000      0.0000      0.0000
  4      0.0000      0.0921      0.0000      0.0701      0.0000      0.0000      0.0000      0.0000      0.0000
  5      0.0000      0.0910      0.0000      0.0000      0.0000      0.1204      0.0000      0.0000      0.0000
  6      0.0000      0.0547      0.0000      0.1548      0.0000      0.0000      0.0000      0.0000      0.0000
  7      0.0000      0.0945      0.0000      0.0000      0.0015      0.0000      0.0000      0.0000      0.0000
  8      0.0000      0.0347      0.0000      0.0000      0.0000      0.0000      0.0000      0.0000      0.0000
  9      0.0000      0.0641      0.0523      0.0000      0.0000      0.0000      0.0000      0.0000      0.0000
 10      0.0000      0.1449      0.0000      0.0000      0.0000      0.0000      0.0000      0.0000      0.0000
 11      0.0013      0.2013      0.0000      0.0000      0.9081      0.0000      0.0000      0.8378      0.0000
 12      0.0000      0.0840      0.0000      0.0000      0.0000      0.0000      0.0000      0.0218      0.6437
 13      0.0000      0.4686      0.7793      1.9331      0.0983      0.2112      1.5903      0.0000      1.2461
 14      0.0000      0.9297      0.0000      0.0000      0.0000      0.0000      0.0000      0.0000      0.0000
 15      0.0000      2.4790      1.7815      0.2962      0.6627      4.6783      1.7868      0.0000      0.0000
 16     14.4272     15.5201     17.8009     17.1462     18.3577     13.2270     12.2550     19.9325     17.4604
 17      0.1117      3.9063      5.7168      3.8650      2.9856      4.5957      3.5623      2.5112      2.8665
 18      0.0000      0.0343      0.0000      0.0000      0.0000      0.0000      0.0000      0.0000      0.0000
 19      0.0000      0.0294      0.0000      0.0000      0.0000      0.0000      0.0000      0.0000      0.0000
 20      0.0000      0.0278      0.0000      0.0000      0.0000      0.0000      0.0000      0.0000      0.0000
 21      0.0000      0.0632      0.0000      0.3509      0.0000      0.0000      0.5851      0.0000      0.0000
 22      0.0000      0.0487      0.0000      0.0000      0.0000      0.0000      0.0000      0.0000      0.0000
 23      0.0000      0.0385      0.0000      0.0000      0.0000      0.0000      0.0000      0.0000      0.0000
 24      0.0000      0.0639      0.0000      0.0000      0.0000      0.0000      0.0000      0.2852      0.0000
 25      0.0000      0.0330      0.0000      0.0000      0.0000      0.0000      0.0000      0.0000      0.0000
 26      0.0000      0.0680      0.0000      0.0000      0.0000      0.7159      0.0000      0.0000      0.0000
 27      0.0000      0.0752      0.0000      0.0000      0.1644      0.1977      0.0000      0.0000      0.0000
 28      5.2976      1.3739      1.5555      1.5788      1.7473      2.5980      1.3063      2.8170      1.8208
 29      8.6593      3.8732      3.9892      4.3015      6.5506      3.3188      3.9292      4.3809      6.2164
 30      0.0000      4.8486      0.0000      1.1032      1.6412      2.6833      5.2558      1.1570      4.2314
 31      8.9803      7.2544      8.4465      7.3608     15.6189      5.1281     10.6086      8.8083     10.4093
 32     38.5809     13.3099     13.5984     11.2368      7.2740     14.1881     17.7615     14.1955     15.6975
 33      0.0000      0.1210      0.0000      0.7925      0.0000      0.0000      0.0000      0.0000      0.0000
 34      0.0000      0.3416      0.0000      0.4096      0.0000      0.0000      0.1300      0.0000      0.0000
 35      0.0000      0.0356      0.0000      0.0000      0.0000      0.0000      0.0000      0.0000      0.0000
 36      0.0000      0.0175      0.0000      0.0000      0.0000      0.0000      0.0000      0.0000      0.0000
 37      0.0000      0.0294      0.0000      0.0000      0.0000      0.0000      0.0000      0.0000      0.0000
 38      0.0000      0.0440      0.0000      0.0000      0.0000      0.0000      0.0000      0.0000      0.0000
 39      0.0000      0.0462      0.0000      0.0000      0.0000      0.0000      0.0000      0.0000      0.0000
 40      0.0000      0.0236      0.0000      0.0715      0.0000      0.0000      0.0000      0.0000      0.0000
 41      0.0000      0.0411      0.0000      0.0000      0.0000      0.0000      0.0000      0.0000      0.0260
 42      0.0000      0.0591      0.5326      0.0000      0.0000      0.0000      0.1532      0.0000      0.0000
 43      0.0000      0.0956      0.0000      0.5052      0.0412      0.0000      0.0000      0.0000      0.0000
 44      0.0000      0.1183      0.0000      0.1186      1.0824      0.5029      0.0000      0.0000      0.1327
 45      4.7984      3.0743      3.3689      4.9592      2.0770      3.6395      3.8812      1.0719      3.4387
 46      2.6131      3.6526      4.2507      2.7469      7.0642      3.5151      3.0332      5.0634      3.2833
