###################################################################
## OUTPUT of StarlightChains_v04.for    [Cid@UFSC - 01/Apr/2007] ##
###################################################################

## Some input info
2002ho.txt                               [arq_obs]
Base.CB07.vall.4m                        [arq_base]
Masks.EmLines.NEW.gm                     [arq_masks]
StCv04.C11.config                        [arq_config]
   66                                    [N_base]
    0                                    [N_YAV_components = # of components with extra extinction!]
    0                                    [i_FitPowerLaw (1/0 = Yes/No)]
-9.99                                    [alpha_PowerLaw]
CCM                                      [red_law_option]
 1.458241                                [q_norm = A(l_norm)/A(V)]

## (Re)Sampling Parameters
 3741.00                                 [l_ini (A)]
 7218.00                                 [l_fin (A)]
    1.00                                 [dl    (A)]     (OBS: dl_cushion =    50.00 A)

## Normalization info
 4020.00                                 [l_norm (A) - for base]
 4010.00                                 [llow_norm (A) - window for f_obs]
 4060.00                                 [lupp_norm (A) - window for f_obs]
3.473894E-16                             [fobs_norm (in input units)]

## S/N
 3691.00                                 [llow_SN (A) - window for S/N]
 7268.00                                 [lupp_SN (A) - window for S/N]
  10.152                                 [S/N in S/N window]
  11.283                                 [S/N in norm. window]
  16.328                                 [S/N_err in S/N window]
  18.146                                 [S/N_err in norm. window]
  1.0000                                 [fscale_chi2]

## etc...
    -2007267                             [idum_orig]
  2383                                   [NOl_eff]
  2383                                   [Nl_eff]
     0    NSIGMA                         [Ntot_cliped & clip_method]
  1681470                                [Nglobal_steps]
   7                                     [N_chains]
  27                                     [NEX0s_base = N_base in EX0s-fits]
 0   0   1       61   2.0   3.100E+01    [Clip-Bug, RC-Crash & Burn-In warning-flags, n_censored_weights, wei_nsig_threshold & wei_limit]
    16     16.115     15.621      0.494  [idt_all, wdt_TotTime, wdt_UsrTime & wdt_SysTime (sec)]

## Synthesis Results - Best model ##

 2.29341E-01                             [chi2/Nl_eff]
     2.19890                             [adev (%)]

   107.34789                             [sum-of-x (%)]
 4.74409E-16                             [Flux_tot (units of input spectrum!)]
 6.11576E-12                             [Mini_tot (???)]
 3.30180E-12                             [Mcor_tot (???)]

  52.25                                  [v0_min  (km/s)]
 160.53                                  [vd_min  (km/s)]
 0.1792                                  [AV_min  (mag)]
 0.0000                                  [YAV_min (mag)]

# j     x_j(%)      Mini_j(%)     Mcor_j(%)     age_j(yr)     Z_j      (L/M)_j    YAV?  Mstars   component_j        a/Fe...       SSP_chi2r SSP_adev(%)   SSP_AV   SSP_x(%)
  1      1.0969     7.2453E-03    1.3420E-02    1.000000E+06  0.00400  1.094E-02    0   1.0000   age020_m42            0.0000     1.4075E+00     4.7859   2.7561    93.7210
  2      0.0000     0.0000E+00    0.0000E+00    3.160000E+06  0.00400  4.007E-02    0   0.9999   age045_m42            0.0000     1.0111E+00     4.0484   2.0642    98.2949
  3      0.0000     0.0000E+00    0.0000E+00    5.010000E+06  0.00400  2.539E-02    0   0.9488   age055_m42            0.0000     1.1295E+00     4.1342   2.3702    96.6528
  4      0.0000     0.0000E+00    0.0000E+00    6.610000E+06  0.00400  2.620E-02    0   0.9220   age061_m42            0.0000     9.9065E-01     3.9472   1.9933    98.3737
  5      0.0000     0.0000E+00    0.0000E+00    1.000000E+07  0.00400  1.322E-02    0   0.8862   age070_m42            0.0000     9.9153E-01     3.6792   1.7082   100.3796
  6      0.0000     0.0000E+00    0.0000E+00    1.445000E+07  0.00400  7.883E-03    0   0.8571   age078_m42            0.0000     1.0846E+00     3.7702   2.0289    98.2548
  7      0.0000     0.0000E+00    0.0000E+00    2.512000E+07  0.00400  5.251E-03    0   0.8174   age090_m42            0.0000     1.0136E+00     3.7641   1.5809   100.7218
  8      0.0000     0.0000E+00    0.0000E+00    4.000000E+07  0.00400  3.649E-03    0   0.7851   age104_m42            0.0000     9.0265E-01     3.6393   1.3570   101.3635
  9      0.0000     0.0000E+00    0.0000E+00    5.500000E+07  0.00400  3.098E-03    0   0.7629   age110_m42            0.0000     9.3174E-01     3.7111   1.5196   101.0223
 10      0.0000     0.0000E+00    0.0000E+00    1.015200E+08  0.00400  2.228E-03    0   0.7207   age116_m42            0.0000     9.9837E-01     3.8669   1.5462   100.9528
 11      0.0000     0.0000E+00    0.0000E+00    2.861200E+08  0.00400  1.093E-03    0   0.6648   age125_m42            0.0000     9.9412E-01     4.1092   0.9838   103.5868
 12      0.0000     0.0000E+00    0.0000E+00    5.088000E+08  0.00400  6.597E-04    0   0.6365   age130_m42            0.0000     1.0100E+00     4.1129   0.9796   104.2049
 13      0.0000     0.0000E+00    0.0000E+00    1.434000E+09  0.00400  2.132E-04    0   0.5798   age139_m42            0.0000     6.6901E-01     3.3550   0.0070   106.1076
 14      0.0000     0.0000E+00    0.0000E+00    4.250000E+09  0.00400  5.895E-05    0   0.5377   age158_m42            0.0000     7.0104E-01     3.4933  -0.4518   103.1683
 15      0.0000     0.0000E+00    0.0000E+00    7.500000E+09  0.00400  3.510E-05    0   0.5212   age171_m42            0.0000     9.5836E-01     3.9261  -0.6389   102.5493
 16      0.0000     0.0000E+00    0.0000E+00    1.300000E+10  0.00400  2.005E-05    0   0.5034   age193_m42            0.0000     1.2788E+00     4.3830  -0.8039   102.1159
 17      0.0000     0.0000E+00    0.0000E+00    1.800000E+10  0.00400  1.525E-05    0   0.4967   age213_m42            0.0000     1.2121E+00     4.2715  -0.8282   101.6928
 18      1.4747     8.6077E-03    1.5944E-02    1.000000E+06  0.00800  1.238E-02    0   1.0000   age020_m52            0.0000     1.4064E+00     4.7891   2.7525    93.9120
 19      0.0000     0.0000E+00    0.0000E+00    3.160000E+06  0.00800  3.074E-02    0   0.9966   age045_m52            0.0000     1.3605E+00     4.6930   2.6785    94.6124
 20      0.0000     0.0000E+00    0.0000E+00    5.010000E+06  0.00800  2.668E-02    0   0.9443   age055_m52            0.0000     1.1554E+00     4.1578   2.4479    96.0277
 21      9.0081     3.0475E-02    5.1802E-02    6.610000E+06  0.00800  2.136E-02    0   0.9177   age061_m52            0.0000     6.0110E-01     3.0432   1.1935   102.2207
 22      0.0039     2.3228E-05    3.7978E-05    1.000000E+07  0.00800  1.215E-02    0   0.8827   age070_m52            0.0000     1.0612E+00     3.7628   1.8832   100.3365
 23      0.0004     3.3163E-06    5.2531E-06    1.445000E+07  0.00800  8.717E-03    0   0.8552   age078_m52            0.0000     1.0225E+00     3.6455   1.9956    99.4852
 24      0.0000     0.0000E+00    0.0000E+00    2.512000E+07  0.00800  5.592E-03    0   0.8162   age090_m52            0.0000     9.6748E-01     3.7071   1.6481   101.7030
 25      0.0029     5.4206E-05    7.8726E-05    4.000000E+07  0.00800  3.896E-03    0   0.7841   age104_m52            0.0000     8.9939E-01     3.6605   1.5676   102.1521
 26      0.0000     0.0000E+00    0.0000E+00    1.015200E+08  0.00800  2.148E-03    0   0.7226   age116_m52            0.0000     8.6370E-01     3.6422   1.5114   101.8160
 27      0.0000     0.0000E+00    0.0000E+00    2.861200E+08  0.00800  9.925E-04    0   0.6683   age125_m52            0.0000     9.5402E-01     3.9558   1.0465   105.0393
 28      0.0000     0.0000E+00    0.0000E+00    9.047900E+08  0.00800  3.141E-04    0   0.6138   age135_m52            0.0000     9.4498E-01     3.9177   0.2580   108.7545
 29      0.0000     0.0000E+00    0.0000E+00    1.434000E+09  0.00800  1.719E-04    0   0.5853   age139_m52            0.0000     7.1422E-01     3.5142  -0.3365   107.3645
 30      0.0000     0.0000E+00    0.0000E+00    2.500000E+09  0.00800  7.872E-05    0   0.5600   age150_m52            0.0000     1.0307E+00     4.1631  -0.6115   105.0058
 31      0.0000     0.0000E+00    0.0000E+00    4.250000E+09  0.00800  4.336E-05    0   0.5426   age158_m52            0.0000     1.1231E+00     4.2363  -0.6297   104.1880
 32      0.0000     0.0000E+00    0.0000E+00    6.250000E+09  0.00800  3.159E-05    0   0.5319   age166_m52            0.0000     1.6153E+00     4.9884  -0.8297   104.1523
 33      0.0000     0.0000E+00    0.0000E+00    1.300000E+10  0.00800  1.361E-05    0   0.5073   age193_m52            0.0000     3.7887E+00     8.0524  -1.0000    93.8140
 34      0.0000     0.0000E+00    0.0000E+00    1.800000E+10  0.00800  9.886E-06    0   0.4990   age213_m52            0.0000     5.5162E+00     9.9587  -1.0000    89.8725
 35      4.9378     2.3110E-02    4.2805E-02    1.000000E+06  0.02000  1.544E-02    0   1.0000   age020_m62            0.0000     1.4219E+00     4.8265   2.7466    94.2176
 36      6.2540     1.2013E-02    2.1935E-02    3.160000E+06  0.02000  3.762E-02    0   0.9858   age045_m62            0.0000     1.3938E+00     4.7910   2.6872    95.0111
 37      0.0000     0.0000E+00    0.0000E+00    5.010000E+06  0.02000  3.296E-02    0   0.9342   age055_m62            0.0000     1.0717E+00     4.1039   2.3355    97.5990
 38      7.4871     4.6883E-02    7.6948E-02    8.710000E+06  0.02000  1.154E-02    0   0.8861   age067_m62            0.0000     1.9468E+00     6.2948   1.3186   103.4781
 39      1.2953     1.2215E-02    1.9168E-02    1.445000E+07  0.02000  7.663E-03    0   0.8472   age078_m62            0.0000     1.0933E+00     4.1737   1.5278   102.5858
 40      0.0000     0.0000E+00    0.0000E+00    2.512000E+07  0.02000  4.532E-03    0   0.8099   age090_m62            0.0000     1.2190E+00     4.4642   1.5256   102.0200
 41      0.0000     0.0000E+00    0.0000E+00    5.500000E+07  0.02000  2.733E-03    0   0.7595   age110_m62            0.0000     8.8229E-01     3.5606   1.5456   101.6872
 42      0.0000     0.0000E+00    0.0000E+00    1.609000E+08  0.02000  1.369E-03    0   0.6985   age120_m62            0.0000     9.8982E-01     3.8346   1.4013   103.6734
 43      0.0000     0.0000E+00    0.0000E+00    2.861200E+08  0.02000  9.013E-04    0   0.6714   age125_m62            0.0000     1.1299E+00     4.1272   1.1602   106.0977
 44      0.0000     0.0000E+00    0.0000E+00    5.088000E+08  0.02000  5.028E-04    0   0.6449   age130_m62            0.0000     1.2060E+00     4.3307   0.7924   108.4536
 45      0.0000     0.0000E+00    0.0000E+00    9.047900E+08  0.02000  2.428E-04    0   0.6179   age135_m62            0.0000     9.5526E-01     3.9550   0.1979   108.2869
 46      0.0000     0.0000E+00    0.0000E+00    1.434000E+09  0.02000  1.263E-04    0   0.5908   age139_m62            0.0000     1.0119E+00     4.0190  -0.2559   107.2376
 47      5.7220     6.9087E+00    7.2595E+00    2.500000E+09  0.02000  5.985E-05    0   0.5673   age150_m62            0.0000     1.4964E+00     4.9124  -0.6278   106.2060
 48      3.1953     7.0590E+00    7.1494E+00    4.250000E+09  0.02000  3.271E-05    0   0.5468   age158_m62            0.0000     2.3495E+00     6.1568  -0.9287   105.1762
 49      3.0858     1.6396E+01    1.5692E+01    1.000000E+10  0.02000  1.360E-05    0   0.5167   age181_m62            0.0000     4.7898E+00     8.6953  -1.0000    95.5994
 50      2.3089     2.3420E+01    2.1746E+01    1.800000E+10  0.02000  7.124E-06    0   0.5013   age213_m62            0.0000     8.0253E+00    11.8360  -1.0000    87.9903
 51      3.4276     9.5557E-03    1.7696E-02    1.000000E+06  0.05000  2.592E-02    0   0.9998   age020_m72            0.0000     1.4954E+00     4.9504   2.7347    94.3989
 52      1.7771     2.6505E-03    4.7018E-03    3.160000E+06  0.05000  4.845E-02    0   0.9577   age045_m72            0.0000     1.2743E+00     4.5044   2.5803    95.7647
 53      6.3619     1.4965E-02    2.5354E-02    5.010000E+06  0.05000  3.072E-02    0   0.9147   age055_m72            0.0000     1.1506E+00     4.0960   2.1130    99.2320
 54      0.0000     0.0000E+00    0.0000E+00    6.610000E+06  0.05000  1.455E-02    0   0.8877   age061_m72            0.0000     3.2587E+00     8.8402   1.3785   104.2488
 55      2.7155     2.1626E-02    3.4144E-02    1.000000E+07  0.05000  9.074E-03    0   0.8524   age070_m72            0.0000     1.4139E+00     4.8470   2.3126    98.6542
 56      0.0000     0.0000E+00    0.0000E+00    2.512000E+07  0.05000  4.250E-03    0   0.7902   age090_m72            0.0000     1.2247E+00     4.4135   2.0171    99.7879
 57      0.0000     0.0000E+00    0.0000E+00    4.000000E+07  0.05000  3.087E-03    0   0.7618   age104_m72            0.0000     1.2629E+00     4.5942   1.7932   101.0808
 58      0.0000     0.0000E+00    0.0000E+00    1.015200E+08  0.05000  1.700E-03    0   0.7096   age116_m72            0.0000     1.0689E+00     3.9983   1.5434   103.2474
 59      0.0000     0.0000E+00    0.0000E+00    2.861200E+08  0.05000  7.384E-04    0   0.6633   age125_m72            0.0000     1.1333E+00     4.1226   1.0341   107.2003
 60     16.8794     3.1939E+00    3.7696E+00    5.088000E+08  0.05000  3.819E-04    0   0.6372   age130_m72            0.0000     1.0091E+00     4.0243   0.5394   109.0583
 61     14.6027     6.2961E+00    7.1254E+00    9.047900E+08  0.05000  1.676E-04    0   0.6110   age135_m72            0.0000     1.3653E+00     4.9085  -0.1696   108.0501
 62      0.0110     9.0348E-03    9.8299E-03    1.434000E+09  0.05000  8.837E-05    0   0.5874   age139_m72            0.0000     1.7244E+00     5.1582  -0.6250   107.5351
 63     12.7768     2.1811E+01    2.2616E+01    2.500000E+09  0.05000  4.233E-05    0   0.5598   age150_m72            0.0000     2.6531E+00     6.5542  -0.9285   106.0585
 64      2.9225     1.4717E+01    1.4308E+01    6.250000E+09  0.05000  1.435E-05    0   0.5249   age166_m72            0.0000     5.9476E+00    10.0432  -1.0000    92.0473
 65      0.0000     0.0000E+00    0.0000E+00    1.300000E+10  0.05000  6.513E-06    0   0.5036   age193_m72            0.0000     1.1193E+01    14.2153  -1.0000    83.6807
 66      0.0000     0.0000E+00    0.0000E+00    1.800000E+10  0.05000  4.527E-06    0   0.4945   age213_m72            0.0000     1.5033E+01    16.4484  -1.0000    78.3224


## Synthesis Results - Average & Chains ##

# j      x_j: min, <> & last-chain-values for 1 ...  7 chains
  1      1.0969      3.5824      3.2943      3.5883      3.2963      4.1604      3.2206      3.7263      3.9693
  2      0.0000      0.2529      0.3375      0.0000      0.0000      0.0776      0.0000      0.0000      0.1708
  3      0.0000      0.2723      0.0000      0.1906      0.0000      1.3712      0.0000      0.0000      0.0000
  4      0.0000      0.3282      0.0465      1.0928      0.6085      0.7092      0.0000      0.0000      0.0000
  5      0.0000      0.4032      0.2292      0.1856      0.8463      0.8245      1.4320      0.0000      0.0000
  6      0.0000      0.2236      0.0000      0.0000      0.0000      0.0291      1.4053      0.2977      0.0000
  7      0.0000      0.2721      0.0000      0.0000      0.6849      1.0357      0.0000      0.0000      0.0000
  8      0.0000      0.2826      0.2569      0.0000      0.0000      0.2282      0.0000      0.1030      0.1690
  9      0.0000      0.1746      0.0000      0.0000      0.0000      0.0000      0.0000      0.0000      0.0000
 10      0.0000      0.2550      0.0000      0.4821      0.1742      0.5136      0.0000      0.0000      0.0000
 11      0.0000      0.1626      0.1043      0.1164      0.0000      0.0000      0.0000      0.0000      0.0367
 12      0.0000      0.3318      1.2476      0.0000      0.0000      0.0000      0.0000      0.0000      0.0000
 13      0.0000      0.5074      0.0000      0.1144      0.0000      1.7720      0.3879      0.1848      0.0000
 14      0.0000      0.3766      1.1647      0.0000      0.0000      0.0000      0.6290      0.9263      0.3586
 15      0.0000      0.4639      0.0000      0.0000      0.1730      0.1389      0.3120      0.0000      0.0000
 16      0.0000      0.2958      0.0000      1.4506      0.8793      0.0000      1.2629      0.0000      0.0000
 17      0.0000      0.7118      3.2694      0.0000      0.0000      0.9407      0.0000      0.4232      1.1401
 18      1.4747      2.1273      2.6408      4.1292      2.5336      1.4110      2.4592      2.5701      2.5863
 19      0.0000      0.1684      0.0000      0.0000      0.0000      0.0000      0.8278      0.0000      0.5286
 20      0.0000      0.2559      0.8598      0.0000      0.0000      0.0611      0.0000      0.0000      0.0000
 21      9.0081     10.1972      6.8979     12.0702     10.4695     11.2428     10.3792     11.3651      9.8914
 22      0.0039      1.7009      2.7035      0.1945      1.7792      2.5750      1.5954      0.0000      1.2244
 23      0.0004      0.8072      3.9172      0.1095      1.0798      0.2398      1.4229      0.0045      1.4352
 24      0.0000      0.2899      0.0000      0.0000      0.0377      0.0000      1.6217      0.0000      0.0000
 25      0.0029      0.3860      0.0000      0.0000      0.1312      0.0000      0.6969      0.0000      1.1362
 26      0.0000      0.2761      1.6864      0.0000      0.0000      0.1149      0.0000      0.0000      0.0000
 27      0.0000      0.3457      0.0652      0.0000      0.0000      0.0000      0.0000      0.0000      0.0000
 28      0.0000      0.9252      0.0000      0.8758      0.8663      0.0000      0.0000      2.6939      0.0000
 29      0.0000      0.5335      0.0000      1.4084      0.2673      0.0000      0.0000      0.0000      1.2900
 30      0.0000      0.3876      0.0000      0.0000      0.1458      0.0000      0.6537      0.5701      0.0000
 31      0.0000      0.3235      1.8626      0.0000      0.0000      0.2069      0.0000      0.0000      0.0000
 32      0.0000      1.4443      1.4946      2.1480      1.1009      1.4934      0.8452      1.7169      0.0000
 33      0.0000      0.0657      0.0000      0.0000      0.0000      0.0000      0.0000      0.6276      0.0000
 34      0.0000      0.1135      0.0000      0.0000      0.0000      0.0000      0.0000      0.0000      0.0000
 35      4.9378      4.5335      3.4170      5.7611      5.3173      4.2040      3.9127      4.6737      5.4936
 36      6.2540      1.7531      2.9310      2.2287      1.9241      2.2566      2.0219      1.6669      1.9454
 37      0.0000      0.2343      0.0000      0.0000      0.0891      1.4772      0.0000      0.9371      0.0000
 38      7.4871      0.8904      1.0062      0.0000      0.9683      0.0000      0.7538      2.7895      0.5751
 39      1.2953      1.1026      0.7729      0.8099      0.8376      0.0000      0.6513      1.7504      3.1552
 40      0.0000      0.6516      0.8643      0.6449      0.5065      0.0000      0.7990      0.0377      0.0000
 41      0.0000      0.3822      0.0957      0.0000      0.9003      0.5093      0.0000      0.0000      0.0000
 42      0.0000      0.2521      0.0000      0.0000      0.0000      0.0000      0.0000      0.5209      0.0000
 43      0.0000      0.3201      0.0000      0.3533      0.0000      0.0000      0.2135      0.0000      0.0000
 44      0.0000      0.3939      0.0000      0.0000      0.0000      0.0000      0.0000      0.0000      0.5377
 45      0.0000      1.2170      0.3275      0.0000      0.8456      0.0000      3.8617      0.9779      1.2912
 46      0.0000      1.6725      2.0452      0.7720      0.0635      0.0000      0.0000      1.5524      1.3449
