###################################################################
## OUTPUT of StarlightChains_v04.for    [Cid@UFSC - 01/Apr/2007] ##
###################################################################

## Some input info
2002ji.txt                               [arq_obs]
Base.CB07.vall.4m                        [arq_base]
Masks.EmLines.NEW.gm                     [arq_masks]
StCv04.C11.config                        [arq_config]
   66                                    [N_base]
    0                                    [N_YAV_components = # of components with extra extinction!]
    0                                    [i_FitPowerLaw (1/0 = Yes/No)]
-9.99                                    [alpha_PowerLaw]
CCM                                      [red_law_option]
 1.458241                                [q_norm = A(l_norm)/A(V)]

## (Re)Sampling Parameters
 3741.00                                 [l_ini (A)]
 7218.00                                 [l_fin (A)]
    1.00                                 [dl    (A)]     (OBS: dl_cushion =    50.00 A)

## Normalization info
 4020.00                                 [l_norm (A) - for base]
 4010.00                                 [llow_norm (A) - window for f_obs]
 4060.00                                 [lupp_norm (A) - window for f_obs]
1.092907E-15                             [fobs_norm (in input units)]

## S/N
 3691.00                                 [llow_SN (A) - window for S/N]
 7268.00                                 [lupp_SN (A) - window for S/N]
   5.545                                 [S/N in S/N window]
   7.025                                 [S/N in norm. window]
   8.384                                 [S/N_err in S/N window]
  10.621                                 [S/N_err in norm. window]
  1.0000                                 [fscale_chi2]

## etc...
    -2007269                             [idum_orig]
  2398                                   [NOl_eff]
  2390                                   [Nl_eff]
     8    NSIGMA                         [Ntot_cliped & clip_method]
  1036420                                [Nglobal_steps]
   7                                     [N_chains]
  14                                     [NEX0s_base = N_base in EX0s-fits]
 0   0   1        0   2.0   1.843E+01    [Clip-Bug, RC-Crash & Burn-In warning-flags, n_censored_weights, wei_nsig_threshold & wei_limit]
    15     15.054     14.561      0.493  [idt_all, wdt_TotTime, wdt_UsrTime & wdt_SysTime (sec)]

## Synthesis Results - Best model ##

 3.92243E-01                             [chi2/Nl_eff]
     5.16310                             [adev (%)]

   103.79505                             [sum-of-x (%)]
 3.93655E-15                             [Flux_tot (units of input spectrum!)]
 3.07566E-12                             [Mini_tot (???)]
 1.93227E-12                             [Mcor_tot (???)]

  44.57                                  [v0_min  (km/s)]
 114.79                                  [vd_min  (km/s)]
 0.9264                                  [AV_min  (mag)]
 0.0000                                  [YAV_min (mag)]

# j     x_j(%)      Mini_j(%)     Mcor_j(%)     age_j(yr)     Z_j      (L/M)_j    YAV?  Mstars   component_j        a/Fe...       SSP_chi2r SSP_adev(%)   SSP_AV   SSP_x(%)
  1      0.0000     0.0000E+00    0.0000E+00    1.000000E+06  0.00400  1.094E-02    0   1.0000   age020_m42            0.0000     5.1586E-01     5.9100   2.3378    93.3334
  2      0.0000     0.0000E+00    0.0000E+00    3.160000E+06  0.00400  4.007E-02    0   0.9999   age045_m42            0.0000     4.9273E-01     5.9197   1.5859   101.1149
  3      0.0000     0.0000E+00    0.0000E+00    5.010000E+06  0.00400  2.539E-02    0   0.9488   age055_m42            0.0000     4.6589E-01     5.7772   1.9134    98.2310
  4      0.0000     0.0000E+00    0.0000E+00    6.610000E+06  0.00400  2.620E-02    0   0.9220   age061_m42            0.0000     5.0401E-01     5.8778   1.5123   101.3776
  5      0.0000     0.0000E+00    0.0000E+00    1.000000E+07  0.00400  1.322E-02    0   0.8862   age070_m42            0.0000     4.4475E-01     5.4190   1.2455   102.8678
  6      0.0000     0.0000E+00    0.0000E+00    1.445000E+07  0.00400  7.883E-03    0   0.8571   age078_m42            0.0000     4.3048E-01     5.4134   1.5749   100.1215
  7      0.0000     0.0000E+00    0.0000E+00    2.512000E+07  0.00400  5.251E-03    0   0.8174   age090_m42            0.0000     4.4554E-01     5.4153   1.1154   103.4590
  8      0.0000     0.0000E+00    0.0000E+00    4.000000E+07  0.00400  3.649E-03    0   0.7851   age104_m42            0.0000     4.5792E-01     5.4586   0.8824   104.6149
  9      0.0000     0.0000E+00    0.0000E+00    5.500000E+07  0.00400  3.098E-03    0   0.7629   age110_m42            0.0000     5.2515E-01     5.7477   1.0276   105.0461
 10      0.0000     0.0000E+00    0.0000E+00    1.015200E+08  0.00400  2.228E-03    0   0.7207   age116_m42            0.0000     6.1152E-01     6.0478   1.0428   105.4957
 11      0.0000     0.0000E+00    0.0000E+00    2.861200E+08  0.00400  1.093E-03    0   0.6648   age125_m42            0.0000     7.0906E-01     6.4904   0.4808   108.5465
 12      0.0000     0.0000E+00    0.0000E+00    5.088000E+08  0.00400  6.597E-04    0   0.6365   age130_m42            0.0000     8.2222E-01     6.7441   0.4618   109.8845
 13      0.0000     0.0000E+00    0.0000E+00    1.434000E+09  0.00400  2.132E-04    0   0.5798   age139_m42            0.0000     8.2533E-01     6.7689  -0.5228   112.7323
 14      0.0000     0.0000E+00    0.0000E+00    4.250000E+09  0.00400  5.895E-05    0   0.5377   age158_m42            0.0000     8.3494E-01     7.1498  -0.9699   108.7296
 15      0.0000     0.0000E+00    0.0000E+00    7.500000E+09  0.00400  3.510E-05    0   0.5212   age171_m42            0.0000     1.0392E+00     7.2416  -1.0000   101.6883
 16      0.0000     0.0000E+00    0.0000E+00    1.300000E+10  0.00400  2.005E-05    0   0.5034   age193_m42            0.0000     1.4174E+00     8.2718  -1.0000    94.6412
 17      0.0000     0.0000E+00    0.0000E+00    1.800000E+10  0.00400  1.525E-05    0   0.4967   age213_m42            0.0000     1.4336E+00     8.3647  -1.0000    93.3270
 18      0.0000     0.0000E+00    0.0000E+00    1.000000E+06  0.00800  1.238E-02    0   1.0000   age020_m52            0.0000     5.1577E-01     5.9097   2.3332    93.5459
 19      7.2537     2.9098E-01    4.6158E-01    3.160000E+06  0.00800  3.074E-02    0   0.9966   age045_m52            0.0000     4.9188E-01     5.8522   2.2505    94.6488
 20      5.6941     2.6317E-01    3.9557E-01    5.010000E+06  0.00800  2.668E-02    0   0.9443   age055_m52            0.0000     4.5582E-01     5.7069   1.9984    97.2157
 21     44.5964     2.5745E+00    3.7607E+00    6.610000E+06  0.00800  2.136E-02    0   0.9177   age061_m52            0.0000     4.0122E-01     5.2132   0.7455   104.0151
 22      0.0027     2.7092E-04    3.8065E-04    1.000000E+07  0.00800  1.215E-02    0   0.8827   age070_m52            0.0000     4.3568E-01     5.4341   1.4315   102.3449
 23      0.0000     0.0000E+00    0.0000E+00    1.445000E+07  0.00800  8.717E-03    0   0.8552   age078_m52            0.0000     4.2582E-01     5.3621   1.5380   101.6235
 24      0.0052     1.1376E-03    1.4780E-03    2.512000E+07  0.00800  5.592E-03    0   0.8162   age090_m52            0.0000     4.5186E-01     5.4785   1.1780   104.7844
 25      0.0000     0.0000E+00    0.0000E+00    4.000000E+07  0.00800  3.896E-03    0   0.7841   age104_m52            0.0000     4.8701E-01     5.6745   1.0834   105.9995
 26      0.0000     0.0000E+00    0.0000E+00    1.015200E+08  0.00800  2.148E-03    0   0.7226   age116_m52            0.0000     5.6292E-01     5.9113   1.0131   106.2630
 27      0.0000     0.0000E+00    0.0000E+00    2.861200E+08  0.00800  9.925E-04    0   0.6683   age125_m52            0.0000     8.2618E-01     6.6624   0.5248   110.9692
 28      0.0000     0.0000E+00    0.0000E+00    9.047900E+08  0.00800  3.141E-04    0   0.6138   age135_m52            0.0000     1.0130E+00     7.5967  -0.2942   116.8639
 29      0.0000     0.0000E+00    0.0000E+00    1.434000E+09  0.00800  1.719E-04    0   0.5853   age139_m52            0.0000     9.1648E-01     7.5763  -0.8735   114.4887
 30      0.0000     0.0000E+00    0.0000E+00    2.500000E+09  0.00800  7.872E-05    0   0.5600   age150_m52            0.0000     1.1164E+00     7.6304  -1.0000   105.5199
 31      0.0000     0.0000E+00    0.0000E+00    4.250000E+09  0.00800  4.336E-05    0   0.5426   age158_m52            0.0000     1.1507E+00     7.6603  -1.0000   103.8961
 32      0.0000     0.0000E+00    0.0000E+00    6.250000E+09  0.00800  3.159E-05    0   0.5319   age166_m52            0.0000     1.6951E+00     8.9850  -1.0000    95.7344
 33      0.0000     0.0000E+00    0.0000E+00    1.300000E+10  0.00800  1.361E-05    0   0.5073   age193_m52            0.0000     3.5264E+00    13.2463  -1.0000    77.4017
 34      0.0000     0.0000E+00    0.0000E+00    1.800000E+10  0.00800  9.886E-06    0   0.4990   age213_m52            0.0000     4.1980E+00    14.4036  -1.0000    73.3035
 35      0.0000     0.0000E+00    0.0000E+00    1.000000E+06  0.02000  1.544E-02    0   1.0000   age020_m62            0.0000     5.1599E-01     5.9141   2.3296    93.7499
 36     11.5956     3.8008E-01    5.9640E-01    3.160000E+06  0.02000  3.762E-02    0   0.9858   age045_m62            0.0000     4.9900E-01     5.9026   2.2638    94.7928
 37      0.0000     0.0000E+00    0.0000E+00    5.010000E+06  0.02000  3.296E-02    0   0.9342   age055_m62            0.0000     4.8723E-01     5.8705   1.8668    99.7593
 38      1.3368     1.4285E-01    2.0148E-01    8.710000E+06  0.02000  1.154E-02    0   0.8861   age067_m62            0.0000     6.4763E-01     7.0854   0.9163   103.5892
 39      0.0000     0.0000E+00    0.0000E+00    1.445000E+07  0.02000  7.663E-03    0   0.8472   age078_m62            0.0000     4.6070E-01     5.7685   1.0871   104.3620
 40      0.0000     0.0000E+00    0.0000E+00    2.512000E+07  0.02000  4.532E-03    0   0.8099   age090_m62            0.0000     4.9445E-01     5.9881   1.0789   104.1372
 41      0.0000     0.0000E+00    0.0000E+00    5.500000E+07  0.02000  2.733E-03    0   0.7595   age110_m62            0.0000     4.8529E-01     5.5924   1.0688   105.0957
 42      0.0000     0.0000E+00    0.0000E+00    1.609000E+08  0.02000  1.369E-03    0   0.6985   age120_m62            0.0000     7.1330E-01     6.2551   0.8943   108.6929
 43      0.0000     0.0000E+00    0.0000E+00    2.861200E+08  0.02000  9.013E-04    0   0.6714   age125_m62            0.0000     9.1168E-01     6.6839   0.6345   112.3008
 44      0.0000     0.0000E+00    0.0000E+00    5.088000E+08  0.02000  5.028E-04    0   0.6449   age130_m62            0.0000     1.0854E+00     7.4901   0.2388   116.3440
 45      0.0000     0.0000E+00    0.0000E+00    9.047900E+08  0.02000  2.428E-04    0   0.6179   age135_m62            0.0000     1.0242E+00     7.8386  -0.3599   116.4614
 46      0.0000     0.0000E+00    0.0000E+00    1.434000E+09  0.02000  1.263E-04    0   0.5908   age139_m62            0.0000     1.0327E+00     7.9500  -0.8068   114.9074
 47      0.0000     0.0000E+00    0.0000E+00    2.500000E+09  0.02000  5.985E-05    0   0.5673   age150_m62            0.0000     1.3236E+00     8.1988  -1.0000   106.0794
 48      0.0000     0.0000E+00    0.0000E+00    4.250000E+09  0.02000  3.271E-05    0   0.5468   age158_m62            0.0000     2.2440E+00    10.3066  -1.0000    92.7378
 49      0.0000     0.0000E+00    0.0000E+00    1.000000E+10  0.02000  1.360E-05    0   0.5167   age181_m62            0.0000     3.8847E+00    13.6436  -1.0000    79.1768
 50      0.0000     0.0000E+00    0.0000E+00    1.800000E+10  0.02000  7.124E-06    0   0.5013   age213_m62            0.0000     5.0936E+00    15.6416  -1.0000    71.2897
 51      1.6333     7.7700E-02    1.2365E-01    1.000000E+06  0.05000  2.592E-02    0   0.9998   age020_m72            0.0000     5.2072E-01     5.9060   2.3231    93.6820
 52     16.1242     4.1038E-01    6.2558E-01    3.160000E+06  0.05000  4.845E-02    0   0.9577   age045_m72            0.0000     4.8288E-01     5.9220   2.1354    96.5905
 53      0.0000     0.0000E+00    0.0000E+00    5.010000E+06  0.05000  3.072E-02    0   0.9147   age055_m72            0.0000     4.7433E-01     5.8731   1.6754   100.4007
 54      0.0000     0.0000E+00    0.0000E+00    6.610000E+06  0.05000  1.455E-02    0   0.8877   age061_m72            0.0000     1.1102E+00     9.2842   0.9920   103.8320
 55      0.0000     0.0000E+00    0.0000E+00    1.000000E+07  0.05000  9.074E-03    0   0.8524   age070_m72            0.0000     5.9221E-01     6.6520   1.8691   100.0010
 56      0.0000     0.0000E+00    0.0000E+00    2.512000E+07  0.05000  4.250E-03    0   0.7902   age090_m72            0.0000     5.4652E-01     6.3244   1.5507   102.5390
 57      0.0000     0.0000E+00    0.0000E+00    4.000000E+07  0.05000  3.087E-03    0   0.7618   age104_m72            0.0000     5.9213E-01     6.4884   1.3209   104.3631
 58      0.0000     0.0000E+00    0.0000E+00    1.015200E+08  0.05000  1.700E-03    0   0.7096   age116_m72            0.0000     6.7836E-01     6.2472   1.0428   107.9928
 59      0.0000     0.0000E+00    0.0000E+00    2.861200E+08  0.05000  7.384E-04    0   0.6633   age125_m72            0.0000     1.0087E+00     7.1078   0.4897   114.5976
 60      4.4983     1.4525E+01    1.4732E+01    5.088000E+08  0.05000  3.819E-04    0   0.6372   age130_m72            0.0000     1.0348E+00     7.6582  -0.0255   117.6929
 61     11.0547     8.1334E+01    7.9102E+01    9.047900E+08  0.05000  1.676E-04    0   0.6110   age135_m72            0.0000     1.1776E+00     8.5931  -0.7345   116.4230
 62      0.0000     0.0000E+00    0.0000E+00    1.434000E+09  0.05000  8.837E-05    0   0.5874   age139_m72            0.0000     1.4214E+00     8.4779  -1.0000   107.6561
 63      0.0000     0.0000E+00    0.0000E+00    2.500000E+09  0.05000  4.233E-05    0   0.5598   age150_m72            0.0000     2.3755E+00    10.5807  -1.0000    93.5479
 64      0.0000     0.0000E+00    0.0000E+00    6.250000E+09  0.05000  1.435E-05    0   0.5249   age166_m72            0.0000     4.3711E+00    14.5625  -1.0000    75.4121
 65      0.0000     0.0000E+00    0.0000E+00    1.300000E+10  0.05000  6.513E-06    0   0.5036   age193_m72            0.0000     6.0274E+00    17.2718  -1.0000    66.7142
 66      0.0000     0.0000E+00    0.0000E+00    1.800000E+10  0.05000  4.527E-06    0   0.4945   age213_m72            0.0000     7.0203E+00    18.8812  -1.0000    61.6056


## Synthesis Results - Average & Chains ##

# j      x_j: min, <> & last-chain-values for 1 ...  7 chains
  1      0.0000      0.5974      0.0000      1.3551      0.0000      0.3404      0.0000      0.0000      0.0000
  2      0.0000      0.4508      0.0527      0.0000      0.3800      0.2893      0.0000      0.7784      0.8676
  3      0.0000      1.8378      0.5407      0.0000      1.1981      0.5035      3.7574      2.9326      3.4451
  4      0.0000      0.8550      1.9525      0.0000      0.0000      0.6065      0.0000      0.0000      0.0000
  5      0.0000      0.9166      3.6165      2.1099      0.0000      0.0209      1.1455      2.1025      0.0000
  6      0.0000      0.8578      0.0000      0.0000      0.0000      3.0754      0.0000      3.9291      7.9328
  7      0.0000      1.6025      0.0000      0.0000      0.0000      0.6584      0.6097      0.0000      2.7156
  8      0.0000      1.8127      1.5632      0.0000      0.0000      0.0000      2.3282      1.1523      0.1487
  9      0.0000      0.9388      0.4113      0.0000      0.0000      0.0000      0.0000      0.0000      0.0000
 10      0.0000      0.5615      0.4726      0.0000      0.4671      0.0000      0.0000      0.0000      0.0000
 11      0.0000      0.1578      0.0000      0.0000      0.0000      0.0000      0.0000      0.0000      0.0000
 12      0.0000      0.2066      0.0000      0.0000      0.0000      0.0000      0.0000      0.4634      0.0000
 13      0.0000      0.0520      0.0000      0.1154      0.0000      0.0000      0.0000      0.0000      0.0000
 14      0.0000      0.1503      0.0000      0.0000      0.0000      0.0825      0.0000      0.0000      0.0000
 15      0.0000      0.2132      0.0000      0.0000      0.0000      1.1101      0.2502      1.0232      0.0000
 16      0.0000      0.0200      0.0000      0.0000      0.0000      0.0000      0.0000      0.0000      0.0375
 17      0.0000      0.0375      0.0000      0.0000      0.0000      0.0000      0.0000      0.0000      0.0000
 18      0.0000      0.8526      3.2460      3.8197      1.5894      0.0000      2.3664      0.7643      0.3196
 19      7.2537      3.0683      4.0160      2.8100      3.7788      3.0943      4.4900      7.4310      4.1134
 20      5.6941      1.5961      1.3781      2.8299      2.6803      3.1243      3.4063      4.3122      0.0000
 21     44.5964     52.5212     56.2802     52.2995     62.2552     59.6939     56.1740     50.2531     56.2244
 22      0.0027      0.8924      0.4710      2.4841      0.0000      0.0000      1.7376      0.6710      0.0000
 23      0.0000      0.7240      0.0000      0.0000      0.0000      0.0000      0.6848      1.0906      1.0567
 24      0.0052      1.1996      2.1888      1.7000      0.8554      3.8499      0.0000      0.0000      0.0000
 25      0.0000      0.7380      0.0000      0.0000      0.0000      3.1802      0.9027      0.0000      0.0000
 26      0.0000      0.7809      0.0000      0.0000      0.3303      0.0000      0.0000      0.0000      0.0000
 27      0.0000      0.2054      0.0000      0.0000      0.0000      0.0000      0.0000      0.0000      0.0000
 28      0.0000      0.2342      0.3329      0.0000      0.0000      0.0000      0.0000      0.0000      0.0000
 29      0.0000      0.0238      0.0000      0.0000      0.0000      0.0000      0.0000      0.0000      0.0000
 30      0.0000      0.0424      0.0000      0.0000      0.0000      0.0000      0.0000      0.0000      0.0000
 31      0.0000      0.1188      0.0000      0.0000      0.0000      0.0000      0.0000      0.0000      0.0000
 32      0.0000      0.0188      0.0000      0.0000      0.0000      0.0000      0.0000      0.0000      0.3860
 33      0.0000      0.0114      0.0000      0.0000      0.0000      0.0000      0.0000      0.0000      0.0000
 34      0.0000      0.0094      0.0000      0.0000      0.0000      0.0000      0.0000      0.0000      0.0000
 35      0.0000      0.5757      0.0000      0.0000      2.5288      0.0000      0.0000      0.0000      0.0000
 36     11.5956      2.5685      4.8767      3.6036      2.6381      4.3946      3.8183      6.7236      4.6583
 37      0.0000      0.4071      0.0000      0.0000      1.3054      0.0000      1.7086      0.0000      2.4614
 38      1.3368      3.7905      4.1715      4.2519      5.3992      4.0896      2.0119      0.0000      2.2451
 39      0.0000      1.4729      0.0000      0.0000      0.0000      0.0000      0.0000      2.3146      0.0000
 40      0.0000      0.9718      0.0000      0.0000      0.0000      0.0000      0.0000      0.0000      0.0000
 41      0.0000      0.9422      0.0000      0.0000      0.0000      1.1761      0.0000      1.4451      0.0000
 42      0.0000      0.2593      0.0000      0.0000      0.0000      0.0000      0.0000      0.8727      0.0000
 43      0.0000      0.2946      0.0000      0.0000      0.3118      0.0000      0.1566      0.0000      0.0000
 44      0.0000      0.3314      0.0000      0.0000      0.0000      0.0000      0.0000      0.0000      0.0000
 45      0.0000      0.2279      0.0000      0.5490      1.3335      0.0000      0.0000      0.0000      0.0000
 46      0.0000      0.1680      0.0000      0.4309      0.0000      0.2086      0.7652      0.1967      0.0000
