###################################################################
## OUTPUT of StarlightChains_v04.for    [Cid@UFSC - 01/Apr/2007] ##
###################################################################

## Some input info
2002ee.txt                               [arq_obs]
Base.CB07.vall.4m                        [arq_base]
Masks.EmLines.NEW.gm                     [arq_masks]
StCv04.C11.config                        [arq_config]
   66                                    [N_base]
    0                                    [N_YAV_components = # of components with extra extinction!]
    0                                    [i_FitPowerLaw (1/0 = Yes/No)]
-9.99                                    [alpha_PowerLaw]
CCM                                      [red_law_option]
 1.458241                                [q_norm = A(l_norm)/A(V)]

## (Re)Sampling Parameters
 3741.00                                 [l_ini (A)]
 7218.00                                 [l_fin (A)]
    1.00                                 [dl    (A)]     (OBS: dl_cushion =    50.00 A)

## Normalization info
 4020.00                                 [l_norm (A) - for base]
 4010.00                                 [llow_norm (A) - window for f_obs]
 4060.00                                 [lupp_norm (A) - window for f_obs]
3.360516E-17                             [fobs_norm (in input units)]

## S/N
 3691.00                                 [llow_SN (A) - window for S/N]
 7268.00                                 [lupp_SN (A) - window for S/N]
   6.811                                 [S/N in S/N window]
   8.397                                 [S/N in norm. window]
  10.000                                 [S/N_err in S/N window]
  12.327                                 [S/N_err in norm. window]
  1.0000                                 [fscale_chi2]

## etc...
    -2007265                             [idum_orig]
  2384                                   [NOl_eff]
  2347                                   [Nl_eff]
    37    NSIGMA                         [Ntot_cliped & clip_method]
  1797740                                [Nglobal_steps]
   7                                     [N_chains]
  34                                     [NEX0s_base = N_base in EX0s-fits]
 0   0   1       67   2.0   1.692E+01    [Clip-Bug, RC-Crash & Burn-In warning-flags, n_censored_weights, wei_nsig_threshold & wei_limit]
    14     14.184     13.686      0.498  [idt_all, wdt_TotTime, wdt_UsrTime & wdt_SysTime (sec)]

## Synthesis Results - Best model ##

 8.23754E-01                             [chi2/Nl_eff]
     7.03554                             [adev (%)]

    96.16831                             [sum-of-x (%)]
 3.24326E-17                             [Flux_tot (units of input spectrum!)]
 4.83244E-13                             [Mini_tot (???)]
 2.52785E-13                             [Mcor_tot (???)]

 186.64                                  [v0_min  (km/s)]
 176.08                                  [vd_min  (km/s)]
 0.0026                                  [AV_min  (mag)]
 0.0000                                  [YAV_min (mag)]

# j     x_j(%)      Mini_j(%)     Mcor_j(%)     age_j(yr)     Z_j      (L/M)_j    YAV?  Mstars   component_j        a/Fe...       SSP_chi2r SSP_adev(%)   SSP_AV   SSP_x(%)
  1      5.4267     3.4618E-02    6.6178E-02    1.000000E+06  0.00400  1.094E-02    0   1.0000   age020_m42            0.0000     1.3112E+00     8.6514   2.7813    80.9082
  2      0.0000     0.0000E+00    0.0000E+00    3.160000E+06  0.00400  4.007E-02    0   0.9999   age045_m42            0.0000     1.0915E+00     8.0247   2.0267    87.6858
  3      0.0000     0.0000E+00    0.0000E+00    5.010000E+06  0.00400  2.539E-02    0   0.9488   age055_m42            0.0000     1.1619E+00     8.2167   2.3578    85.0687
  4      1.3312     3.5459E-03    6.2499E-03    6.610000E+06  0.00400  2.620E-02    0   0.9220   age061_m42            0.0000     1.0788E+00     7.9197   1.9504    87.9915
  5      0.0000     0.0000E+00    0.0000E+00    1.000000E+07  0.00400  1.322E-02    0   0.8862   age070_m42            0.0000     1.0408E+00     7.6558   1.6704    89.7190
  6      0.0000     0.0000E+00    0.0000E+00    1.445000E+07  0.00400  7.883E-03    0   0.8571   age078_m42            0.0000     1.0989E+00     7.8339   2.0043    87.1318
  7      0.0000     0.0000E+00    0.0000E+00    2.512000E+07  0.00400  5.251E-03    0   0.8174   age090_m42            0.0000     1.0390E+00     7.6410   1.5388    90.2855
  8      0.0000     0.0000E+00    0.0000E+00    4.000000E+07  0.00400  3.649E-03    0   0.7851   age104_m42            0.0000     1.0007E+00     7.5311   1.3054    91.3360
  9      0.0000     0.0000E+00    0.0000E+00    5.500000E+07  0.00400  3.098E-03    0   0.7629   age110_m42            0.0000     1.0226E+00     7.5797   1.4547    91.5448
 10      0.0017     5.4053E-05    7.4471E-05    1.015200E+08  0.00400  2.228E-03    0   0.7207   age116_m42            0.0000     1.0590E+00     7.6546   1.4716    91.8910
 11      0.0000     0.0000E+00    0.0000E+00    2.861200E+08  0.00400  1.093E-03    0   0.6648   age125_m42            0.0000     1.0337E+00     7.5688   0.8924    95.0982
 12      0.0000     0.0000E+00    0.0000E+00    5.088000E+08  0.00400  6.597E-04    0   0.6365   age130_m42            0.0000     1.0841E+00     7.6610   0.8779    96.1646
 13     10.1299     3.3159E+00    3.6753E+00    1.434000E+09  0.00400  2.132E-04    0   0.5798   age139_m42            0.0000     9.6746E-01     7.3077  -0.0990    98.5749
 14     13.6155     1.6119E+01    1.6569E+01    4.250000E+09  0.00400  5.895E-05    0   0.5377   age158_m42            0.0000     9.7710E-01     7.5560  -0.5348    94.6868
 15      6.6272     1.3177E+01    1.3129E+01    7.500000E+09  0.00400  3.510E-05    0   0.5212   age171_m42            0.0000     1.0650E+00     7.8639  -0.7225    94.0953
 16      5.2284     1.8198E+01    1.7513E+01    1.300000E+10  0.00400  2.005E-05    0   0.5034   age193_m42            0.0000     1.1689E+00     8.2019  -0.8885    93.6524
 17      3.5974     1.6463E+01    1.5632E+01    1.800000E+10  0.00400  1.525E-05    0   0.4967   age213_m42            0.0000     1.1462E+00     8.1421  -0.9103    93.1940
 18      3.5594     2.0065E-02    3.8358E-02    1.000000E+06  0.00800  1.238E-02    0   1.0000   age020_m52            0.0000     1.3108E+00     8.6511   2.7776    81.0659
 19      0.0170     3.8682E-05    7.3696E-05    3.160000E+06  0.00800  3.074E-02    0   0.9966   age045_m52            0.0000     1.2902E+00     8.6014   2.6986    81.8919
 20      0.9715     2.5412E-03    4.5873E-03    5.010000E+06  0.00800  2.668E-02    0   0.9443   age055_m52            0.0000     1.1813E+00     8.2518   2.4442    84.1548
 21      0.0000     0.0000E+00    0.0000E+00    6.610000E+06  0.00800  2.136E-02    0   0.9177   age061_m52            0.0000     9.5965E-01     7.4589   1.1715    90.8022
 22      0.0000     0.0000E+00    0.0000E+00    1.000000E+07  0.00800  1.215E-02    0   0.8827   age070_m52            0.0000     1.0752E+00     7.7493   1.8544    89.2685
 23      0.0575     4.6005E-04    7.5212E-04    1.445000E+07  0.00800  8.717E-03    0   0.8552   age078_m52            0.0000     1.0720E+00     7.7459   1.9682    88.4245
 24      0.1496     1.8670E-03    2.9132E-03    2.512000E+07  0.00800  5.592E-03    0   0.8162   age090_m52            0.0000     1.0280E+00     7.6038   1.6015    91.4126
 25      0.0000     0.0000E+00    0.0000E+00    4.000000E+07  0.00800  3.896E-03    0   0.7841   age104_m52            0.0000     1.0066E+00     7.5498   1.5078    92.4005
 26      0.0000     0.0000E+00    0.0000E+00    1.015200E+08  0.00800  2.148E-03    0   0.7226   age116_m52            0.0000     1.0017E+00     7.5105   1.4397    92.5982
 27      0.8827     6.2066E-02    7.9294E-02    2.861200E+08  0.00800  9.925E-04    0   0.6683   age125_m52            0.0000     1.0806E+00     7.6028   0.9423    97.0707
 28     10.4670     2.3256E+00    2.7288E+00    9.047900E+08  0.00800  3.141E-04    0   0.6138   age135_m52            0.0000     1.0801E+00     7.6695   0.1325   101.8538
 29      0.0033     1.3499E-03    1.5104E-03    1.434000E+09  0.00800  1.719E-04    0   0.5853   age139_m52            0.0000     9.8879E-01     7.5059  -0.4430    99.6880
 30      0.0000     0.0000E+00    0.0000E+00    2.500000E+09  0.00800  7.872E-05    0   0.5600   age150_m52            0.0000     1.1199E+00     8.0072  -0.7089    97.0191
 31      4.9525     7.9711E+00    8.2683E+00    4.250000E+09  0.00800  4.336E-05    0   0.5426   age158_m52            0.0000     1.1429E+00     8.0820  -0.7225    96.0387
 32      0.0000     0.0000E+00    0.0000E+00    6.250000E+09  0.00800  3.159E-05    0   0.5319   age166_m52            0.0000     1.3141E+00     8.6100  -0.9264    96.1756
 33      3.7116     1.9032E+01    1.8457E+01    1.300000E+10  0.00800  1.361E-05    0   0.5073   age193_m52            0.0000     2.1507E+00    10.4369  -1.0000    82.0908
 34      0.0000     0.0000E+00    0.0000E+00    1.800000E+10  0.00800  9.886E-06    0   0.4990   age213_m52            0.0000     2.6999E+00    11.5617  -1.0000    78.1463
 35      4.3456     1.9642E-02    3.7549E-02    1.000000E+06  0.02000  1.544E-02    0   1.0000   age020_m62            0.0000     1.3181E+00     8.6709   2.7745    81.2253
 36      0.4338     8.0466E-04    1.5164E-03    3.160000E+06  0.02000  3.762E-02    0   0.9858   age045_m62            0.0000     1.3147E+00     8.6679   2.7118    82.0093
 37      0.0000     0.0000E+00    0.0000E+00    5.010000E+06  0.02000  3.296E-02    0   0.9342   age055_m62            0.0000     1.1355E+00     8.1358   2.3112    86.4053
 38      7.4975     4.5341E-02    7.6805E-02    8.710000E+06  0.02000  1.154E-02    0   0.8861   age067_m62            0.0000     1.4647E+00     9.0765   1.3169    91.0798
 39      0.0000     0.0000E+00    0.0000E+00    1.445000E+07  0.02000  7.663E-03    0   0.8472   age078_m62            0.0000     1.1101E+00     7.9036   1.5004    91.2986
 40      0.0000     0.0000E+00    0.0000E+00    2.512000E+07  0.02000  4.532E-03    0   0.8099   age090_m62            0.0000     1.1352E+00     7.9882   1.4908    91.1169
 41      0.0000     0.0000E+00    0.0000E+00    5.500000E+07  0.02000  2.733E-03    0   0.7595   age110_m62            0.0000     1.0074E+00     7.5199   1.4922    91.6853
 42      0.0000     0.0000E+00    0.0000E+00    1.609000E+08  0.02000  1.369E-03    0   0.6985   age120_m62            0.0000     1.0697E+00     7.5794   1.3155    94.9556
 43      3.3386     2.5851E-01    3.3180E-01    2.861200E+08  0.02000  9.013E-04    0   0.6714   age125_m62            0.0000     1.1633E+00     7.7385   1.0560    98.1607
 44      0.0007     9.2301E-05    1.1379E-04    5.088000E+08  0.02000  5.028E-04    0   0.6449   age130_m62            0.0000     1.2308E+00     7.9961   0.6696   101.3069
 45      0.0000     0.0000E+00    0.0000E+00    9.047900E+08  0.02000  2.428E-04    0   0.6179   age135_m62            0.0000     1.1060E+00     7.8047   0.0798   101.0250
 46      0.7022     3.8799E-01    4.3821E-01    1.434000E+09  0.02000  1.263E-04    0   0.5908   age139_m62            0.0000     1.1090E+00     7.9094  -0.3604    99.4722
 47      0.0000     0.0000E+00    0.0000E+00    2.500000E+09  0.02000  5.985E-05    0   0.5673   age150_m62            0.0000     1.2889E+00     8.5327  -0.7257    98.1697
 48      0.0000     0.0000E+00    0.0000E+00    4.250000E+09  0.02000  3.271E-05    0   0.5468   age158_m62            0.0000     1.5876E+00     9.4123  -1.0000    96.3606
 49      0.0000     0.0000E+00    0.0000E+00    1.000000E+10  0.02000  1.360E-05    0   0.5167   age181_m62            0.0000     2.5275E+00    11.1813  -1.0000    83.9006
 50      0.0000     0.0000E+00    0.0000E+00    1.800000E+10  0.02000  7.124E-06    0   0.5013   age213_m62            0.0000     3.5128E+00    12.9760  -1.0000    76.2869
 51      0.0000     0.0000E+00    0.0000E+00    1.000000E+06  0.05000  2.592E-02    0   0.9998   age020_m72            0.0000     1.3445E+00     8.7249   2.7694    81.1187
 52      0.0000     0.0000E+00    0.0000E+00    3.160000E+06  0.05000  4.845E-02    0   0.9577   age045_m72            0.0000     1.2446E+00     8.4793   2.5853    83.4895
 53      0.0000     0.0000E+00    0.0000E+00    5.010000E+06  0.05000  3.072E-02    0   0.9147   age055_m72            0.0000     1.1705E+00     8.0843   2.0961    87.4533
 54      0.0000     0.0000E+00    0.0000E+00    6.610000E+06  0.05000  1.455E-02    0   0.8877   age061_m72            0.0000     2.0193E+00    10.9269   1.3638    91.6731
 55      0.0000     0.0000E+00    0.0000E+00    1.000000E+07  0.05000  9.074E-03    0   0.8524   age070_m72            0.0000     1.3064E+00     8.6371   2.2802    87.1590
 56      0.0000     0.0000E+00    0.0000E+00    2.512000E+07  0.05000  4.250E-03    0   0.7902   age090_m72            0.0000     1.1556E+00     8.0793   1.9645    89.4348
 57      0.0000     0.0000E+00    0.0000E+00    4.000000E+07  0.05000  3.087E-03    0   0.7618   age104_m72            0.0000     1.1436E+00     8.0348   1.7311    91.1842
 58      4.6452     1.9069E-01    2.5868E-01    1.015200E+08  0.05000  1.700E-03    0   0.7096   age116_m72            0.0000     1.0715E+00     7.6156   1.4606    94.3852
 59      1.6761     1.5842E-01    2.0088E-01    2.861200E+08  0.05000  7.384E-04    0   0.6633   age125_m72            0.0000     1.2046E+00     7.8819   0.9189    99.8011
 60      0.0000     0.0000E+00    0.0000E+00    5.088000E+08  0.05000  3.819E-04    0   0.6372   age130_m72            0.0000     1.1590E+00     7.8958   0.4199   101.8997
 61      0.0000     0.0000E+00    0.0000E+00    9.047900E+08  0.05000  1.676E-04    0   0.6110   age135_m72            0.0000     1.2728E+00     8.4549  -0.2734   100.2059
 62      2.7986     2.2102E+00    2.4819E+00    1.434000E+09  0.05000  8.837E-05    0   0.5874   age139_m72            0.0000     1.3551E+00     8.6936  -0.7295    99.7862
 63      0.0000     0.0000E+00    0.0000E+00    2.500000E+09  0.05000  4.233E-05    0   0.5598   age150_m72            0.0000     1.7034E+00     9.7130  -1.0000    97.2026
 64      0.0000     0.0000E+00    0.0000E+00    6.250000E+09  0.05000  1.435E-05    0   0.5249   age166_m72            0.0000     2.8884E+00    11.9262  -1.0000    80.3269
 65      0.0000     0.0000E+00    0.0000E+00    1.300000E+10  0.05000  6.513E-06    0   0.5036   age193_m72            0.0000     4.3474E+00    14.4215  -1.0000    71.9360
 66      0.0000     0.0000E+00    0.0000E+00    1.800000E+10  0.05000  4.527E-06    0   0.4945   age213_m72            0.0000     5.3207E+00    15.9218  -1.0000    66.8220


## Synthesis Results - Average & Chains ##

# j      x_j: min, <> & last-chain-values for 1 ...  7 chains
  1      5.4267      1.7155      1.1237      2.4658      0.0000      2.8132      1.5331      1.7441      3.7795
  2      0.0000      0.4257      0.4230      0.2578      0.0000      0.0000      0.0984      0.0000      0.0000
  3      0.0000      0.5174      0.0000      0.0000      0.3601      0.6746      1.5192      0.0000      0.5250
  4      1.3312      0.5276      0.0000      0.0000      0.0000      0.0000      2.6188      0.0000      1.6646
  5      0.0000      0.4660      1.2396      1.2111      0.0000      0.0000      0.3182      1.1150      0.0000
  6      0.0000      0.5882      4.0477      0.0000      0.0000      2.4051      0.0000      0.0000      0.0000
  7      0.0000      0.9553      0.0000      0.0000      5.1491      0.0000      0.0000      1.0822      0.0000
  8      0.0000      0.6472      0.0000      0.0000      0.3226      0.0094      0.0000      0.7134      0.0000
  9      0.0000      0.8317      0.0000      0.1911      0.8202      1.0460      0.0000      0.0000      0.0000
 10      0.0017      0.4717      0.0000      0.0000      2.6354      0.0000      0.0000      0.0000      0.9037
 11      0.0000      0.9532      0.0000      0.0000      0.0000      0.0000      3.2616      0.0000      0.5521
 12      0.0000      0.8708      1.5144      0.0000      1.5391      0.6296      0.0000      1.8204      1.4281
 13     10.1299      5.4910      8.3630      0.0000      1.2269      2.1434      7.2045      6.8119      5.3422
 14     13.6155      7.1010      7.0940      8.2122      7.0856      7.6954      6.1595      9.8931      4.6203
 15      6.6272      2.2522      3.8414      5.0268      1.6935      4.8647      5.5786      0.6868      2.3399
 16      5.2284      4.2927      4.2733      3.2482      5.1372      5.4157      3.9320      4.5244      4.5397
 17      3.5974      0.4936      1.8084      0.3422      0.0000      0.0000      0.7641      0.0000      2.4637
 18      3.5594      0.8405      0.6911      1.0283      2.2328      0.0000      0.4456      2.6142      2.0386
 19      0.0170      0.5632      0.0000      1.7332      0.0000      0.0000      0.4384      0.0000      2.0132
 20      0.9715      0.5445      1.4094      0.2955      1.4926      1.3398      1.1298      0.0000      0.6591
 21      0.0000      3.1634      4.5020      3.3638      3.4286      3.5459      1.1788      4.9885      2.4612
 22      0.0000      0.3670      0.0000      0.6394      1.4103      0.1791      0.0000      0.0000      0.0000
 23      0.0575      0.7186      0.8620      0.0000      0.0000      1.4345      0.5710      0.0000      2.1045
 24      0.1496      1.0061      1.6540      2.8267      0.2777      0.0000      2.2210      0.1093      0.8413
 25      0.0000      0.4534      0.0000      3.5532      0.0837      0.0000      0.5603      0.2524      0.0000
 26      0.0000      0.3816      0.0000      0.0000      0.0000      0.0000      0.8678      0.0000      0.0000
 27      0.8827      0.9588      0.8409      1.2780      2.0276      0.0000      0.0000      0.9914      2.2895
 28     10.4670      4.1996      0.2511      4.5827      4.1309      5.5292      0.0000     11.5951      8.6309
 29      0.0033      3.8858      5.2714      3.6687      7.8288      6.7324      4.9574      5.8869      5.0912
 30      0.0000      0.6210      0.0000      0.0000      1.9867      0.5960      0.0000      0.0000      0.0000
 31      4.9525      6.0544      4.9909     11.8189      8.3070      4.4138      5.5048      5.7440      5.8113
 32      0.0000      0.4679      0.0000      1.0907      0.0000      0.0000      0.3169      0.0000      0.0000
 33      3.7116      0.2000      0.0000      0.0000      0.1237      0.7133      0.1968      0.0000      0.8775
 34      0.0000      0.1575      0.4147      0.0000      0.0000      0.0000      0.0000      0.5594      0.0000
 35      4.3456      0.8727      0.0000      0.0000      1.3906      0.5612      1.0416      0.0224      3.2752
 36      0.4338      0.6835      0.0000      0.0000      0.0690      0.9804      2.1203      1.6640      1.3945
 37      0.0000      0.4369      0.0000      0.0000      0.0000      0.0000      0.0363      0.0000      0.0000
 38      7.4975      2.1661      3.2862      1.8872      6.5376      1.8639      2.3021      4.5630      3.9353
 39      0.0000      3.7873      5.7509      4.8538      4.5105      3.2545      3.6048      0.3614      3.5218
 40      0.0000      0.5148      0.8428      0.4138      1.7352      1.7497      0.0000      0.0000      0.0000
 41      0.0000      0.3569      0.0000      0.0000      0.0000      0.1555      1.1208      0.0000      0.0758
 42      0.0000      0.6126      0.0000      0.1193      0.0000      0.0000      2.7825      1.7664      0.1630
 43      3.3386      0.6907      0.0000      0.0000      0.2093      1.1640      2.0709      0.7639      0.5661
 44      0.0007      1.1183      0.0000      4.5098      0.0000      0.0000      0.0000      0.0000      2.1937
 45      0.0000      3.1134      1.9355      2.1483      1.8868      0.0000      2.1855      0.5085      0.0000
 46      0.7022      4.7331      3.1770      0.0777      4.9695      4.9708      7.6211      4.3665      7.3312
