###################################################################
## OUTPUT of StarlightChains_v04.for    [Cid@UFSC - 01/Apr/2007] ##
###################################################################

## Some input info
2002ce.txt                               [arq_obs]
Base.CB07.vall.4m                        [arq_base]
Masks.EmLines.NEW.gm                     [arq_masks]
StCv04.C11.config                        [arq_config]
   66                                    [N_base]
    0                                    [N_YAV_components = # of components with extra extinction!]
    0                                    [i_FitPowerLaw (1/0 = Yes/No)]
-9.99                                    [alpha_PowerLaw]
CCM                                      [red_law_option]
 1.458241                                [q_norm = A(l_norm)/A(V)]

## (Re)Sampling Parameters
 3741.00                                 [l_ini (A)]
 7218.00                                 [l_fin (A)]
    1.00                                 [dl    (A)]     (OBS: dl_cushion =    50.00 A)

## Normalization info
 4020.00                                 [l_norm (A) - for base]
 4010.00                                 [llow_norm (A) - window for f_obs]
 4060.00                                 [lupp_norm (A) - window for f_obs]
5.828162E-16                             [fobs_norm (in input units)]

## S/N
 3691.00                                 [llow_SN (A) - window for S/N]
 7268.00                                 [lupp_SN (A) - window for S/N]
   3.876                                 [S/N in S/N window]
   5.494                                 [S/N in norm. window]
   8.638                                 [S/N_err in S/N window]
  12.242                                 [S/N_err in norm. window]
  1.0000                                 [fscale_chi2]

## etc...
    -2007264                             [idum_orig]
  2390                                   [NOl_eff]
  2390                                   [Nl_eff]
     0    NSIGMA                         [Ntot_cliped & clip_method]
   744380                                [Nglobal_steps]
   7                                     [N_chains]
  14                                     [NEX0s_base = N_base in EX0s-fits]
 0   0   1       46   2.0   1.803E+01    [Clip-Bug, RC-Crash & Burn-In warning-flags, n_censored_weights, wei_nsig_threshold & wei_limit]
    12     12.347     11.853      0.494  [idt_all, wdt_TotTime, wdt_UsrTime & wdt_SysTime (sec)]

## Synthesis Results - Best model ##

 3.15179E-01                             [chi2/Nl_eff]
     5.25867                             [adev (%)]

   105.59222                             [sum-of-x (%)]
 1.30213E-15                             [Flux_tot (units of input spectrum!)]
 3.58994E-13                             [Mini_tot (???)]
 2.33844E-13                             [Mcor_tot (???)]

 -54.30                                  [v0_min  (km/s)]
 422.01                                  [vd_min  (km/s)]
 0.5580                                  [AV_min  (mag)]
 0.0000                                  [YAV_min (mag)]

# j     x_j(%)      Mini_j(%)     Mcor_j(%)     age_j(yr)     Z_j      (L/M)_j    YAV?  Mstars   component_j        a/Fe...       SSP_chi2r SSP_adev(%)   SSP_AV   SSP_x(%)
  1      2.7719     8.7036E-01    1.3362E+00    1.000000E+06  0.00400  1.094E-02    0   1.0000   age020_m42            0.0000     5.3024E-01     7.0309   1.8558    96.0556
  2      0.0000     0.0000E+00    0.0000E+00    3.160000E+06  0.00400  4.007E-02    0   0.9999   age045_m42            0.0000     5.1754E-01     6.8085   1.1724   100.7895
  3      0.0000     0.0000E+00    0.0000E+00    5.010000E+06  0.00400  2.539E-02    0   0.9488   age055_m42            0.0000     4.9724E-01     6.7516   1.4739    99.1522
  4      0.0000     0.0000E+00    0.0000E+00    6.610000E+06  0.00400  2.620E-02    0   0.9220   age061_m42            0.0000     4.9759E-01     6.6563   1.1021   100.9534
  5      0.0000     0.0000E+00    0.0000E+00    1.000000E+07  0.00400  1.322E-02    0   0.8862   age070_m42            0.0000     3.8194E-01     5.7476   0.8249   103.3714
  6      0.0000     0.0000E+00    0.0000E+00    1.445000E+07  0.00400  7.883E-03    0   0.8571   age078_m42            0.0000     3.8637E-01     5.8407   1.1405   101.1899
  7      0.0000     0.0000E+00    0.0000E+00    2.512000E+07  0.00400  5.251E-03    0   0.8174   age090_m42            0.0000     3.7004E-01     5.6200   0.6998   103.8315
  8      0.0000     0.0000E+00    0.0000E+00    4.000000E+07  0.00400  3.649E-03    0   0.7851   age104_m42            0.0000     3.8838E-01     5.7270   0.4771   104.4292
  9      0.0000     0.0000E+00    0.0000E+00    5.500000E+07  0.00400  3.098E-03    0   0.7629   age110_m42            0.0000     4.5147E-01     6.1624   0.6371   103.9342
 10      0.0000     0.0000E+00    0.0000E+00    1.015200E+08  0.00400  2.228E-03    0   0.7207   age116_m42            0.0000     5.0359E-01     6.5165   0.6625   103.7802
 11      0.0000     0.0000E+00    0.0000E+00    2.861200E+08  0.00400  1.093E-03    0   0.6648   age125_m42            0.0000     5.1783E-01     6.5244   0.1043   106.5123
 12      0.0000     0.0000E+00    0.0000E+00    5.088000E+08  0.00400  6.597E-04    0   0.6365   age130_m42            0.0000     6.1031E-01     7.0391   0.0999   106.9462
 13      0.0000     0.0000E+00    0.0000E+00    1.434000E+09  0.00400  2.132E-04    0   0.5798   age139_m42            0.0000     7.0791E-01     7.3563  -0.8642   108.6674
 14      0.0000     0.0000E+00    0.0000E+00    4.250000E+09  0.00400  5.895E-05    0   0.5377   age158_m42            0.0000     1.1839E+00     9.0570  -1.0000    94.4555
 15      0.0000     0.0000E+00    0.0000E+00    7.500000E+09  0.00400  3.510E-05    0   0.5212   age171_m42            0.0000     1.7729E+00    11.3333  -1.0000    87.6175
 16      0.0719     1.2326E+01    9.5258E+00    1.300000E+10  0.00400  2.005E-05    0   0.5034   age193_m42            0.0000     2.4525E+00    13.4900  -1.0000    81.8034
 17      0.0000     0.0000E+00    0.0000E+00    1.800000E+10  0.00400  1.525E-05    0   0.4967   age213_m42            0.0000     2.5261E+00    13.7439  -1.0000    80.7317
 18      2.5860     7.1753E-01    1.1015E+00    1.000000E+06  0.00800  1.238E-02    0   1.0000   age020_m52            0.0000     5.3082E-01     7.0314   1.8513    96.2712
 19      8.4319     9.4222E-01    1.4416E+00    3.160000E+06  0.00800  3.074E-02    0   0.9966   age045_m52            0.0000     5.2737E-01     6.9997   1.7782    96.9849
 20      0.0000     0.0000E+00    0.0000E+00    5.010000E+06  0.00800  2.668E-02    0   0.9443   age055_m52            0.0000     4.8987E-01     6.7108   1.5512    98.5182
 21     32.5679     5.2375E+00    7.3788E+00    6.610000E+06  0.00800  2.136E-02    0   0.9177   age061_m52            0.0000     3.8943E-01     5.8221   0.3145   104.9769
 22      0.0000     0.0000E+00    0.0000E+00    1.000000E+07  0.00800  1.215E-02    0   0.8827   age070_m52            0.0000     3.5442E-01     5.5546   0.9999   103.4623
 23      0.0000     0.0000E+00    0.0000E+00    1.445000E+07  0.00800  8.717E-03    0   0.8552   age078_m52            0.0000     3.7941E-01     5.7704   1.1100   102.4477
 24      0.0000     0.0000E+00    0.0000E+00    2.512000E+07  0.00800  5.592E-03    0   0.8162   age090_m52            0.0000     3.6657E-01     5.5669   0.7673   104.9309
 25      0.0000     0.0000E+00    0.0000E+00    4.000000E+07  0.00800  3.896E-03    0   0.7841   age104_m52            0.0000     3.9981E-01     5.7826   0.6868   105.3055
 26      0.0000     0.0000E+00    0.0000E+00    1.015200E+08  0.00800  2.148E-03    0   0.7226   age116_m52            0.0000     4.6033E-01     6.2263   0.6298   104.7341
 27      0.0000     0.0000E+00    0.0000E+00    2.861200E+08  0.00800  9.925E-04    0   0.6683   age125_m52            0.0000     6.0098E-01     6.9012   0.1685   107.8419
 28      0.0000     0.0000E+00    0.0000E+00    9.047900E+08  0.00800  3.141E-04    0   0.6138   age135_m52            0.0000     8.5212E-01     7.9208  -0.6137   111.2376
 29      0.0000     0.0000E+00    0.0000E+00    1.434000E+09  0.00800  1.719E-04    0   0.5853   age139_m52            0.0000     9.8292E-01     8.1822  -1.0000   102.5091
 30      0.0000     0.0000E+00    0.0000E+00    2.500000E+09  0.00800  7.872E-05    0   0.5600   age150_m52            0.0000     1.7441E+00    11.1630  -1.0000    90.6412
 31      0.0000     0.0000E+00    0.0000E+00    4.250000E+09  0.00800  4.336E-05    0   0.5426   age158_m52            0.0000     1.8315E+00    11.3813  -1.0000    89.2775
 32      0.0000     0.0000E+00    0.0000E+00    6.250000E+09  0.00800  3.159E-05    0   0.5319   age166_m52            0.0000     2.6817E+00    13.9925  -1.0000    82.5781
 33      0.0000     0.0000E+00    0.0000E+00    1.300000E+10  0.00800  1.361E-05    0   0.5073   age193_m52            0.0000     5.1119E+00    19.6341  -1.0000    67.5880
 34      0.0000     0.0000E+00    0.0000E+00    1.800000E+10  0.00800  9.886E-06    0   0.4990   age213_m52            0.0000     5.8472E+00    20.8325  -1.0000    64.1103
 35      0.0000     0.0000E+00    0.0000E+00    1.000000E+06  0.02000  1.544E-02    0   1.0000   age020_m62            0.0000     5.3261E-01     7.0415   1.8463    96.5431
 36      8.5515     7.8083E-01    1.1817E+00    3.160000E+06  0.02000  3.762E-02    0   0.9858   age045_m62            0.0000     5.3432E-01     7.0535   1.7855    97.3792
 37      0.0000     0.0000E+00    0.0000E+00    5.010000E+06  0.02000  3.296E-02    0   0.9342   age055_m62            0.0000     5.1095E-01     6.8160   1.4397   100.0892
 38     48.9504     1.4571E+01    1.9821E+01    8.710000E+06  0.02000  1.154E-02    0   0.8861   age067_m62            0.0000     3.6512E-01     5.8551   0.4457   107.5742
 39      0.0000     0.0000E+00    0.0000E+00    1.445000E+07  0.02000  7.663E-03    0   0.8472   age078_m62            0.0000     3.3756E-01     5.4260   0.6484   105.9959
 40      0.0000     0.0000E+00    0.0000E+00    2.512000E+07  0.02000  4.532E-03    0   0.8099   age090_m62            0.0000     3.4614E-01     5.5019   0.6453   105.5556
 41      0.0000     0.0000E+00    0.0000E+00    5.500000E+07  0.02000  2.733E-03    0   0.7595   age110_m62            0.0000     3.9319E-01     5.7671   0.6636   104.8180
 42      0.0000     0.0000E+00    0.0000E+00    1.609000E+08  0.02000  1.369E-03    0   0.6985   age120_m62            0.0000     5.1849E-01     6.5139   0.5211   106.6109
 43      0.0000     0.0000E+00    0.0000E+00    2.861200E+08  0.02000  9.013E-04    0   0.6714   age125_m62            0.0000     6.3621E-01     7.0340   0.2840   108.9330
 44      0.0000     0.0000E+00    0.0000E+00    5.088000E+08  0.02000  5.028E-04    0   0.6449   age130_m62            0.0000     8.3980E-01     7.9788  -0.0809   110.8965
 45      0.0000     0.0000E+00    0.0000E+00    9.047900E+08  0.02000  2.428E-04    0   0.6179   age135_m62            0.0000     9.2949E-01     8.2474  -0.6761   110.5268
 46      0.0000     0.0000E+00    0.0000E+00    1.434000E+09  0.02000  1.263E-04    0   0.5908   age139_m62            0.0000     1.0659E+00     8.3547  -1.0000   104.8724
 47      0.0000     0.0000E+00    0.0000E+00    2.500000E+09  0.02000  5.985E-05    0   0.5673   age150_m62            0.0000     1.9687E+00    11.5900  -1.0000    90.9633
 48      0.0000     0.0000E+00    0.0000E+00    4.250000E+09  0.02000  3.271E-05    0   0.5468   age158_m62            0.0000     3.2917E+00    15.4190  -1.0000    80.0990
 49      0.0000     0.0000E+00    0.0000E+00    1.000000E+10  0.02000  1.360E-05    0   0.5167   age181_m62            0.0000     5.2340E+00    19.4974  -1.0000    68.9516
 50      0.0000     0.0000E+00    0.0000E+00    1.800000E+10  0.02000  7.124E-06    0   0.5013   age213_m62            0.0000     6.5810E+00    21.7526  -1.0000    62.3662
 51      0.0000     0.0000E+00    0.0000E+00    1.000000E+06  0.05000  2.592E-02    0   0.9998   age020_m72            0.0000     5.3340E-01     7.0395   1.8344    96.7285
 52      0.0000     0.0000E+00    0.0000E+00    3.160000E+06  0.05000  4.845E-02    0   0.9577   age045_m72            0.0000     5.3182E-01     7.0182   1.6800    98.1628
 53      0.0000     0.0000E+00    0.0000E+00    5.010000E+06  0.05000  3.072E-02    0   0.9147   age055_m72            0.0000     3.9082E-01     5.9486   1.2209   102.2450
 54      0.0000     0.0000E+00    0.0000E+00    6.610000E+06  0.05000  1.455E-02    0   0.8877   age061_m72            0.0000     5.9024E-01     7.6661   0.4968   108.7053
 55      0.0000     0.0000E+00    0.0000E+00    1.000000E+07  0.05000  9.074E-03    0   0.8524   age070_m72            0.0000     4.5936E-01     6.5726   1.4104   101.7251
 56      0.0000     0.0000E+00    0.0000E+00    2.512000E+07  0.05000  4.250E-03    0   0.7902   age090_m72            0.0000     4.1565E-01     6.1185   1.1244   102.9983
 57      0.0000     0.0000E+00    0.0000E+00    4.000000E+07  0.05000  3.087E-03    0   0.7618   age104_m72            0.0000     4.2058E-01     6.1350   0.9048   104.4156
 58      0.0000     0.0000E+00    0.0000E+00    1.015200E+08  0.05000  1.700E-03    0   0.7096   age116_m72            0.0000     4.7578E-01     6.2797   0.6622   106.3584
 59      0.0000     0.0000E+00    0.0000E+00    2.861200E+08  0.05000  7.384E-04    0   0.6633   age125_m72            0.0000     7.3435E-01     7.4949   0.1592   109.9189
 60      0.0000     0.0000E+00    0.0000E+00    5.088000E+08  0.05000  3.819E-04    0   0.6372   age130_m72            0.0000     8.8140E-01     8.1263  -0.3339   111.4803
 61      0.0000     0.0000E+00    0.0000E+00    9.047900E+08  0.05000  1.676E-04    0   0.6110   age135_m72            0.0000     1.1875E+00     8.9960  -1.0000   108.3640
 62      1.6607     6.4555E+01    5.8213E+01    1.434000E+09  0.05000  8.837E-05    0   0.5874   age139_m72            0.0000     2.0281E+00    11.6663  -1.0000    92.2453
 63      0.0000     0.0000E+00    0.0000E+00    2.500000E+09  0.05000  4.233E-05    0   0.5598   age150_m72            0.0000     3.3792E+00    15.4894  -1.0000    80.7281
 64      0.0000     0.0000E+00    0.0000E+00    6.250000E+09  0.05000  1.435E-05    0   0.5249   age166_m72            0.0000     5.8128E+00    20.5562  -1.0000    65.8509
 65      0.0000     0.0000E+00    0.0000E+00    1.300000E+10  0.05000  6.513E-06    0   0.5036   age193_m72            0.0000     7.6717E+00    23.4565  -1.0000    58.6142
 66      0.0000     0.0000E+00    0.0000E+00    1.800000E+10  0.05000  4.527E-06    0   0.4945   age213_m72            0.0000     8.7938E+00    25.0322  -1.0000    54.3008


## Synthesis Results - Average & Chains ##

# j      x_j: min, <> & last-chain-values for 1 ...  7 chains
  1      2.7719      1.2688      2.5527      0.0000      0.0000      4.5087      0.0000      8.5538      1.5762
  2      0.0000      0.8820      2.7653      0.0000      0.4720      3.1711      0.0000      0.0000      0.0000
  3      0.0000      1.7974      2.7962      0.0000      0.0000      0.9868      0.0000      0.0000      1.8206
  4      0.0000      0.5954      0.0000      3.2579      0.0000      0.3524      0.0000      0.1126      0.0000
  5      0.0000      2.1391      0.7192      3.6460      3.1150      0.0000      0.0000      7.5689     14.1385
  6      0.0000      1.9427      0.0000      1.0769      0.0000      0.0000      0.0000      0.0000      0.0000
  7      0.0000      3.4387      0.0000      0.0000      3.3153      0.0000      5.0665      0.0000      0.0000
  8      0.0000      1.9788      0.0000      0.0000      2.6022      0.9245      0.0000      0.0000      0.0000
  9      0.0000      1.1823      0.0000      0.0000      1.3369      0.0000      0.0000      0.0000      0.0000
 10      0.0000      0.6329      0.0000      0.3428      0.0000      0.0000      0.0000      0.0000      0.0000
 11      0.0000      0.2759      0.0000      0.0000      0.0000      0.0000      0.0000      0.0000      0.0000
 12      0.0000      0.1375      0.0000      0.0000      0.0000      0.6070      0.0000      0.0000      0.0000
 13      0.0000      0.1307      0.0000      0.0511      0.0000      0.0000      0.0000      0.0466      0.0000
 14      0.0000      0.0366      0.0000      0.0000      0.0101      0.0000      0.0000      0.0000      0.0000
 15      0.0000      0.0587      0.0000      0.7007      0.0000      0.0000      0.0000      0.0000      0.0000
 16      0.0719      0.0635      0.0000      0.0000      0.0000      0.5235      0.0751      0.8905      0.0000
 17      0.0000      0.0035      0.0000      0.0000      0.0000      0.0000      0.0000      0.0000      0.2595
 18      2.5860      0.7632      0.0000      1.0911      1.0251      1.2737      2.2758      5.0823      1.7273
 19      8.4319      1.9563      3.2683     11.2157      3.6789      7.0599      2.3226      9.3785      1.4242
 20      0.0000      0.7260      0.0000      0.0000      0.0000      0.7137      0.0000      0.0000      0.0000
 21     32.5679     11.6602     18.4150     14.2456     14.2257     17.9952     16.8506      9.7553     13.2450
 22      0.0000      1.9116      3.3587      0.0000      5.9712      7.8864      9.6105      5.8371      0.0000
 23      0.0000      0.9929      2.0170      1.1232      0.2881      0.0000      4.8698      0.0000      7.1127
 24      0.0000      2.4764      4.8463      2.3264      2.2415      0.7716      3.1135      0.0000      0.0000
 25      0.0000      1.5312      0.0000      0.0000      0.0000      0.0000      1.7072      4.6795      0.0000
 26      0.0000      0.9952      0.0000      0.0000      0.0000      0.0000      0.0000      1.3878      0.9492
 27      0.0000      0.4629      0.0000      0.0000      0.6887      0.0000      0.2785      0.0000      0.0000
 28      0.0000      0.0844      0.0000      1.5595      0.0000      0.0000      0.0000      0.0000      0.0000
 29      0.0000      0.0270      0.0000      0.0000      0.0000      0.0000      0.0000      0.0000      0.0000
 30      0.0000      0.0076      0.0000      0.0000      0.0000      0.0000      0.0000      0.0000      0.0000
 31      0.0000      0.0405      0.0000      0.0000      0.0000      0.0000      0.0000      0.0000      0.0000
 32      0.0000      0.0187      0.0000      0.0000      0.0000      0.0000      0.0813      0.0000      0.0000
 33      0.0000      0.0440      0.4057      0.0000      0.0000      0.0000      0.0000      0.0000      0.0000
 34      0.0000      0.0090      0.0523      0.0000      0.0000      0.4758      0.0000      0.3482      0.0000
 35      0.0000      0.5430      0.0000      0.0976      0.0165      3.1214      0.0000      0.3701      0.8371
 36      8.5515      0.9087      0.0000      2.6692      1.6253      2.7070      2.5966      1.7484      0.0000
 37      0.0000      0.8409      0.0000      2.7708      3.7342      3.7269      1.5982      0.0000      0.0000
 38     48.9504     46.6875     52.8604     51.4952     49.4112     41.1895     48.2976     39.4167     52.3246
 39      0.0000      4.2385      0.0000      3.9191      0.0000      0.1885      2.7521      0.0000      0.0000
 40      0.0000      2.0684      0.6597      0.0000      0.9117      2.5882      0.0000      0.0000      0.0000
 41      0.0000      1.4533      0.0000      0.3734      0.1847      1.9057      0.9417      0.0000      0.0000
 42      0.0000      0.7289      0.0000      0.0000      0.0000      0.0000      0.0000      0.0000      0.0000
 43      0.0000      0.4961      0.0000      2.3341      0.0000      0.0000      0.0000      0.0000      0.6553
 44      0.0000      0.2917      0.6784      0.0000      0.0000      0.0000      1.0863      0.0000      0.0000
 45      0.0000      0.1166      0.0000      0.0000      0.7868      0.0000      0.0000      0.0000      0.0000
 46      0.0000      0.0414      0.8719      0.0000      1.2921      0.0000      0.0000      0.0000      0.0000
