###################################################################
## OUTPUT of StarlightChains_v04.for    [Cid@UFSC - 01/Apr/2007] ##
###################################################################

## Some input info
2002ha.txt                               [arq_obs]
Base.CB07.vall.4m                        [arq_base]
Masks.EmLines.NEW.gm                     [arq_masks]
StCv04.C11.config                        [arq_config]
   66                                    [N_base]
    0                                    [N_YAV_components = # of components with extra extinction!]
    0                                    [i_FitPowerLaw (1/0 = Yes/No)]
-9.99                                    [alpha_PowerLaw]
CCM                                      [red_law_option]
 1.458241                                [q_norm = A(l_norm)/A(V)]

## (Re)Sampling Parameters
 3741.00                                 [l_ini (A)]
 7218.00                                 [l_fin (A)]
    1.00                                 [dl    (A)]     (OBS: dl_cushion =    50.00 A)

## Normalization info
 4020.00                                 [l_norm (A) - for base]
 4010.00                                 [llow_norm (A) - window for f_obs]
 4060.00                                 [lupp_norm (A) - window for f_obs]
3.864440E-17                             [fobs_norm (in input units)]

## S/N
 3691.00                                 [llow_SN (A) - window for S/N]
 7268.00                                 [lupp_SN (A) - window for S/N]
   4.884                                 [S/N in S/N window]
   4.712                                 [S/N in norm. window]
   3.850                                 [S/N_err in S/N window]
   3.714                                 [S/N_err in norm. window]
  1.0000                                 [fscale_chi2]

## etc...
    -2007266                             [idum_orig]
  2361                                   [NOl_eff]
  2358                                   [Nl_eff]
     3    NSIGMA                         [Ntot_cliped & clip_method]
  1302910                                [Nglobal_steps]
   7                                     [N_chains]
  26                                     [NEX0s_base = N_base in EX0s-fits]
 0   0   1       40   2.0   7.771E+00    [Clip-Bug, RC-Crash & Burn-In warning-flags, n_censored_weights, wei_nsig_threshold & wei_limit]
    14     14.023     13.526      0.496  [idt_all, wdt_TotTime, wdt_UsrTime & wdt_SysTime (sec)]

## Synthesis Results - Best model ##

 3.64201E-01                             [chi2/Nl_eff]
    18.46389                             [adev (%)]

   103.39904                             [sum-of-x (%)]
 4.39990E-17                             [Flux_tot (units of input spectrum!)]
 1.34804E-12                             [Mini_tot (???)]
 7.03601E-13                             [Mcor_tot (???)]

-163.97                                  [v0_min  (km/s)]
 159.56                                  [vd_min  (km/s)]
 0.0717                                  [AV_min  (mag)]
 0.0000                                  [YAV_min (mag)]

# j     x_j(%)      Mini_j(%)     Mcor_j(%)     age_j(yr)     Z_j      (L/M)_j    YAV?  Mstars   component_j        a/Fe...       SSP_chi2r SSP_adev(%)   SSP_AV   SSP_x(%)
  1      3.4456     9.9420E-03    1.9048E-02    1.000000E+06  0.00400  1.094E-02    0   1.0000   age020_m42            0.0000     4.4290E-01    21.5276   3.2550    88.7618
  2      0.0000     0.0000E+00    0.0000E+00    3.160000E+06  0.00400  4.007E-02    0   0.9999   age045_m42            0.0000     4.2991E-01    20.4119   2.5269    95.0023
  3      0.0000     0.0000E+00    0.0000E+00    5.010000E+06  0.00400  2.539E-02    0   0.9488   age055_m42            0.0000     4.3226E-01    20.8421   2.8411    92.9037
  4      0.0000     0.0000E+00    0.0000E+00    6.610000E+06  0.00400  2.620E-02    0   0.9220   age061_m42            0.0000     4.2590E-01    20.3308   2.4397    95.8202
  5      0.0000     0.0000E+00    0.0000E+00    1.000000E+07  0.00400  1.322E-02    0   0.8862   age070_m42            0.0000     4.1790E-01    21.2859   2.0636   102.2643
  6      0.0000     0.0000E+00    0.0000E+00    1.445000E+07  0.00400  7.883E-03    0   0.8571   age078_m42            0.0000     4.2330E-01    21.5200   2.3999    99.2267
  7      0.0000     0.0000E+00    0.0000E+00    2.512000E+07  0.00400  5.251E-03    0   0.8174   age090_m42            0.0000     4.1908E-01    21.4573   1.9157   103.7201
  8      0.0000     0.0000E+00    0.0000E+00    4.000000E+07  0.00400  3.649E-03    0   0.7851   age104_m42            0.0000     4.1502E-01    21.1143   1.6986   104.0843
  9      0.0000     0.0000E+00    0.0000E+00    5.500000E+07  0.00400  3.098E-03    0   0.7629   age110_m42            0.0000     4.1580E-01    20.4156   1.8942   102.0626
 10      0.0000     0.0000E+00    0.0000E+00    1.015200E+08  0.00400  2.228E-03    0   0.7207   age116_m42            0.0000     4.1562E-01    19.9430   1.9394   101.0830
 11      0.0000     0.0000E+00    0.0000E+00    2.861200E+08  0.00400  1.093E-03    0   0.6648   age125_m42            0.0000     4.1742E-01    20.0763   1.3268   106.1966
 12      0.0000     0.0000E+00    0.0000E+00    5.088000E+08  0.00400  6.597E-04    0   0.6365   age130_m42            0.0000     4.0800E-01    19.2211   1.3615   104.9107
 13      0.0000     0.0000E+00    0.0000E+00    1.434000E+09  0.00400  2.132E-04    0   0.5798   age139_m42            0.0000     3.8257E-01    18.6346   0.4183   105.6777
 14      0.0000     0.0000E+00    0.0000E+00    4.250000E+09  0.00400  5.895E-05    0   0.5377   age158_m42            0.0000     3.7645E-01    18.4984   0.0462    98.4463
 15      0.0000     0.0000E+00    0.0000E+00    7.500000E+09  0.00400  3.510E-05    0   0.5212   age171_m42            0.0000     3.7418E-01    18.2686  -0.1162    96.6669
 16      0.0001     1.5603E-04    1.5049E-04    1.300000E+10  0.00400  2.005E-05    0   0.5034   age193_m42            0.0000     3.7362E-01    18.1069  -0.2585    95.1569
 17      0.0000     0.0000E+00    0.0000E+00    1.800000E+10  0.00400  1.525E-05    0   0.4967   age213_m42            0.0000     3.7492E-01    18.2164  -0.2881    95.0034
 18      0.0000     0.0000E+00    0.0000E+00    1.000000E+06  0.00800  1.238E-02    0   1.0000   age020_m52            0.0000     4.4236E-01    21.5313   3.2513    88.9387
 19      0.0000     0.0000E+00    0.0000E+00    3.160000E+06  0.00800  3.074E-02    0   0.9966   age045_m52            0.0000     4.4116E-01    21.4195   3.1793    89.5449
 20      0.0000     0.0000E+00    0.0000E+00    5.010000E+06  0.00800  2.668E-02    0   0.9443   age055_m52            0.0000     4.3158E-01    21.0455   2.9202    92.2230
 21      6.0743     8.9768E-03    1.5783E-02    6.610000E+06  0.00800  2.136E-02    0   0.9177   age061_m52            0.0000     3.9977E-01    21.1149   1.5786   102.7460
 22      1.7048     4.4293E-03    7.4907E-03    1.000000E+07  0.00800  1.215E-02    0   0.8827   age070_m52            0.0000     4.2094E-01    21.8721   2.2135   103.4333
 23      0.9079     3.2878E-03    5.3871E-03    1.445000E+07  0.00800  8.717E-03    0   0.8552   age078_m52            0.0000     4.1886E-01    21.4406   2.3615   100.7898
 24      0.0000     0.0000E+00    0.0000E+00    2.512000E+07  0.00800  5.592E-03    0   0.8162   age090_m52            0.0000     4.1694E-01    21.4816   1.9719   105.3190
 25      1.6525     1.3389E-02    2.0114E-02    4.000000E+07  0.00800  3.896E-03    0   0.7841   age104_m52            0.0000     4.1497E-01    21.0102   1.9024   105.2388
 26      1.9592     2.8791E-02    3.9860E-02    1.015200E+08  0.00800  2.148E-03    0   0.7226   age116_m52            0.0000     4.1126E-01    20.2268   1.8832   103.0263
 27      4.8650     1.5473E-01    1.9812E-01    2.861200E+08  0.00800  9.925E-04    0   0.6683   age125_m52            0.0000     4.0279E-01    19.2148   1.4228   106.0787
 28      0.0000     0.0000E+00    0.0000E+00    9.047900E+08  0.00800  3.141E-04    0   0.6138   age135_m52            0.0000     3.8649E-01    18.2984   0.6814   107.6487
 29      0.0000     0.0000E+00    0.0000E+00    1.434000E+09  0.00800  1.719E-04    0   0.5853   age139_m52            0.0000     3.7811E-01    18.4694   0.1088   105.0696
 30      0.0000     0.0000E+00    0.0000E+00    2.500000E+09  0.00800  7.872E-05    0   0.5600   age150_m52            0.0000     3.6963E-01    17.8794  -0.0856    98.9032
 31      0.0000     0.0000E+00    0.0000E+00    4.250000E+09  0.00800  4.336E-05    0   0.5426   age158_m52            0.0000     3.7080E-01    17.9291  -0.0946    97.6976
 32      0.0000     0.0000E+00    0.0000E+00    6.250000E+09  0.00800  3.159E-05    0   0.5319   age166_m52            0.0000     3.7118E-01    17.5595  -0.2607    96.1217
 33      0.0000     0.0000E+00    0.0000E+00    1.300000E+10  0.00800  1.361E-05    0   0.5073   age193_m52            0.0000     3.7507E-01    17.1698  -0.6819    93.4945
 34      0.0204     6.5044E-02    6.2185E-02    1.800000E+10  0.00800  9.886E-06    0   0.4990   age213_m52            0.0000     3.8085E-01    16.9699  -0.7500    91.3913
 35      0.0000     0.0000E+00    0.0000E+00    1.000000E+06  0.02000  1.544E-02    0   1.0000   age020_m62            0.0000     4.4261E-01    21.5672   3.2477    89.1338
 36      2.1998     1.8458E-03    3.4863E-03    3.160000E+06  0.02000  3.762E-02    0   0.9858   age045_m62            0.0000     4.4287E-01    21.5262   3.1888    89.8220
 37      0.0000     0.0000E+00    0.0000E+00    5.010000E+06  0.02000  3.296E-02    0   0.9342   age055_m62            0.0000     4.3024E-01    20.5342   2.8115    93.6063
 38      0.4672     1.2778E-03    2.1694E-03    8.710000E+06  0.02000  1.154E-02    0   0.8861   age067_m62            0.0000     4.6662E-01    25.5528   1.4886   115.5601
 39      1.1715     4.8257E-03    7.8329E-03    1.445000E+07  0.02000  7.663E-03    0   0.8472   age078_m62            0.0000     4.2830E-01    22.8118   1.8011   108.7399
 40      0.0000     0.0000E+00    0.0000E+00    2.512000E+07  0.02000  4.532E-03    0   0.8099   age090_m62            0.0000     4.3387E-01    22.9000   1.7819   109.0275
 41      0.0000     0.0000E+00    0.0000E+00    5.500000E+07  0.02000  2.733E-03    0   0.7595   age110_m62            0.0000     4.1122E-01    21.0096   1.8846   104.5036
 42      0.0000     0.0000E+00    0.0000E+00    1.609000E+08  0.02000  1.369E-03    0   0.6985   age120_m62            0.0000     4.0713E-01    19.7655   1.7709   105.0527
 43      0.0000     0.0000E+00    0.0000E+00    2.861200E+08  0.02000  9.013E-04    0   0.6714   age125_m62            0.0000     4.0149E-01    19.0149   1.5448   106.8732
 44      0.0000     0.0000E+00    0.0000E+00    5.088000E+08  0.02000  5.028E-04    0   0.6449   age130_m62            0.0000     3.9474E-01    18.1353   1.2305   106.5721
 45      0.0000     0.0000E+00    0.0000E+00    9.047900E+08  0.02000  2.428E-04    0   0.6179   age135_m62            0.0000     3.7893E-01    17.9941   0.6767   104.4161
 46      0.0188     4.6942E-03    5.3135E-03    1.434000E+09  0.02000  1.263E-04    0   0.5908   age139_m62            0.0000     3.7236E-01    17.9824   0.2529   101.9314
 47      0.0000     0.0000E+00    0.0000E+00    2.500000E+09  0.02000  5.985E-05    0   0.5673   age150_m62            0.0000     3.7168E-01    17.5752  -0.0565    97.9880
 48      7.1482     6.8982E+00    7.2267E+00    4.250000E+09  0.02000  3.271E-05    0   0.5468   age158_m62            0.0000     3.7630E-01    17.1322  -0.3045    94.7098
 49      0.0000     0.0000E+00    0.0000E+00    1.000000E+10  0.02000  1.360E-05    0   0.5167   age181_m62            0.0000     3.8715E-01    16.8441  -0.5936    91.8669
 50      8.6910     3.8510E+01    3.6987E+01    1.800000E+10  0.02000  7.124E-06    0   0.5013   age213_m62            0.0000     3.9887E-01    16.7555  -0.7531    89.1081
 51      0.0000     0.0000E+00    0.0000E+00    1.000000E+06  0.05000  2.592E-02    0   0.9998   age020_m72            0.0000     4.4335E-01    21.7395   3.2358    89.3035
 52      0.0000     0.0000E+00    0.0000E+00    3.160000E+06  0.05000  4.845E-02    0   0.9577   age045_m72            0.0000     4.3943E-01    21.0702   3.0806    90.6576
 53      0.0000     0.0000E+00    0.0000E+00    5.010000E+06  0.05000  3.072E-02    0   0.9147   age055_m72            0.0000     4.3464E-01    22.3078   2.4501   101.5321
 54      0.0000     0.0000E+00    0.0000E+00    6.610000E+06  0.05000  1.455E-02    0   0.8877   age061_m72            0.0000     6.0428E-01    28.4745   1.4488   121.3793
 55      1.7139     5.9622E-03    9.7370E-03    1.000000E+07  0.05000  9.074E-03    0   0.8524   age070_m72            0.0000     4.8006E-01    22.8410   2.6223   101.7546
 56      5.1997     3.8620E-02    5.8470E-02    2.512000E+07  0.05000  4.250E-03    0   0.7902   age090_m72            0.0000     4.4936E-01    22.0645   2.3200   103.7795
 57      4.5055     4.6072E-02    6.7244E-02    4.000000E+07  0.05000  3.087E-03    0   0.7618   age104_m72            0.0000     4.5147E-01    22.0621   2.0746   106.3648
 58      0.0000     0.0000E+00    0.0000E+00    1.015200E+08  0.05000  1.700E-03    0   0.7096   age116_m72            0.0000     4.1605E-01    20.3433   1.8810   106.1616
 59      0.0000     0.0000E+00    0.0000E+00    2.861200E+08  0.05000  7.384E-04    0   0.6633   age125_m72            0.0000     3.9514E-01    18.5128   1.4420   106.8930
 60      0.0393     3.2491E-03    3.9665E-03    5.088000E+08  0.05000  3.819E-04    0   0.6372   age130_m72            0.0000     3.8244E-01    17.9214   1.0117   105.6185
 61     11.0732     2.0856E+00    2.4414E+00    9.047900E+08  0.05000  1.676E-04    0   0.6110   age135_m72            0.0000     3.7612E-01    17.5748   0.4014    99.8356
 62     10.4234     3.7233E+00    4.1902E+00    1.434000E+09  0.05000  8.837E-05    0   0.5874   age139_m72            0.0000     3.7173E-01    17.5191  -0.0526    99.2342
 63     21.0317     1.5684E+01    1.6821E+01    2.500000E+09  0.05000  4.233E-05    0   0.5598   age150_m72            0.0000     3.7965E-01    17.0436  -0.2865    94.7211
 64      6.4217     1.4126E+01    1.4206E+01    6.250000E+09  0.05000  1.435E-05    0   0.5249   age166_m72            0.0000     3.9279E-01    16.8510  -0.6718    90.7131
 65      0.0000     0.0000E+00    0.0000E+00    1.300000E+10  0.05000  6.513E-06    0   0.5036   age193_m72            0.0000     4.1064E-01    16.8499  -0.8905    89.0897
 66      2.6643     1.8578E+01    1.7601E+01    1.800000E+10  0.05000  4.527E-06    0   0.4945   age213_m72            0.0000     4.2451E-01    16.9321  -1.0000    86.8601


## Synthesis Results - Average & Chains ##

# j      x_j: min, <> & last-chain-values for 1 ...  7 chains
  1      3.4456      0.3898      2.1705      0.0000      0.0000      0.0000      0.0000      1.3348      1.2969
  2      0.0000      0.3746      0.2995      0.0000      0.0000      2.3806      0.0000      0.0000      1.1052
  3      0.0000      0.6930      0.0000      0.0000      0.0000      0.0000      0.0000      0.0000      0.0000
  4      0.0000      0.2929      0.0000      0.0000      0.0000      0.0000      0.0000      3.2588      0.0000
  5      0.0000      0.1998      0.0000      0.6115      0.0000      1.3756      0.0000      0.0000      0.0000
  6      0.0000      0.4127      0.0000      0.0000      0.0000      0.0000      0.0000      0.0000      0.0000
  7      0.0000      0.5531      0.0000      1.6294      1.1132      2.5761      0.9449      3.1302      0.0000
  8      0.0000      0.8032      0.0000      0.0000      5.2344      0.0000      0.7439      0.0000      0.0000
  9      0.0000      0.5713      0.0000      0.0000      0.7663      0.0000      0.0000      0.0000      0.0000
 10      0.0000      0.5207      0.5804      2.1776      0.0000      0.0000      0.0000      0.0000      0.0000
 11      0.0000      0.6929      0.0000      0.0000      0.0000      0.0000      3.0843      0.0000      0.0000
 12      0.0000      0.8913      0.1106      2.0342      1.3429      0.0000      0.0000      0.0000      0.9519
 13      0.0000      5.1376      0.0000      0.0000      1.4057      0.0000      0.0000      0.0000      1.5491
 14      0.0000      1.3472      0.0000      0.1352      0.0000      0.0000      2.3557      0.0000      0.0000
 15      0.0000      0.7541      0.0000      0.0000      0.0000      1.8275      0.0000      0.0000      0.0000
 16      0.0001      0.7536      1.1751      5.6742      0.0000      0.0000      0.0000      0.0000      3.5488
 17      0.0000      1.1059      0.0000      0.0000      0.0000      0.0000      0.3836      0.0000      0.0000
 18      0.0000      0.2385      0.0000      0.8763      1.3175      0.0000      0.1669      0.0000      0.0000
 19      0.0000      0.2837      0.0000      0.0000      0.0000      0.0000      0.0000      0.0000      0.0000
 20      0.0000      0.3714      0.1345      0.0000      2.1423      0.0000      0.0000      0.0000      0.0000
 21      6.0743      0.7181      1.0900      0.0000      1.9952      0.0000      2.4180      0.0000      0.0000
 22      1.7048      0.6576      0.9547      4.1468      0.0000      3.6428      0.0000      0.0000      0.0000
 23      0.9079      0.6353      3.0859      3.3132      0.8830      0.0000      3.0190      0.0000      0.0000
 24      0.0000      0.4909      0.0000      0.0000      1.3850      0.0000      1.0925      3.9701      0.0000
 25      1.6525      0.3384      0.6894      0.0000      0.0000      0.0000      0.0000      0.0000      0.0000
 26      1.9592      0.5532      0.7575      0.0000      0.0000      0.0000      0.0000      2.4553      0.0000
 27      4.8650      0.8773      2.6166      3.4678      0.0000      2.2420      0.0000      0.0000      1.6267
 28      0.0000      3.2627      0.0000      0.0000      0.0000      0.0000      4.5564      0.0000      0.0000
 29      0.0000      3.8734      0.0000      0.0000      1.8966      3.9362      5.4011      0.0000      7.9994
 30      0.0000      2.4558     14.3189      1.1996      0.0000      0.8274      0.0000      3.5470      0.0000
 31      0.0000      1.7629      3.8097      0.6904      1.4097      9.2924      0.0000      0.0000      0.0000
 32      0.0000      1.1114      0.0000      2.0754      4.5402      0.0000      0.0000      0.0000      2.2490
 33      0.0000      0.3995      0.0000      0.0000      2.5009      0.5809      0.0000      0.0000      0.0000
 34      0.0204      0.2213      2.6658      0.0000      0.0000      1.2136      1.0233      0.0000      0.6938
 35      0.0000      0.2114      0.0000      0.0000      1.0194      1.8645      2.0494      0.0000      0.0000
 36      2.1998      0.5303      6.2374      0.0000      0.0000      0.0000      1.0997      0.0000      0.0000
 37      0.0000      0.6346      0.0000      0.5523      0.0000      2.6964      0.0000      0.3006      2.9727
 38      0.4672      0.8424      3.3490      3.1276      0.8277      0.0000      3.7794      0.0000      0.0000
 39      1.1715      0.6053      0.8550      0.0000      0.0000      3.3890      0.0000      5.4566      0.0000
 40      0.0000      0.8899      0.1800      0.7893      3.1841      0.0000      0.0000      0.0000      0.0000
 41      0.0000      1.0463      0.0000      4.5168      0.0000      0.0000      0.3648      0.0000      1.9401
 42      0.0000      0.7987      0.0000      0.0000      0.4239      0.0000      0.0000      0.0334      0.0000
 43      0.0000      0.5036      0.0000      0.0000      1.9513      4.0505      0.0000      0.0000      0.0000
 44      0.0000      0.5678      0.0000      0.0000      0.0000      0.0000      0.0000      0.0000      0.0000
 45      0.0000      4.1064      0.0000      4.1338      0.0000      0.0000      0.0000      0.0000      8.0676
 46      0.0188      9.7164      5.9909      0.4620      2.9533      9.5281      1.1506      6.7723      0.0000
