###################################################################
## OUTPUT of StarlightChains_v04.for    [Cid@UFSC - 01/Apr/2007] ##
###################################################################

## Some input info
2003gd.txt                               [arq_obs]
Base.CB07.vall.4m                        [arq_base]
Masks.EmLines.NEW.gm                     [arq_masks]
StCv04.C11.config                        [arq_config]
   66                                    [N_base]
    0                                    [N_YAV_components = # of components with extra extinction!]
    0                                    [i_FitPowerLaw (1/0 = Yes/No)]
-9.99                                    [alpha_PowerLaw]
CCM                                      [red_law_option]
 1.458241                                [q_norm = A(l_norm)/A(V)]

## (Re)Sampling Parameters
 3741.00                                 [l_ini (A)]
 7218.00                                 [l_fin (A)]
    1.00                                 [dl    (A)]     (OBS: dl_cushion =    50.00 A)

## Normalization info
 4020.00                                 [l_norm (A) - for base]
 4010.00                                 [llow_norm (A) - window for f_obs]
 4060.00                                 [lupp_norm (A) - window for f_obs]
1.244862E-16                             [fobs_norm (in input units)]

## S/N
 3691.00                                 [llow_SN (A) - window for S/N]
 7268.00                                 [lupp_SN (A) - window for S/N]
   4.578                                 [S/N in S/N window]
   6.320                                 [S/N in norm. window]
  10.000                                 [S/N_err in S/N window]
  13.806                                 [S/N_err in norm. window]
  1.0000                                 [fscale_chi2]

## etc...
    -2007277                             [idum_orig]
  2405                                   [NOl_eff]
  2302                                   [Nl_eff]
   103    NSIGMA                         [Ntot_cliped & clip_method]
  1049790                                [Nglobal_steps]
   7                                     [N_chains]
  18                                     [NEX0s_base = N_base in EX0s-fits]
 0   0   1       64   2.0   2.261E+01    [Clip-Bug, RC-Crash & Burn-In warning-flags, n_censored_weights, wei_nsig_threshold & wei_limit]
    15     15.269     14.764      0.505  [idt_all, wdt_TotTime, wdt_UsrTime & wdt_SysTime (sec)]

## Synthesis Results - Best model ##

 1.40416E+00                             [chi2/Nl_eff]
     9.63426                             [adev (%)]

   100.63496                             [sum-of-x (%)]
 2.21307E-16                             [Flux_tot (units of input spectrum!)]
 4.03083E-13                             [Mini_tot (???)]
 2.50927E-13                             [Mcor_tot (???)]

-249.21                                  [v0_min  (km/s)]
 485.38                                  [vd_min  (km/s)]
 0.4237                                  [AV_min  (mag)]
 0.0000                                  [YAV_min (mag)]

# j     x_j(%)      Mini_j(%)     Mcor_j(%)     age_j(yr)     Z_j      (L/M)_j    YAV?  Mstars   component_j        a/Fe...       SSP_chi2r SSP_adev(%)   SSP_AV   SSP_x(%)
  1      0.0000     0.0000E+00    0.0000E+00    1.000000E+06  0.00400  1.094E-02    0   1.0000   age020_m42            0.0000     1.6264E+00    10.2761   2.2528    86.4797
  2     15.9531     2.1721E-01    3.4889E-01    3.160000E+06  0.00400  4.007E-02    0   0.9999   age045_m42            0.0000     1.4862E+00     9.8632   1.5086    93.1609
  3      0.0000     0.0000E+00    0.0000E+00    5.010000E+06  0.00400  2.539E-02    0   0.9488   age055_m42            0.0000     1.5230E+00     9.9949   1.8367    90.5570
  4      0.0000     0.0000E+00    0.0000E+00    6.610000E+06  0.00400  2.620E-02    0   0.9220   age061_m42            0.0000     1.4794E+00     9.8477   1.4338    93.4078
  5      0.0000     0.0000E+00    0.0000E+00    1.000000E+07  0.00400  1.322E-02    0   0.8862   age070_m42            0.0000     1.4713E+00     9.8235   1.1605    94.9179
  6      0.0000     0.0000E+00    0.0000E+00    1.445000E+07  0.00400  7.883E-03    0   0.8571   age078_m42            0.0000     1.4900E+00     9.8836   1.4917    92.3690
  7      0.0000     0.0000E+00    0.0000E+00    2.512000E+07  0.00400  5.251E-03    0   0.8174   age090_m42            0.0000     1.4830E+00     9.8559   1.0304    95.4246
  8      0.0000     0.0000E+00    0.0000E+00    4.000000E+07  0.00400  3.649E-03    0   0.7851   age104_m42            0.0000     1.4672E+00     9.8055   0.7969    96.4778
  9      0.0000     0.0000E+00    0.0000E+00    5.500000E+07  0.00400  3.098E-03    0   0.7629   age110_m42            0.0000     1.4719E+00     9.7924   0.9451    96.7916
 10      0.0000     0.0000E+00    0.0000E+00    1.015200E+08  0.00400  2.228E-03    0   0.7207   age116_m42            0.0000     1.5035E+00     9.8474   0.9606    97.2135
 11      0.0000     0.0000E+00    0.0000E+00    2.861200E+08  0.00400  1.093E-03    0   0.6648   age125_m42            0.0000     1.4843E+00     9.7674   0.3880   100.2513
 12      3.4137     2.8231E+00    2.8865E+00    5.088000E+08  0.00400  6.597E-04    0   0.6365   age130_m42            0.0000     1.5534E+00     9.9114   0.3703   101.4844
 13      0.0000     0.0000E+00    0.0000E+00    1.434000E+09  0.00400  2.132E-04    0   0.5798   age139_m42            0.0000     1.6149E+00    10.2042  -0.6099   103.7961
 14      0.0000     0.0000E+00    0.0000E+00    4.250000E+09  0.00400  5.895E-05    0   0.5377   age158_m42            0.0000     1.6541E+00    10.3514  -1.0000    98.0776
 15      0.0306     4.7515E-01    3.9782E-01    7.500000E+09  0.00400  3.510E-05    0   0.5212   age171_m42            0.0000     1.9814E+00    11.1458  -1.0000    90.8829
 16      0.0000     0.0000E+00    0.0000E+00    1.300000E+10  0.00400  2.005E-05    0   0.5034   age193_m42            0.0000     2.5045E+00    12.3057  -1.0000    84.7290
 17      0.0000     0.0000E+00    0.0000E+00    1.800000E+10  0.00400  1.525E-05    0   0.4967   age213_m42            0.0000     2.5592E+00    12.4541  -1.0000    83.5558
 18      0.0000     0.0000E+00    0.0000E+00    1.000000E+06  0.00800  1.238E-02    0   1.0000   age020_m52            0.0000     1.6272E+00    10.2830   2.2491    86.6486
 19      0.0000     0.0000E+00    0.0000E+00    3.160000E+06  0.00800  3.074E-02    0   0.9966   age045_m52            0.0000     1.6179E+00    10.2672   2.1706    87.4803
 20      0.0000     0.0000E+00    0.0000E+00    5.010000E+06  0.00800  2.668E-02    0   0.9443   age055_m52            0.0000     1.5454E+00    10.0634   1.9225    89.6076
 21      4.1140     1.0508E-01    1.5490E-01    6.610000E+06  0.00800  2.136E-02    0   0.9177   age061_m52            0.0000     1.4594E+00     9.8183   0.6586    96.0462
 22      0.0000     0.0000E+00    0.0000E+00    1.000000E+07  0.00800  1.215E-02    0   0.8827   age070_m52            0.0000     1.4914E+00     9.8774   1.3452    94.4678
 23      0.0000     0.0000E+00    0.0000E+00    1.445000E+07  0.00800  8.717E-03    0   0.8552   age078_m52            0.0000     1.4829E+00     9.8643   1.4561    93.6914
 24      0.0000     0.0000E+00    0.0000E+00    2.512000E+07  0.00800  5.592E-03    0   0.8162   age090_m52            0.0000     1.4811E+00     9.8443   1.0930    96.6111
 25      0.0000     0.0000E+00    0.0000E+00    4.000000E+07  0.00800  3.896E-03    0   0.7841   age104_m52            0.0000     1.4594E+00     9.7700   1.0007    97.6037
 26      0.0000     0.0000E+00    0.0000E+00    1.015200E+08  0.00800  2.148E-03    0   0.7226   age116_m52            0.0000     1.4656E+00     9.7710   0.9304    97.8703
 27      0.0000     0.0000E+00    0.0000E+00    2.861200E+08  0.00800  9.925E-04    0   0.6683   age125_m52            0.0000     1.5760E+00     9.9862   0.4341   102.4633
 28      7.9206     1.3758E+01    1.3565E+01    9.047900E+08  0.00800  3.141E-04    0   0.6138   age135_m52            0.0000     1.7051E+00    10.3941  -0.3793   107.4207
 29      0.0000     0.0000E+00    0.0000E+00    1.434000E+09  0.00800  1.719E-04    0   0.5853   age139_m52            0.0000     1.6403E+00    10.2911  -0.9574   105.0861
 30      0.0000     0.0000E+00    0.0000E+00    2.500000E+09  0.00800  7.872E-05    0   0.5600   age150_m52            0.0000     2.0117E+00    11.1923  -1.0000    94.1956
 31      0.0000     0.0000E+00    0.0000E+00    4.250000E+09  0.00800  4.336E-05    0   0.5426   age158_m52            0.0000     2.0560E+00    11.2798  -1.0000    92.7729
 32      0.0000     0.0000E+00    0.0000E+00    6.250000E+09  0.00800  3.159E-05    0   0.5319   age166_m52            0.0000     2.7909E+00    12.8569  -1.0000    85.6669
 33      0.0000     0.0000E+00    0.0000E+00    1.300000E+10  0.00800  1.361E-05    0   0.5073   age193_m52            0.0000     5.2610E+00    17.5108  -1.0000    69.5250
 34      0.0000     0.0000E+00    0.0000E+00    1.800000E+10  0.00800  9.886E-06    0   0.4990   age213_m52            0.0000     6.0842E+00    18.6961  -1.0000    65.8851
 35      2.5083     8.8633E-02    1.4238E-01    1.000000E+06  0.02000  1.544E-02    0   1.0000   age020_m62            0.0000     1.6326E+00    10.3022   2.2455    86.8353
 36      0.0000     0.0000E+00    0.0000E+00    3.160000E+06  0.02000  3.762E-02    0   0.9858   age045_m62            0.0000     1.6321E+00    10.3111   2.1833    87.6344
 37      0.0000     0.0000E+00    0.0000E+00    5.010000E+06  0.02000  3.296E-02    0   0.9342   age055_m62            0.0000     1.5175E+00     9.9850   1.7915    91.9025
 38      0.0000     0.0000E+00    0.0000E+00    8.710000E+06  0.02000  1.154E-02    0   0.8861   age067_m62            0.0000     1.9019E+00    10.9919   0.8158    95.9310
 39      0.0000     0.0000E+00    0.0000E+00    1.445000E+07  0.02000  7.663E-03    0   0.8472   age078_m62            0.0000     1.5377E+00     9.9964   0.9951    96.3886
 40      0.0000     0.0000E+00    0.0000E+00    2.512000E+07  0.02000  4.532E-03    0   0.8099   age090_m62            0.0000     1.5552E+00    10.0529   0.9866    96.1500
 41      0.0000     0.0000E+00    0.0000E+00    5.500000E+07  0.02000  2.733E-03    0   0.7595   age110_m62            0.0000     1.4607E+00     9.7935   0.9838    96.8701
 42      0.0000     0.0000E+00    0.0000E+00    1.609000E+08  0.02000  1.369E-03    0   0.6985   age120_m62            0.0000     1.5299E+00     9.9064   0.8062   100.3372
 43      0.0000     0.0000E+00    0.0000E+00    2.861200E+08  0.02000  9.013E-04    0   0.6714   age125_m62            0.0000     1.6621E+00    10.1730   0.5448   103.7236
 44      0.0000     0.0000E+00    0.0000E+00    5.088000E+08  0.02000  5.028E-04    0   0.6449   age130_m62            0.0000     1.7953E+00    10.4858   0.1557   107.0649
 45     36.0643     8.1037E+01    8.0435E+01    9.047900E+08  0.02000  2.428E-04    0   0.6179   age135_m62            0.0000     1.7496E+00    10.5386  -0.4368   106.7041
 46      0.0000     0.0000E+00    0.0000E+00    1.434000E+09  0.02000  1.263E-04    0   0.5908   age139_m62            0.0000     1.7839E+00    10.6909  -0.8828   105.1947
 47      0.0000     0.0000E+00    0.0000E+00    2.500000E+09  0.02000  5.985E-05    0   0.5673   age150_m62            0.0000     2.2257E+00    11.6593  -1.0000    94.7217
 48      0.0000     0.0000E+00    0.0000E+00    4.250000E+09  0.02000  3.271E-05    0   0.5468   age158_m62            0.0000     3.4560E+00    14.1812  -1.0000    83.1026
 49      0.0000     0.0000E+00    0.0000E+00    1.000000E+10  0.02000  1.360E-05    0   0.5167   age181_m62            0.0000     5.5296E+00    17.6604  -1.0000    71.1281
 50      0.0000     0.0000E+00    0.0000E+00    1.800000E+10  0.02000  7.124E-06    0   0.5013   age213_m62            0.0000     7.0266E+00    19.7909  -1.0000    64.1189
 51      0.0000     0.0000E+00    0.0000E+00    1.000000E+06  0.05000  2.592E-02    0   0.9998   age020_m72            0.0000     1.6524E+00    10.3597   2.2387    86.7799
 52      0.0093     1.0456E-04    1.6086E-04    3.160000E+06  0.05000  4.845E-02    0   0.9577   age045_m72            0.0000     1.5849E+00    10.1918   2.0605    89.0449
 53      5.5849     9.9185E-02    1.4574E-01    5.010000E+06  0.05000  3.072E-02    0   0.9147   age055_m72            0.0000     1.4987E+00     9.8783   1.5854    92.7291
 54      4.7772     1.7913E-01    2.5543E-01    6.610000E+06  0.05000  1.455E-02    0   0.8877   age061_m72            0.0000     2.2640E+00    11.8863   0.8728    96.4213
 55     20.2590     1.2181E+00    1.6679E+00    1.000000E+07  0.05000  9.074E-03    0   0.8524   age070_m72            0.0000     1.5416E+00     9.9800   1.7717    92.4534
 56      0.0000     0.0000E+00    0.0000E+00    2.512000E+07  0.05000  4.250E-03    0   0.7902   age090_m72            0.0000     1.4726E+00     9.8045   1.4603    94.5810
 57      0.0000     0.0000E+00    0.0000E+00    4.000000E+07  0.05000  3.087E-03    0   0.7618   age104_m72            0.0000     1.4880E+00     9.8302   1.2283    96.3023
 58      0.0000     0.0000E+00    0.0000E+00    1.015200E+08  0.05000  1.700E-03    0   0.7096   age116_m72            0.0000     1.5111E+00     9.8664   0.9527    99.7267
 59      0.0000     0.0000E+00    0.0000E+00    2.861200E+08  0.05000  7.384E-04    0   0.6633   age125_m72            0.0000     1.7377E+00    10.3524   0.4065   105.4708
 60      0.0000     0.0000E+00    0.0000E+00    5.088000E+08  0.05000  3.819E-04    0   0.6372   age130_m72            0.0000     1.7851E+00    10.5780  -0.0976   107.7241
 61      0.0000     0.0000E+00    0.0000E+00    9.047900E+08  0.05000  1.676E-04    0   0.6110   age135_m72            0.0000     1.9570E+00    11.1381  -0.8007   106.1887
 62      0.0000     0.0000E+00    0.0000E+00    1.434000E+09  0.05000  8.837E-05    0   0.5874   age139_m72            0.0000     2.3237E+00    11.8973  -1.0000    96.0906
 63      0.0000     0.0000E+00    0.0000E+00    2.500000E+09  0.05000  4.233E-05    0   0.5598   age150_m72            0.0000     3.5770E+00    14.3799  -1.0000    83.8201
 64      0.0000     0.0000E+00    0.0000E+00    6.250000E+09  0.05000  1.435E-05    0   0.5249   age166_m72            0.0000     6.1606E+00    18.6838  -1.0000    67.7980
 65      0.0000     0.0000E+00    0.0000E+00    1.300000E+10  0.05000  6.513E-06    0   0.5036   age193_m72            0.0000     8.2191E+00    21.4746  -1.0000    60.0607
 66      0.0000     0.0000E+00    0.0000E+00    1.800000E+10  0.05000  4.527E-06    0   0.4945   age213_m72            0.0000     9.4622E+00    23.0210  -1.0000    55.4877


## Synthesis Results - Average & Chains ##

# j      x_j: min, <> & last-chain-values for 1 ...  7 chains
  1      0.0000      0.6320      1.9832      0.0000      0.6042      0.0000      2.2618      0.0000      0.0000
  2     15.9531      0.7523      0.0000      1.6832      2.4564      0.0000      0.0000      0.0000      0.0000
  3      0.0000      1.2293      4.9505      2.2865      3.1200      0.3031      0.3661      0.9034      0.2261
  4      0.0000      1.3293      0.0000      2.1961      7.1540      0.0000      3.4064      0.0000      0.0000
  5      0.0000      0.6453      2.2311      0.6031      0.0000      0.0000      0.0000      0.2023      0.0000
  6      0.0000      0.6239      0.5644      0.5012      0.0338      0.0000      0.0000      0.0000      0.0799
  7      0.0000      0.7005      0.0000      0.0000      0.0000      0.0000      0.0000      0.0000      0.0000
  8      0.0000      1.0554      0.7926      0.0000      1.0792      0.6229      0.0000      0.0000      0.0000
  9      0.0000      0.5843      0.9656      0.0000      0.0000      0.0000      1.1696      0.0000      0.0000
 10      0.0000      0.5132      0.0000      0.0000      0.0000      0.0000      0.0000      1.7915      0.0000
 11      0.0000      4.6774      8.0610      0.0000      4.6286      5.5184      1.4835      9.9302      0.7750
 12      3.4137     11.1360     13.0536     16.8121     14.0829     11.5875     22.3947      9.8690     23.9694
 13      0.0000      0.1247      0.0000      0.0000      0.0000      0.0000      0.0000      0.0000      0.0000
 14      0.0000      0.2188      0.0000      0.0000      0.0000      0.0000      0.0000      0.0000      0.0000
 15      0.0306      0.0633      0.6913      0.0000      0.9757      0.0000      0.0000      0.4051      0.0000
 16      0.0000      0.0114      0.0000      0.0000      0.0000      0.0000      0.0000      0.0000      0.0000
 17      0.0000      0.0625      0.0000      0.0000      0.0000      0.0000      0.0000      0.0000      0.2702
 18      0.0000      0.5423      0.0000      2.2569      0.0000      0.0000      0.0000      0.0000      3.1417
 19      0.0000      0.5149      0.0000      0.0000      0.0000      2.5803      2.1186      0.0000      1.4759
 20      0.0000      0.6366      0.1409      3.1195      5.5523      0.0000      0.0000      2.0032      0.7446
 21      4.1140     26.6856     24.6518     26.3821     19.5079     27.0342     31.5573     35.4077     24.4903
 22      0.0000      0.4018      0.0000      0.0000      0.0000      3.7367      0.0000      0.0000      0.0000
 23      0.0000      0.4680      0.0000      0.4508      0.0000      0.0000      0.0000      0.0000      0.0000
 24      0.0000      0.3294      0.0000      0.0000      0.0000      0.0000      0.2857      0.0000      0.0000
 25      0.0000      0.7420      0.0000      0.0000      0.0000      0.0000      0.0000      0.0000      0.0000
 26      0.0000      1.0533      0.0000      0.0000      0.0000      0.0000      0.0000      0.0000      0.5267
 27      0.0000      1.7760      0.0000      3.2491      0.0000      0.0000      1.3196      0.0000      0.2558
 28      7.9206      2.2828      0.8833      3.5625      1.1684      2.5451      2.5724      4.9870      2.5407
 29      0.0000      0.5356      0.0000      0.0000      0.0000      0.2782      0.4270      0.2470      0.0000
 30      0.0000      0.1513      0.0000      0.0000      0.0000      0.0691      0.0000      0.0000      0.6490
 31      0.0000      0.0587      0.0000      0.0000      0.0000      0.0652      0.0000      0.0000      0.3193
 32      0.0000      0.0357      0.0000      0.0000      0.0000      0.0000      0.0000      0.0000      0.0000
 33      0.0000      0.0320      0.0000      0.0000      0.0000      0.0000      0.0000      0.0000      0.0000
 34      0.0000      0.0183      0.0000      0.0000      0.0000      0.0000      0.0000      0.0000      0.0000
 35      2.5083      0.2779      0.0000      0.0000      1.7922      0.0000      0.0000      0.2770      1.5228
 36      0.0000      1.4922      1.0151      0.7702      0.0000      0.0000      2.9657      2.2788      2.1211
 37      0.0000      0.3968      0.0000      0.0000      0.0000      3.2656      0.0000      0.1945      1.3919
 38      0.0000      0.1916      0.6552      0.0000      0.0000      0.0000      0.0000      0.0000      0.0000
 39      0.0000      0.9733      3.5516      0.0000      0.3111      0.0000      0.0000      3.9875      2.9294
 40      0.0000      0.7698      0.0000      0.0000      0.0000      0.0000      0.0000      0.0000      0.0000
 41      0.0000      0.5700      0.0000      0.0838      0.0000      0.0000      0.0000      0.3604      0.0000
 42      0.0000      0.5305      0.0000      0.0000      0.0000      0.0000      0.0000      0.1158      1.3028
 43      0.0000      0.5854      0.0000      0.0000      0.0000      0.0000      0.0000      0.0000      0.0000
 44      0.0000      2.6698      0.0000      0.0000      0.0000      0.0000      0.4261      0.0000      0.0000
 45     36.0643      6.4405     10.9623      9.0535     12.9346      8.5068      5.5860      6.4149      5.6864
 46      0.0000      0.2374      0.0000      0.0435      0.0000      0.0000      0.0000      0.0000      0.2498
