###################################################################
## OUTPUT of StarlightChains_v04.for    [Cid@UFSC - 01/Apr/2007] ##
###################################################################

## Some input info
2003G.txt                                [arq_obs]
Base.CB07.vall.4m                        [arq_base]
Masks.EmLines.NEW.gm                     [arq_masks]
StCv04.C11.config                        [arq_config]
   66                                    [N_base]
    0                                    [N_YAV_components = # of components with extra extinction!]
    0                                    [i_FitPowerLaw (1/0 = Yes/No)]
-9.99                                    [alpha_PowerLaw]
CCM                                      [red_law_option]
 1.458241                                [q_norm = A(l_norm)/A(V)]

## (Re)Sampling Parameters
 3741.00                                 [l_ini (A)]
 7218.00                                 [l_fin (A)]
    1.00                                 [dl    (A)]     (OBS: dl_cushion =    50.00 A)

## Normalization info
 4020.00                                 [l_norm (A) - for base]
 4010.00                                 [llow_norm (A) - window for f_obs]
 4060.00                                 [lupp_norm (A) - window for f_obs]
1.306685E-16                             [fobs_norm (in input units)]

## S/N
 3691.00                                 [llow_SN (A) - window for S/N]
 7268.00                                 [lupp_SN (A) - window for S/N]
   6.578                                 [S/N in S/N window]
   7.004                                 [S/N in norm. window]
  11.768                                 [S/N_err in S/N window]
  12.530                                 [S/N_err in norm. window]
  1.0000                                 [fscale_chi2]

## etc...
    -2007276                             [idum_orig]
  2383                                   [NOl_eff]
  2339                                   [Nl_eff]
    44    NSIGMA                         [Ntot_cliped & clip_method]
   997150                                [Nglobal_steps]
   7                                     [N_chains]
  16                                     [NEX0s_base = N_base in EX0s-fits]
 0   0   1       37   2.0   2.294E+01    [Clip-Bug, RC-Crash & Burn-In warning-flags, n_censored_weights, wei_nsig_threshold & wei_limit]
    11     11.658     11.162      0.496  [idt_all, wdt_TotTime, wdt_UsrTime & wdt_SysTime (sec)]

## Synthesis Results - Best model ##

 5.42373E-01                             [chi2/Nl_eff]
     4.75712                             [adev (%)]

    98.94370                             [sum-of-x (%)]
 1.23853E-16                             [Flux_tot (units of input spectrum!)]
 2.96509E-12                             [Mini_tot (???)]
 1.56813E-12                             [Mcor_tot (???)]

 -78.54                                  [v0_min  (km/s)]
 175.56                                  [vd_min  (km/s)]
-0.0320                                  [AV_min  (mag)]
 0.0000                                  [YAV_min (mag)]

# j     x_j(%)      Mini_j(%)     Mcor_j(%)     age_j(yr)     Z_j      (L/M)_j    YAV?  Mstars   component_j        a/Fe...       SSP_chi2r SSP_adev(%)   SSP_AV   SSP_x(%)
  1      0.0000     0.0000E+00    0.0000E+00    1.000000E+06  0.00400  1.094E-02    0   1.0000   age020_m42            0.0000     1.8058E+00     8.7389   3.3710    75.1506
  2      0.0000     0.0000E+00    0.0000E+00    3.160000E+06  0.00400  4.007E-02    0   0.9999   age045_m42            0.0000     1.4027E+00     7.6630   2.5927    82.4919
  3      0.0000     0.0000E+00    0.0000E+00    5.010000E+06  0.00400  2.539E-02    0   0.9488   age055_m42            0.0000     1.5684E+00     8.1146   2.9357    79.5239
  4      0.0000     0.0000E+00    0.0000E+00    6.610000E+06  0.00400  2.620E-02    0   0.9220   age061_m42            0.0000     1.4113E+00     7.6231   2.5145    82.8418
  5      0.0000     0.0000E+00    0.0000E+00    1.000000E+07  0.00400  1.322E-02    0   0.8862   age070_m42            0.0000     1.6715E+00     8.3733   2.2254    84.6618
  6      0.0000     0.0000E+00    0.0000E+00    1.445000E+07  0.00400  7.883E-03    0   0.8571   age078_m42            0.0000     1.7447E+00     8.5983   2.5670    81.9333
  7      0.0000     0.0000E+00    0.0000E+00    2.512000E+07  0.00400  5.251E-03    0   0.8174   age090_m42            0.0000     1.7110E+00     8.4776   2.0879    85.4040
  8      0.0000     0.0000E+00    0.0000E+00    4.000000E+07  0.00400  3.649E-03    0   0.7851   age104_m42            0.0000     1.5842E+00     8.1277   1.8499    86.6094
  9      0.0000     0.0000E+00    0.0000E+00    5.500000E+07  0.00400  3.098E-03    0   0.7629   age110_m42            0.0000     1.4272E+00     7.5847   2.0007    86.8771
 10      0.0000     0.0000E+00    0.0000E+00    1.015200E+08  0.00400  2.228E-03    0   0.7207   age116_m42            0.0000     1.3535E+00     7.2910   2.0171    87.2902
 11      0.0000     0.0000E+00    0.0000E+00    2.861200E+08  0.00400  1.093E-03    0   0.6648   age125_m42            0.0000     1.3610E+00     7.3858   1.4228    90.9509
 12      1.3764     8.8079E-02    1.0600E-01    5.088000E+08  0.00400  6.597E-04    0   0.6365   age130_m42            0.0000     1.1638E+00     6.7778   1.4036    92.2768
 13      7.7556     1.5357E+00    1.6836E+00    1.434000E+09  0.00400  2.132E-04    0   0.5798   age139_m42            0.0000     7.7669E-01     5.6050   0.4028    95.6069
 14      0.0000     0.0000E+00    0.0000E+00    4.250000E+09  0.00400  5.895E-05    0   0.5377   age158_m42            0.0000     6.5873E-01     5.2231  -0.0219    91.3997
 15      0.0000     0.0000E+00    0.0000E+00    7.500000E+09  0.00400  3.510E-05    0   0.5212   age171_m42            0.0000     6.5427E-01     5.2066  -0.2099    90.9029
 16      0.0000     0.0000E+00    0.0000E+00    1.300000E+10  0.00400  2.005E-05    0   0.5034   age193_m42            0.0000     6.7802E-01     5.2955  -0.3734    90.4324
 17      0.0000     0.0000E+00    0.0000E+00    1.800000E+10  0.00400  1.525E-05    0   0.4967   age213_m42            0.0000     6.8873E-01     5.3042  -0.3956    89.9625
 18      0.0000     0.0000E+00    0.0000E+00    1.000000E+06  0.00800  1.238E-02    0   1.0000   age020_m52            0.0000     1.8040E+00     8.7323   3.3673    75.2979
 19      0.0000     0.0000E+00    0.0000E+00    3.160000E+06  0.00800  3.074E-02    0   0.9966   age045_m52            0.0000     1.7596E+00     8.6239   3.2874    76.1021
 20      0.0000     0.0000E+00    0.0000E+00    5.010000E+06  0.00800  2.668E-02    0   0.9443   age055_m52            0.0000     1.6201E+00     8.2434   3.0232    78.5946
 21      0.0000     0.0000E+00    0.0000E+00    6.610000E+06  0.00800  2.136E-02    0   0.9177   age061_m52            0.0000     1.4871E+00     7.9914   1.7229    85.7750
 22      0.0000     0.0000E+00    0.0000E+00    1.000000E+07  0.00800  1.215E-02    0   0.8827   age070_m52            0.0000     1.8333E+00     8.8591   2.4081    84.2362
 23      0.0000     0.0000E+00    0.0000E+00    1.445000E+07  0.00800  8.717E-03    0   0.8552   age078_m52            0.0000     1.7044E+00     8.4788   2.5255    83.3389
 24      0.0000     0.0000E+00    0.0000E+00    2.512000E+07  0.00800  5.592E-03    0   0.8162   age090_m52            0.0000     1.7019E+00     8.4435   2.1455    86.6670
 25      0.0000     0.0000E+00    0.0000E+00    4.000000E+07  0.00800  3.896E-03    0   0.7841   age104_m52            0.0000     1.5540E+00     8.0118   2.0473    87.8862
 26      0.0000     0.0000E+00    0.0000E+00    1.015200E+08  0.00800  2.148E-03    0   0.7226   age116_m52            0.0000     1.3518E+00     7.3859   1.9792    88.1709
 27      0.0000     0.0000E+00    0.0000E+00    2.861200E+08  0.00800  9.925E-04    0   0.6683   age125_m52            0.0000     1.1514E+00     6.6673   1.4662    93.2522
 28     18.2688     2.4554E+00    2.8497E+00    9.047900E+08  0.00800  3.141E-04    0   0.6138   age135_m52            0.0000     6.8194E-01     5.3198   0.6202    99.7070
 29      0.0000     0.0000E+00    0.0000E+00    1.434000E+09  0.00800  1.719E-04    0   0.5853   age139_m52            0.0000     6.4414E-01     5.1493   0.0518    97.1155
 30      0.0000     0.0000E+00    0.0000E+00    2.500000E+09  0.00800  7.872E-05    0   0.5600   age150_m52            0.0000     5.9826E-01     5.0166  -0.2054    94.2234
 31      0.0000     0.0000E+00    0.0000E+00    4.250000E+09  0.00800  4.336E-05    0   0.5426   age158_m52            0.0000     6.2948E-01     5.1337  -0.2178    93.2192
 32      0.0000     0.0000E+00    0.0000E+00    6.250000E+09  0.00800  3.159E-05    0   0.5319   age166_m52            0.0000     6.5908E-01     5.2448  -0.4248    93.5693
 33      0.0000     0.0000E+00    0.0000E+00    1.300000E+10  0.00800  1.361E-05    0   0.5073   age193_m52            0.0000     7.6233E-01     5.5497  -0.8990    93.3936
 34      0.0000     0.0000E+00    0.0000E+00    1.800000E+10  0.00800  9.886E-06    0   0.4990   age213_m52            0.0000     8.8984E-01     5.9809  -1.0000    92.8033
 35      0.0000     0.0000E+00    0.0000E+00    1.000000E+06  0.02000  1.544E-02    0   1.0000   age020_m62            0.0000     1.8158E+00     8.7672   3.3651    75.4078
 36      0.0000     0.0000E+00    0.0000E+00    3.160000E+06  0.02000  3.762E-02    0   0.9858   age045_m62            0.0000     1.7916E+00     8.7149   3.3030    76.1230
 37      0.0000     0.0000E+00    0.0000E+00    5.010000E+06  0.02000  3.296E-02    0   0.9342   age055_m62            0.0000     1.4798E+00     7.8122   2.8877    80.8633
 38      0.0000     0.0000E+00    0.0000E+00    8.710000E+06  0.02000  1.154E-02    0   0.8861   age067_m62            0.0000     3.1013E+00    11.9509   1.8567    86.0589
 39      0.0000     0.0000E+00    0.0000E+00    1.445000E+07  0.02000  7.663E-03    0   0.8472   age078_m62            0.0000     2.0689E+00     9.5549   2.0436    86.4542
 40      0.0000     0.0000E+00    0.0000E+00    2.512000E+07  0.02000  4.532E-03    0   0.8099   age090_m62            0.0000     2.1531E+00     9.7139   2.0317    86.3630
 41      0.0000     0.0000E+00    0.0000E+00    5.500000E+07  0.02000  2.733E-03    0   0.7595   age110_m62            0.0000     1.5855E+00     8.0726   2.0363    86.9637
 42      0.0000     0.0000E+00    0.0000E+00    1.609000E+08  0.02000  1.369E-03    0   0.6985   age120_m62            0.0000     1.3460E+00     7.1645   1.8522    90.5707
 43      0.0000     0.0000E+00    0.0000E+00    2.861200E+08  0.02000  9.013E-04    0   0.6714   age125_m62            0.0000     1.2016E+00     6.6525   1.5781    94.3617
 44      6.6457     5.5799E-01    6.8041E-01    5.088000E+08  0.02000  5.028E-04    0   0.6449   age130_m62            0.0000     8.5736E-01     5.7701   1.1698    98.5967
 45     22.5662     3.9237E+00    4.5842E+00    9.047900E+08  0.02000  2.428E-04    0   0.6179   age135_m62            0.0000     5.9306E-01     4.9474   0.5722    98.7330
 46      0.0000     0.0000E+00    0.0000E+00    1.434000E+09  0.02000  1.263E-04    0   0.5908   age139_m62            0.0000     5.8786E-01     4.9101   0.1346    97.0294
 47      0.0000     0.0000E+00    0.0000E+00    2.500000E+09  0.02000  5.985E-05    0   0.5673   age150_m62            0.0000     6.3702E-01     5.1494  -0.2254    95.5920
 48      0.0000     0.0000E+00    0.0000E+00    4.250000E+09  0.02000  3.271E-05    0   0.5468   age158_m62            0.0000     7.4427E-01     5.5499  -0.5344    95.1438
 49      7.3965     2.2960E+01    2.2432E+01    1.000000E+10  0.02000  1.360E-05    0   0.5167   age181_m62            0.0000     9.9476E-01     6.3823  -0.8943    95.5084
 50      4.4694     2.6485E+01    2.5105E+01    1.800000E+10  0.02000  7.124E-06    0   0.5013   age213_m62            0.0000     1.3014E+00     7.1006  -1.0000    90.7885
 51      0.0000     0.0000E+00    0.0000E+00    1.000000E+06  0.05000  2.592E-02    0   0.9998   age020_m72            0.0000     1.8687E+00     8.8973   3.3600    75.2798
 52      0.0000     0.0000E+00    0.0000E+00    3.160000E+06  0.05000  4.845E-02    0   0.9577   age045_m72            0.0000     1.6520E+00     8.3294   3.1723    77.7011
 53      0.0000     0.0000E+00    0.0000E+00    5.010000E+06  0.05000  3.072E-02    0   0.9147   age055_m72            0.0000     1.9541E+00     9.2482   2.6570    82.2859
 54      0.0000     0.0000E+00    0.0000E+00    6.610000E+06  0.05000  1.455E-02    0   0.8877   age061_m72            0.0000     4.3456E+00    14.2888   1.9010    86.7833
 55      0.0000     0.0000E+00    0.0000E+00    1.000000E+07  0.05000  9.074E-03    0   0.8524   age070_m72            0.0000     2.1798E+00     9.7223   2.8434    82.0700
 56      0.0000     0.0000E+00    0.0000E+00    2.512000E+07  0.05000  4.250E-03    0   0.7902   age090_m72            0.0000     1.9272E+00     9.0637   2.5159    84.6379
 57      0.0000     0.0000E+00    0.0000E+00    4.000000E+07  0.05000  3.087E-03    0   0.7618   age104_m72            0.0000     1.9614E+00     9.0857   2.2742    86.5646
 58      0.0000     0.0000E+00    0.0000E+00    1.015200E+08  0.05000  1.700E-03    0   0.7096   age116_m72            0.0000     1.4925E+00     7.6397   1.9979    89.9528
 59      0.0000     0.0000E+00    0.0000E+00    2.861200E+08  0.05000  7.384E-04    0   0.6633   age125_m72            0.0000     1.0255E+00     6.0885   1.4279    96.6420
 60      1.1632     1.2858E-01    1.5492E-01    5.088000E+08  0.05000  3.819E-04    0   0.6372   age130_m72            0.0000     6.8292E-01     5.1526   0.9149    99.4386
 61     10.0830     2.5398E+00    2.9342E+00    9.047900E+08  0.05000  1.676E-04    0   0.6110   age135_m72            0.0000     6.0716E-01     5.0524   0.2226    97.8081
 62      0.9720     4.6433E-01    5.1572E-01    1.434000E+09  0.05000  8.837E-05    0   0.5874   age139_m72            0.0000     6.4900E-01     5.1469  -0.2363    97.5139
 63      8.8202     8.7965E+00    9.3111E+00    2.500000E+09  0.05000  4.233E-05    0   0.5598   age150_m72            0.0000     8.0129E-01     5.7239  -0.5407    96.2881
 64      9.0613     2.6657E+01    2.6458E+01    6.250000E+09  0.05000  1.435E-05    0   0.5249   age166_m72            0.0000     1.0630E+00     6.6211  -0.9919    95.1914
 65      0.0000     0.0000E+00    0.0000E+00    1.300000E+10  0.05000  6.513E-06    0   0.5036   age193_m72            0.0000     1.7364E+00     8.1020  -1.0000    85.5426
 66      0.3654     3.4074E+00    3.1860E+00    1.800000E+10  0.05000  4.527E-06    0   0.4945   age213_m72            0.0000     2.4103E+00     9.6058  -1.0000    79.4801


## Synthesis Results - Average & Chains ##

# j      x_j: min, <> & last-chain-values for 1 ...  7 chains
  1      0.0000      0.0322      0.0000      0.0000      0.0000      0.0000      0.0000      0.0000      0.0000
  2      0.0000      0.0560      0.0000      0.0497      0.0000      0.0000      0.0000      0.0000      0.0000
  3      0.0000      0.1706      0.0000      0.0000      0.0000      0.0000      0.0000      0.8013      0.1560
  4      0.0000      0.1023      0.0000      0.0000      0.0000      0.1786      0.0000      0.0000      0.9650
  5      0.0000      0.0733      0.0000      0.0000      0.0000      0.0000      0.0000      0.0000      0.0000
  6      0.0000      0.0794      0.0000      0.0000      0.2168      0.0290      0.0000      0.0000      0.0000
  7      0.0000      0.0657      0.0000      0.0000      0.0000      0.0000      0.0000      0.0073      0.0000
  8      0.0000      0.1128      0.0008      0.0000      0.0000      0.0431      0.0000      0.0000      0.0000
  9      0.0000      0.1008      0.0000      0.6648      0.0000      0.0000      0.0000      0.0000      0.0000
 10      0.0000      0.0776      0.0000      0.0000      0.0000      0.1628      0.0000      0.0000      0.0000
 11      0.0000      0.2290      1.5017      0.0000      0.0000      0.0000      0.0000      0.0000      0.0000
 12      1.3764      0.6788      0.6106      1.1360      0.9517      2.6145      0.0970      0.9167      1.5728
 13      7.7556      4.1744      2.2290      0.5206      0.0000      6.8814     10.6460      8.5449      4.0829
 14      0.0000      0.5091      0.0000      0.0000      0.0000      2.2941      0.3257      0.0000      0.0244
 15      0.0000      0.5497      2.1649      0.0000      0.0000      0.0000      0.0000      0.0000      0.0000
 16      0.0000      0.4096      0.0000      0.0000      0.0000      0.1124      1.3334      0.1718      0.0000
 17      0.0000      0.2442      1.6345      0.0000      0.0000      0.3439      1.0288      0.8925      0.0000
 18      0.0000      0.0163      0.0000      0.0000      0.0000      0.0618      0.0000      0.0000      0.0000
 19      0.0000      0.0376      0.0000      0.0000      0.0000      0.0000      0.0000      0.0000      0.0000
 20      0.0000      0.0833      0.0000      0.0000      0.2370      0.0000      0.0000      0.0000      0.0479
 21      0.0000      0.0818      0.0000      0.0000      0.0000      0.0000      0.0000      0.4020      0.0000
 22      0.0000      0.0479      0.0000      0.0000      0.0000      0.0000      0.0000      0.0000      0.0000
 23      0.0000      0.0585      0.0000      0.0000      0.0000      0.0000      0.0000      0.0000      0.0000
 24      0.0000      0.0574      0.0000      0.0000      0.0000      0.0000      0.0000      0.0000      0.0000
 25      0.0000      0.1134      0.6052      0.0000      0.0000      0.0839      0.3416      0.0000      0.0000
 26      0.0000      0.1535      0.0000      0.0000      0.0000      0.0000      0.0000      0.0000      0.3180
 27      0.0000      0.3551      0.0000      1.1860      0.0000      0.0000      1.4274      0.0000      0.0000
 28     18.2688      7.6713      9.2194     13.0769      8.0935      7.3796      8.4045      8.1701     11.4446
 29      0.0000      1.2487      0.0000      0.0000      0.2937      0.2128      0.0000      0.0000      0.0000
 30      0.0000      0.6329      0.1537      0.0000      0.1480      0.3731      0.0000      1.1865      0.0600
 31      0.0000      0.5347      0.0000      2.6666      1.5538      0.0000      0.0000      0.0000      0.0000
 32      0.0000      0.5919      0.0000      0.0000      0.2289      0.0000      1.2177      0.0000      0.6234
 33      0.0000      0.2967      0.0000      0.6879      0.0000      0.0000      0.0000      0.0000      0.0000
 34      0.0000      0.2318      0.0000      0.0000      0.0000      0.0000      1.2806      0.0000      0.0000
 35      0.0000      0.0250      0.0000      0.1875      0.0000      0.0000      0.0000      0.0000      0.3499
 36      0.0000      0.0419      0.0000      0.0000      0.0000      0.0000      0.0000      0.0000      0.0000
 37      0.0000      0.0738      0.0000      0.0000      0.0000      0.0000      0.0000      0.0000      0.0661
 38      0.0000      0.0644      0.0000      0.0000      0.0000      0.0000      0.0000      0.0000      0.0000
 39      0.0000      0.0774      0.0000      0.0000      0.0000      0.0000      0.0000      0.0000      0.0000
 40      0.0000      0.0484      0.0000      0.0000      0.0000      0.0269      0.0000      0.0000      0.0000
 41      0.0000      0.1195      0.0000      0.0000      0.0000      0.0000      0.0000      0.0000      0.0000
 42      0.0000      0.3722      0.0000      0.0000      0.0076      1.0953      0.0000      0.0000      0.2234
 43      0.0000      0.3053      0.0000      0.8406      1.0208      0.0000      0.0950      0.0000      0.0000
 44      6.6457      3.9640      4.4496      6.8333      6.9740      5.1192      3.2426      3.0046      4.9198
 45     22.5662     16.2324     18.6441     15.7220     23.6463     13.3691     16.1990     18.0927     22.4980
 46      0.0000      2.6594      3.0725      0.0000      1.7707      1.9114      2.7378      0.4598      0.0000
