###################################################################
## OUTPUT of StarlightChains_v04.for    [Cid@UFSC - 01/Apr/2007] ##
###################################################################

## Some input info
2003lq.txt                               [arq_obs]
Base.CB07.vall.4m                        [arq_base]
Masks.EmLines.NEW.gm                     [arq_masks]
StCv04.C11.config                        [arq_config]
   66                                    [N_base]
    0                                    [N_YAV_components = # of components with extra extinction!]
    0                                    [i_FitPowerLaw (1/0 = Yes/No)]
-9.99                                    [alpha_PowerLaw]
CCM                                      [red_law_option]
 1.458241                                [q_norm = A(l_norm)/A(V)]

## (Re)Sampling Parameters
 3741.00                                 [l_ini (A)]
 7218.00                                 [l_fin (A)]
    1.00                                 [dl    (A)]     (OBS: dl_cushion =    50.00 A)

## Normalization info
 4020.00                                 [l_norm (A) - for base]
 4010.00                                 [llow_norm (A) - window for f_obs]
 4060.00                                 [lupp_norm (A) - window for f_obs]
3.904536E-17                             [fobs_norm (in input units)]

## S/N
 3691.00                                 [llow_SN (A) - window for S/N]
 7268.00                                 [lupp_SN (A) - window for S/N]
   7.419                                 [S/N in S/N window]
   7.484                                 [S/N in norm. window]
  10.000                                 [S/N_err in S/N window]
  10.088                                 [S/N_err in norm. window]
  1.0000                                 [fscale_chi2]

## etc...
    -2007284                             [idum_orig]
  2376                                   [NOl_eff]
  2373                                   [Nl_eff]
     3    NSIGMA                         [Ntot_cliped & clip_method]
   924840                                [Nglobal_steps]
   7                                     [N_chains]
  15                                     [NEX0s_base = N_base in EX0s-fits]
 0   0   1       90   2.0   1.425E+01    [Clip-Bug, RC-Crash & Burn-In warning-flags, n_censored_weights, wei_nsig_threshold & wei_limit]
    13     12.379     11.881      0.497  [idt_all, wdt_TotTime, wdt_UsrTime & wdt_SysTime (sec)]

## Synthesis Results - Best model ##

 3.96784E-01                             [chi2/Nl_eff]
     5.07284                             [adev (%)]

   110.82921                             [sum-of-x (%)]
 5.41839E-17                             [Flux_tot (units of input spectrum!)]
 3.94957E-13                             [Mini_tot (???)]
 2.25772E-13                             [Mcor_tot (???)]

-116.59                                  [v0_min  (km/s)]
 189.80                                  [vd_min  (km/s)]
 0.1674                                  [AV_min  (mag)]
 0.0000                                  [YAV_min (mag)]

# j     x_j(%)      Mini_j(%)     Mcor_j(%)     age_j(yr)     Z_j      (L/M)_j    YAV?  Mstars   component_j        a/Fe...       SSP_chi2r SSP_adev(%)   SSP_AV   SSP_x(%)
  1      0.0000     0.0000E+00    0.0000E+00    1.000000E+06  0.00400  1.094E-02    0   1.0000   age020_m42            0.0000     1.1207E+00     7.8988   3.0894    89.2280
  2      0.0000     0.0000E+00    0.0000E+00    3.160000E+06  0.00400  4.007E-02    0   0.9999   age045_m42            0.0000     7.6578E-01     6.6937   2.3200    97.2902
  3      0.0000     0.0000E+00    0.0000E+00    5.010000E+06  0.00400  2.539E-02    0   0.9488   age055_m42            0.0000     9.0514E-01     7.1842   2.6584    94.0746
  4      0.0000     0.0000E+00    0.0000E+00    6.610000E+06  0.00400  2.620E-02    0   0.9220   age061_m42            0.0000     7.7292E-01     6.6975   2.2423    97.6193
  5      0.0000     0.0000E+00    0.0000E+00    1.000000E+07  0.00400  1.322E-02    0   0.8862   age070_m42            0.0000     9.6575E-01     7.5696   1.9668    98.9903
  6      0.0000     0.0000E+00    0.0000E+00    1.445000E+07  0.00400  7.883E-03    0   0.8571   age078_m42            0.0000     1.0308E+00     7.8103   2.3053    96.0123
  7      0.0000     0.0000E+00    0.0000E+00    2.512000E+07  0.00400  5.251E-03    0   0.8174   age090_m42            0.0000     9.8711E-01     7.7074   1.8353    99.5564
  8      0.0000     0.0000E+00    0.0000E+00    4.000000E+07  0.00400  3.649E-03    0   0.7851   age104_m42            0.0000     8.9769E-01     7.3614   1.5987   100.8760
  9     14.0895     5.6296E-01    7.5132E-01    5.500000E+07  0.00400  3.098E-03    0   0.7629   age110_m42            0.0000     7.9238E-01     6.8237   1.7421   101.5297
 10      0.0000     0.0000E+00    0.0000E+00    1.015200E+08  0.00400  2.228E-03    0   0.7207   age116_m42            0.0000     7.4624E-01     6.5420   1.7548   102.1922
 11      0.0000     0.0000E+00    0.0000E+00    2.861200E+08  0.00400  1.093E-03    0   0.6648   age125_m42            0.0000     7.9178E-01     6.8314   1.1715   105.7446
 12      0.0000     0.0000E+00    0.0000E+00    5.088000E+08  0.00400  6.597E-04    0   0.6365   age130_m42            0.0000     6.9128E-01     6.3237   1.1501   107.4475
 13      5.9791     3.4715E+00    3.5211E+00    1.434000E+09  0.00400  2.132E-04    0   0.5798   age139_m42            0.0000     4.7589E-01     5.5322   0.1657   110.5039
 14     26.1619     5.4935E+01    5.1674E+01    4.250000E+09  0.00400  5.895E-05    0   0.5377   age158_m42            0.0000     4.2849E-01     5.2620  -0.2636   106.0046
 15      0.0000     0.0000E+00    0.0000E+00    7.500000E+09  0.00400  3.510E-05    0   0.5212   age171_m42            0.0000     4.8030E-01     5.4607  -0.4535   105.4974
 16      0.0000     0.0000E+00    0.0000E+00    1.300000E+10  0.00400  2.005E-05    0   0.5034   age193_m42            0.0000     5.5742E-01     5.7427  -0.6195   105.0557
 17      0.0000     0.0000E+00    0.0000E+00    1.800000E+10  0.00400  1.525E-05    0   0.4967   age213_m42            0.0000     5.5270E-01     5.7211  -0.6405   104.4783
 18      0.0000     0.0000E+00    0.0000E+00    1.000000E+06  0.00800  1.238E-02    0   1.0000   age020_m52            0.0000     1.1208E+00     7.8946   3.0853    89.4148
 19      0.0000     0.0000E+00    0.0000E+00    3.160000E+06  0.00800  3.074E-02    0   0.9966   age045_m52            0.0000     1.0733E+00     7.7451   3.0060    90.3453
 20      0.0000     0.0000E+00    0.0000E+00    5.010000E+06  0.00800  2.668E-02    0   0.9443   age055_m52            0.0000     9.4825E-01     7.3511   2.7466    92.9792
 21      0.0000     0.0000E+00    0.0000E+00    6.610000E+06  0.00800  2.136E-02    0   0.9177   age061_m52            0.0000     8.7135E-01     7.2246   1.4694   100.1387
 22      0.0000     0.0000E+00    0.0000E+00    1.000000E+07  0.00800  1.215E-02    0   0.8827   age070_m52            0.0000     1.0928E+00     8.1246   2.1537    98.2867
 23      0.0000     0.0000E+00    0.0000E+00    1.445000E+07  0.00800  8.717E-03    0   0.8552   age078_m52            0.0000     9.9839E-01     7.6812   2.2669    97.5119
 24      0.0000     0.0000E+00    0.0000E+00    2.512000E+07  0.00800  5.592E-03    0   0.8162   age090_m52            0.0000     9.8598E-01     7.7129   1.8965   100.8336
 25      0.0000     0.0000E+00    0.0000E+00    4.000000E+07  0.00800  3.896E-03    0   0.7841   age104_m52            0.0000     8.8821E-01     7.3022   1.7974   102.2263
 26      0.0000     0.0000E+00    0.0000E+00    1.015200E+08  0.00800  2.148E-03    0   0.7226   age116_m52            0.0000     7.4768E-01     6.6447   1.7238   102.8422
 27      0.0000     0.0000E+00    0.0000E+00    2.861200E+08  0.00800  9.925E-04    0   0.6683   age125_m52            0.0000     6.8245E-01     6.2802   1.2127   108.5288
 28      0.0000     0.0000E+00    0.0000E+00    9.047900E+08  0.00800  3.141E-04    0   0.6138   age135_m52            0.0000     4.9347E-01     5.5360   0.3867   114.8368
 29      0.0000     0.0000E+00    0.0000E+00    1.434000E+09  0.00800  1.719E-04    0   0.5853   age139_m52            0.0000     4.5848E-01     5.4873  -0.1792   111.8606
 30      0.0000     0.0000E+00    0.0000E+00    2.500000E+09  0.00800  7.872E-05    0   0.5600   age150_m52            0.0000     4.6608E-01     5.4715  -0.4467   109.1484
 31      0.0000     0.0000E+00    0.0000E+00    4.250000E+09  0.00800  4.336E-05    0   0.5426   age158_m52            0.0000     4.9778E-01     5.5636  -0.4593   108.0005
 32      0.0000     0.0000E+00    0.0000E+00    6.250000E+09  0.00800  3.159E-05    0   0.5319   age166_m52            0.0000     5.9172E-01     5.9096  -0.6687   108.5167
 33      0.0000     0.0000E+00    0.0000E+00    1.300000E+10  0.00800  1.361E-05    0   0.5073   age193_m52            0.0000     8.7255E-01     6.8005  -1.0000   102.7009
 34      0.0000     0.0000E+00    0.0000E+00    1.800000E+10  0.00800  9.886E-06    0   0.4990   age213_m52            0.0000     1.2243E+00     7.8735  -1.0000    98.1763
 35      0.0000     0.0000E+00    0.0000E+00    1.000000E+06  0.02000  1.544E-02    0   1.0000   age020_m62            0.0000     1.1308E+00     7.9268   3.0824    89.5801
 36      0.0000     0.0000E+00    0.0000E+00    3.160000E+06  0.02000  3.762E-02    0   0.9858   age045_m62            0.0000     1.1080E+00     7.8722   3.0203    90.4305
 37      0.0000     0.0000E+00    0.0000E+00    5.010000E+06  0.02000  3.296E-02    0   0.9342   age055_m62            0.0000     8.2663E-01     6.8567   2.6091    95.6985
 38      0.0000     0.0000E+00    0.0000E+00    8.710000E+06  0.02000  1.154E-02    0   0.8861   age067_m62            0.0000     1.9882E+00    11.6252   1.6283    99.0098
 39      0.0000     0.0000E+00    0.0000E+00    1.445000E+07  0.02000  7.663E-03    0   0.8472   age078_m62            0.0000     1.2743E+00     8.9948   1.8011   100.2108
 40      0.0000     0.0000E+00    0.0000E+00    2.512000E+07  0.02000  4.532E-03    0   0.8099   age090_m62            0.0000     1.3201E+00     9.1669   1.7909    99.9824
 41      0.0000     0.0000E+00    0.0000E+00    5.500000E+07  0.02000  2.733E-03    0   0.7595   age110_m62            0.0000     9.0815E-01     7.3544   1.7850   101.2772
 42      0.0000     0.0000E+00    0.0000E+00    1.609000E+08  0.02000  1.369E-03    0   0.6985   age120_m62            0.0000     7.6506E-01     6.5553   1.5950   105.6858
 43      0.0000     0.0000E+00    0.0000E+00    2.861200E+08  0.02000  9.013E-04    0   0.6714   age125_m62            0.0000     7.2365E-01     6.3480   1.3237   109.9144
 44     13.5595     3.3382E+00    3.7660E+00    5.088000E+08  0.02000  5.028E-04    0   0.6449   age130_m62            0.0000     5.8759E-01     5.8772   0.9226   114.3972
 45      0.0000     0.0000E+00    0.0000E+00    9.047900E+08  0.02000  2.428E-04    0   0.6179   age135_m62            0.0000     4.3960E-01     5.2905   0.3355   113.9811
 46      0.0000     0.0000E+00    0.0000E+00    1.434000E+09  0.02000  1.263E-04    0   0.5908   age139_m62            0.0000     4.5500E-01     5.3954  -0.1015   112.0575
 47      0.0000     0.0000E+00    0.0000E+00    2.500000E+09  0.02000  5.985E-05    0   0.5673   age150_m62            0.0000     5.5564E-01     5.7776  -0.4676   110.7671
 48      0.0000     0.0000E+00    0.0000E+00    4.250000E+09  0.02000  3.271E-05    0   0.5468   age158_m62            0.0000     7.4529E-01     6.5021  -0.7797   110.4209
 49      0.0000     0.0000E+00    0.0000E+00    1.000000E+10  0.02000  1.360E-05    0   0.5167   age181_m62            0.0000     1.1766E+00     7.7273  -1.0000   105.1455
 50      0.0000     0.0000E+00    0.0000E+00    1.800000E+10  0.02000  7.124E-06    0   0.5013   age213_m62            0.0000     1.8811E+00     9.5721  -1.0000    96.2140
 51      0.0000     0.0000E+00    0.0000E+00    1.000000E+06  0.05000  2.592E-02    0   0.9998   age020_m72            0.0000     1.1744E+00     8.0707   3.0788    89.3978
 52      0.0000     0.0000E+00    0.0000E+00    3.160000E+06  0.05000  4.845E-02    0   0.9577   age045_m72            0.0000     9.7706E-01     7.4242   2.8900    92.2297
 53      0.0000     0.0000E+00    0.0000E+00    5.010000E+06  0.05000  3.072E-02    0   0.9147   age055_m72            0.0000     1.2307E+00     8.5932   2.3985    96.1780
 54      0.0000     0.0000E+00    0.0000E+00    6.610000E+06  0.05000  1.455E-02    0   0.8877   age061_m72            0.0000     2.8436E+00    14.2242   1.6749    99.3055
 55      0.0000     0.0000E+00    0.0000E+00    1.000000E+07  0.05000  9.074E-03    0   0.8524   age070_m72            0.0000     1.4000E+00     9.1008   2.5794    95.9439
 56      0.0000     0.0000E+00    0.0000E+00    2.512000E+07  0.05000  4.250E-03    0   0.7902   age090_m72            0.0000     1.1799E+00     8.3994   2.2601    98.6051
 57      0.0000     0.0000E+00    0.0000E+00    4.000000E+07  0.05000  3.087E-03    0   0.7618   age104_m72            0.0000     1.1813E+00     8.4403   2.0235   100.5933
 58      0.0000     0.0000E+00    0.0000E+00    1.015200E+08  0.05000  1.700E-03    0   0.7096   age116_m72            0.0000     8.5243E-01     6.9694   1.7426   104.8416
 59      0.0069     1.1595E-03    1.3454E-03    2.861200E+08  0.05000  7.384E-04    0   0.6633   age125_m72            0.0000     6.6124E-01     6.1063   1.1794   112.2128
 60      0.0000     0.0000E+00    0.0000E+00    5.088000E+08  0.05000  3.819E-04    0   0.6372   age130_m72            0.0000     4.8156E-01     5.3974   0.6750   115.0128
 61     51.0324     3.7691E+01    4.0286E+01    9.047900E+08  0.05000  1.676E-04    0   0.6110   age135_m72            0.0000     4.9847E-01     5.5460  -0.0176   113.2264
 62      0.0000     0.0000E+00    0.0000E+00    1.434000E+09  0.05000  8.837E-05    0   0.5874   age139_m72            0.0000     6.0362E-01     5.9491  -0.4738   112.7101
 63      0.0000     0.0000E+00    0.0000E+00    2.500000E+09  0.05000  4.233E-05    0   0.5598   age150_m72            0.0000     8.2172E-01     6.7645  -0.7852   111.6876
 64      0.0000     0.0000E+00    0.0000E+00    6.250000E+09  0.05000  1.435E-05    0   0.5249   age166_m72            0.0000     1.3923E+00     8.3788  -1.0000   100.9592
 65      0.0000     0.0000E+00    0.0000E+00    1.300000E+10  0.05000  6.513E-06    0   0.5036   age193_m72            0.0000     2.5705E+00    11.2873  -1.0000    91.0615
 66      0.0000     0.0000E+00    0.0000E+00    1.800000E+10  0.05000  4.527E-06    0   0.4945   age213_m72            0.0000     3.4586E+00    13.0980  -1.0000    84.8584


## Synthesis Results - Average & Chains ##

# j      x_j: min, <> & last-chain-values for 1 ...  7 chains
  1      0.0000      0.1468      0.0000      0.0000      0.0000      0.0000      0.0000      0.0000      0.0810
  2      0.0000      0.3596      0.7485      0.0000      0.0000      2.0378      0.0000      1.0914      0.0000
  3      0.0000      0.2542      0.0000      0.0000      0.0000      0.0000      0.0000      0.5828      1.6011
  4      0.0000      0.1276      0.0000      0.0000      0.0000      0.0000      0.0000      0.0000      0.0000
  5      0.0000      0.3789      0.0000      0.6333      0.0000      0.1018      0.0000      1.3913      0.0000
  6      0.0000      0.2548      0.0000      0.0000      0.0000      0.8928      0.0000      0.0000      0.0000
  7      0.0000      0.8416      0.0000      2.7214      3.1083      0.0000      2.4616      0.8389      0.3267
  8      0.0000      0.5609      2.0330      0.0000      0.0000      0.0000      0.0000      1.1968      0.1787
  9     14.0895      0.6898      3.7184      3.2374      0.0000      0.0000      0.3002      0.0000      2.2265
 10      0.0000      0.3788      1.9042      0.1312      0.0000      0.0000      0.0000      0.0000      0.0000
 11      0.0000      0.4905      0.0000      0.0000      0.0000      0.1275      0.1668      0.0000      0.0000
 12      0.0000      0.7968      1.4702      0.0000      0.1443      2.5701      3.9779      0.0000      0.2031
 13      5.9791     18.2537     16.5202     16.1786     20.0159     14.8339     20.4743     26.2980     17.0645
 14     26.1619      8.2726      8.7942      8.0457     12.8144      8.8657      8.1837      6.0861     12.4522
 15      0.0000      0.9137      4.8565      1.1551      0.0000      0.0000      0.4981      2.0245      0.0000
 16      0.0000      0.1426      0.0000      0.0000      0.4136      0.0000      1.1823      0.0000      0.0000
 17      0.0000      0.2867      0.0000      0.1194      0.0000      0.0411      0.0000      0.0000      1.3480
 18      0.0000      0.0951      0.3230      0.0000      0.8488      0.0000      0.0000      0.0000      0.0000
 19      0.0000      0.1134      0.0000      0.0000      0.0000      0.0000      0.4761      0.0000      0.0000
 20      0.0000      0.2703      0.4706      0.0000      0.0000      0.0000      0.0000      0.6701      1.9184
 21      0.0000      0.5569      0.0000      0.0000      0.0000      2.0689      0.0000      3.3471      0.7467
 22      0.0000      0.3881      0.4938      0.0000      2.0102      0.0000      0.0000      0.0000      0.0000
 23      0.0000      0.1902      0.0336      0.9569      0.0000      0.0000      1.5399      0.3149      0.0000
 24      0.0000      0.2324      0.0000      0.0000      0.0000      1.4186      0.0000      0.0000      1.3322
 25      0.0000      0.2752      0.0000      0.0000      0.5929      0.0000      1.4244      0.0000      0.0000
 26      0.0000      0.9844      3.6011      2.2246      0.0000      0.0000      3.4209      0.0000      0.0000
 27      0.0000      0.5949      0.0000      0.0000      0.0000      0.7950      0.3325      0.0000      0.0000
 28      0.0000      1.6377      0.0000      0.0000      0.0000      0.0000      0.0000      1.0903      0.0000
 29      0.0000      0.5793      0.0000      0.0000      0.0000      0.0000      0.0000      0.0000      0.0000
 30      0.0000      0.8626      0.0000      0.0000      0.0000      0.1621      0.0000      0.0000      0.0000
 31      0.0000      0.7887      0.0000      0.4274      0.0000      0.0000      0.0000      0.0000      0.0000
 32      0.0000      0.4492      2.3406      0.0000      0.0000      0.0000      0.0000      0.0000      0.0000
 33      0.0000      0.1085      0.0000      0.0000      0.0000      0.0000      0.0000      0.0000      0.0000
 34      0.0000      0.0799      0.0000      0.0000      0.0000      0.0000      0.0000      0.0000      1.0604
 35      0.0000      0.1360      1.0990      0.0000      0.0000      0.0000      0.0000      0.0000      0.0000
 36      0.0000      0.1919      0.0000      0.0000      0.0000      0.0000      0.0000      0.0000      0.0000
 37      0.0000      0.2816      0.0000      0.0000      0.0000      0.0000      0.0000      0.0000      1.0558
 38      0.0000      0.1830      0.0000      1.6773      0.0000      0.0000      0.0000      0.0000      0.1147
 39      0.0000      0.1701      0.0000      0.0000      0.0000      1.8112      0.0000      0.0000      0.1248
 40      0.0000      0.3407      0.0000      0.0000      0.3573      0.0000      0.0000      0.0000      0.0000
 41      0.0000      0.5217      0.0000      0.0000      0.0000      1.1143      0.9558      0.0000      0.0000
 42      0.0000      0.2567      0.0000      0.0000      0.0000      0.0000      0.0000      0.3580      0.0000
 43      0.0000      1.2678      0.0000      0.0000      0.1401      1.8755      0.0000      2.0774      0.0000
 44     13.5595      2.3998      4.9333      2.5134      6.3389      2.4547      1.2667      2.0180     10.8073
 45      0.0000      4.0730      0.0000      2.6594      0.0000      4.1557      0.0000      2.9033      0.0000
 46      0.0000      2.7175      0.0000      1.8454      1.8254      1.2854      0.0000      4.4578      0.0000
