###################################################################
## OUTPUT of StarlightChains_v04.for    [Cid@UFSC - 01/Apr/2007] ##
###################################################################

## Some input info
2003ki.txt                               [arq_obs]
Base.CB07.vall.4m                        [arq_base]
Masks.EmLines.NEW.gm                     [arq_masks]
StCv04.C11.config                        [arq_config]
   66                                    [N_base]
    0                                    [N_YAV_components = # of components with extra extinction!]
    0                                    [i_FitPowerLaw (1/0 = Yes/No)]
-9.99                                    [alpha_PowerLaw]
CCM                                      [red_law_option]
 1.458241                                [q_norm = A(l_norm)/A(V)]

## (Re)Sampling Parameters
 3741.00                                 [l_ini (A)]
 7218.00                                 [l_fin (A)]
    1.00                                 [dl    (A)]     (OBS: dl_cushion =    50.00 A)

## Normalization info
 4020.00                                 [l_norm (A) - for base]
 4010.00                                 [llow_norm (A) - window for f_obs]
 4060.00                                 [lupp_norm (A) - window for f_obs]
2.551100E-17                             [fobs_norm (in input units)]

## S/N
 3691.00                                 [llow_SN (A) - window for S/N]
 7268.00                                 [lupp_SN (A) - window for S/N]
   3.189                                 [S/N in S/N window]
   4.317                                 [S/N in norm. window]
  10.000                                 [S/N_err in S/N window]
  13.540                                 [S/N_err in norm. window]
  1.0000                                 [fscale_chi2]

## etc...
    -2007282                             [idum_orig]
  2368                                   [NOl_eff]
  2119                                   [Nl_eff]
   249    NSIGMA                         [Ntot_cliped & clip_method]
   675570                                [Nglobal_steps]
   7                                     [N_chains]
  12                                     [NEX0s_base = N_base in EX0s-fits]
 0   0   1        6   2.0   3.521E+01    [Clip-Bug, RC-Crash & Burn-In warning-flags, n_censored_weights, wei_nsig_threshold & wei_limit]
    10     10.684     10.188      0.496  [idt_all, wdt_TotTime, wdt_UsrTime & wdt_SysTime (sec)]

## Synthesis Results - Best model ##

 1.77455E+00                             [chi2/Nl_eff]
    10.89291                             [adev (%)]

   101.02469                             [sum-of-x (%)]
 3.58511E-17                             [Flux_tot (units of input spectrum!)]
 6.64935E-14                             [Mini_tot (???)]
 4.28161E-14                             [Mcor_tot (???)]

 140.29                                  [v0_min  (km/s)]
 357.91                                  [vd_min  (km/s)]
 0.2458                                  [AV_min  (mag)]
 0.0000                                  [YAV_min (mag)]

# j     x_j(%)      Mini_j(%)     Mcor_j(%)     age_j(yr)     Z_j      (L/M)_j    YAV?  Mstars   component_j        a/Fe...       SSP_chi2r SSP_adev(%)   SSP_AV   SSP_x(%)
  1      0.0000     0.0000E+00    0.0000E+00    1.000000E+06  0.00400  1.094E-02    0   1.0000   age020_m42            0.0000     2.2722E+00    11.9255   2.3104    82.7136
  2      0.0000     0.0000E+00    0.0000E+00    3.160000E+06  0.00400  4.007E-02    0   0.9999   age045_m42            0.0000     1.9830E+00    11.3807   1.5608    89.4590
  3      0.0000     0.0000E+00    0.0000E+00    5.010000E+06  0.00400  2.539E-02    0   0.9488   age055_m42            0.0000     2.0896E+00    11.5730   1.8906    86.8387
  4      0.0000     0.0000E+00    0.0000E+00    6.610000E+06  0.00400  2.620E-02    0   0.9220   age061_m42            0.0000     1.9591E+00    11.3252   1.4818    89.8741
  5      0.0000     0.0000E+00    0.0000E+00    1.000000E+07  0.00400  1.322E-02    0   0.8862   age070_m42            0.0000     2.0154E+00    11.4541   1.1916    92.0054
  6      0.0000     0.0000E+00    0.0000E+00    1.445000E+07  0.00400  7.883E-03    0   0.8571   age078_m42            0.0000     2.0848E+00    11.5851   1.5270    89.3055
  7      0.0000     0.0000E+00    0.0000E+00    2.512000E+07  0.00400  5.251E-03    0   0.8174   age090_m42            0.0000     2.0146E+00    11.4608   1.0583    92.6542
  8     18.3091     2.6779E+00    3.2650E+00    4.000000E+07  0.00400  3.649E-03    0   0.7851   age104_m42            0.0000     1.9606E+00    11.3401   0.8263    93.6703
  9      0.0000     0.0000E+00    0.0000E+00    5.500000E+07  0.00400  3.098E-03    0   0.7629   age110_m42            0.0000     1.8905E+00    11.1907   0.9784    93.8009
 10      0.3705     8.8752E-02    9.9335E-02    1.015200E+08  0.00400  2.228E-03    0   0.7207   age116_m42            0.0000     1.8561E+00    11.1188   0.9971    94.1063
 11      0.0000     0.0000E+00    0.0000E+00    2.861200E+08  0.00400  1.093E-03    0   0.6648   age125_m42            0.0000     1.8791E+00    11.2344   0.4153    97.4716
 12      0.0000     0.0000E+00    0.0000E+00    5.088000E+08  0.00400  6.597E-04    0   0.6365   age130_m42            0.0000     1.8310E+00    11.0956   0.4053    98.4049
 13      0.0000     0.0000E+00    0.0000E+00    1.434000E+09  0.00400  2.132E-04    0   0.5798   age139_m42            0.0000     1.7936E+00    10.9375  -0.5613   100.3571
 14      0.0000     0.0000E+00    0.0000E+00    4.250000E+09  0.00400  5.895E-05    0   0.5377   age158_m42            0.0000     1.9590E+00    11.2757  -0.9806    95.6753
 15      0.0000     0.0000E+00    0.0000E+00    7.500000E+09  0.00400  3.510E-05    0   0.5212   age171_m42            0.0000     2.1485E+00    11.6605  -1.0000    88.9587
 16      0.0000     0.0000E+00    0.0000E+00    1.300000E+10  0.00400  2.005E-05    0   0.5034   age193_m42            0.0000     2.5266E+00    12.3730  -1.0000    82.6805
 17      0.0000     0.0000E+00    0.0000E+00    1.800000E+10  0.00400  1.525E-05    0   0.4967   age213_m42            0.0000     2.5729E+00    12.4785  -1.0000    81.5201
 18      0.0000     0.0000E+00    0.0000E+00    1.000000E+06  0.00800  1.238E-02    0   1.0000   age020_m52            0.0000     2.2724E+00    11.9236   2.3067    82.8765
 19      0.0000     0.0000E+00    0.0000E+00    3.160000E+06  0.00800  3.074E-02    0   0.9966   age045_m52            0.0000     2.2486E+00    11.8675   2.2299    83.6333
 20      0.0000     0.0000E+00    0.0000E+00    5.010000E+06  0.00800  2.668E-02    0   0.9443   age055_m52            0.0000     2.1283E+00    11.6388   1.9764    85.9148
 21      0.0000     0.0000E+00    0.0000E+00    6.610000E+06  0.00800  2.136E-02    0   0.9177   age061_m52            0.0000     2.0286E+00    11.4083   0.6975    92.8754
 22      0.0000     0.0000E+00    0.0000E+00    1.000000E+07  0.00800  1.215E-02    0   0.8827   age070_m52            0.0000     2.1042E+00    11.6605   1.3731    91.6408
 23      0.0000     0.0000E+00    0.0000E+00    1.445000E+07  0.00800  8.717E-03    0   0.8552   age078_m52            0.0000     2.0599E+00    11.5347   1.4908    90.6239
 24      0.8670     8.2750E-02    1.0489E-01    2.512000E+07  0.00800  5.592E-03    0   0.8162   age090_m52            0.0000     2.0130E+00    11.4763   1.1208    93.8186
 25      0.0000     0.0000E+00    0.0000E+00    4.000000E+07  0.00800  3.896E-03    0   0.7841   age104_m52            0.0000     1.9528E+00    11.3421   1.0278    94.8074
 26      0.0000     0.0000E+00    0.0000E+00    1.015200E+08  0.00800  2.148E-03    0   0.7226   age116_m52            0.0000     1.8745E+00    11.1531   0.9651    94.8017
 27      0.0000     0.0000E+00    0.0000E+00    2.861200E+08  0.00800  9.925E-04    0   0.6683   age125_m52            0.0000     1.8184E+00    11.0472   0.4686    99.3821
 28      0.0000     0.0000E+00    0.0000E+00    9.047900E+08  0.00800  3.141E-04    0   0.6138   age135_m52            0.0000     1.8498E+00    11.0670  -0.3251   103.5244
 29      0.0000     0.0000E+00    0.0000E+00    1.434000E+09  0.00800  1.719E-04    0   0.5853   age139_m52            0.0000     1.9128E+00    11.2493  -0.8931   100.9547
 30      0.0000     0.0000E+00    0.0000E+00    2.500000E+09  0.00800  7.872E-05    0   0.5600   age150_m52            0.0000     2.1170E+00    11.6059  -1.0000    92.2519
 31      0.0000     0.0000E+00    0.0000E+00    4.250000E+09  0.00800  4.336E-05    0   0.5426   age158_m52            0.0000     2.1744E+00    11.7022  -1.0000    90.8037
 32      0.0000     0.0000E+00    0.0000E+00    6.250000E+09  0.00800  3.159E-05    0   0.5319   age166_m52            0.0000     2.6435E+00    12.5765  -1.0000    83.5951
 33      0.0000     0.0000E+00    0.0000E+00    1.300000E+10  0.00800  1.361E-05    0   0.5073   age193_m52            0.0000     4.4769E+00    16.0110  -1.0000    67.5294
 34      0.0000     0.0000E+00    0.0000E+00    1.800000E+10  0.00800  9.886E-06    0   0.4990   age213_m52            0.0000     5.0687E+00    16.9165  -1.0000    63.9689
 35      0.0000     0.0000E+00    0.0000E+00    1.000000E+06  0.02000  1.544E-02    0   1.0000   age020_m62            0.0000     2.2826E+00    11.9395   2.3030    83.0536
 36      0.0000     0.0000E+00    0.0000E+00    3.160000E+06  0.02000  3.762E-02    0   0.9858   age045_m62            0.0000     2.2763E+00    11.9228   2.2432    83.7550
 37      0.0000     0.0000E+00    0.0000E+00    5.010000E+06  0.02000  3.296E-02    0   0.9342   age055_m62            0.0000     2.0313E+00    11.4567   1.8449    88.1698
 38      0.0000     0.0000E+00    0.0000E+00    8.710000E+06  0.02000  1.154E-02    0   0.8861   age067_m62            0.0000     2.6934E+00    13.0003   0.8181    94.1591
 39      0.0000     0.0000E+00    0.0000E+00    1.445000E+07  0.02000  7.663E-03    0   0.8472   age078_m62            0.0000     2.2252E+00    11.9700   1.0145    93.8874
 40      0.0000     0.0000E+00    0.0000E+00    2.512000E+07  0.02000  4.532E-03    0   0.8099   age090_m62            0.0000     2.2419E+00    12.0498   1.0035    93.7638
 41      0.0040     7.9073E-04    9.3267E-04    5.500000E+07  0.02000  2.733E-03    0   0.7595   age110_m62            0.0000     1.9659E+00    11.3623   1.0140    93.9976
 42      0.0000     0.0000E+00    0.0000E+00    1.609000E+08  0.02000  1.369E-03    0   0.6985   age120_m62            0.0000     1.8408E+00    11.0951   0.8381    97.3566
 43     30.3809     1.7990E+01    1.8758E+01    2.861200E+08  0.02000  9.013E-04    0   0.6714   age125_m62            0.0000     1.8076E+00    11.0055   0.5787   100.6603
 44      0.0008     8.8577E-04    8.8712E-04    5.088000E+08  0.02000  5.028E-04    0   0.6449   age130_m62            0.0000     1.8216E+00    10.9883   0.2041   103.3674
 45      0.0000     0.0000E+00    0.0000E+00    9.047900E+08  0.02000  2.428E-04    0   0.6179   age135_m62            0.0000     1.8824E+00    11.1041  -0.3698   102.3239
 46      0.0000     0.0000E+00    0.0000E+00    1.434000E+09  0.02000  1.263E-04    0   0.5908   age139_m62            0.0000     1.9833E+00    11.3128  -0.8046   100.4679
 47      0.0000     0.0000E+00    0.0000E+00    2.500000E+09  0.02000  5.985E-05    0   0.5673   age150_m62            0.0000     2.2416E+00    11.7890  -1.0000    92.7173
 48      0.0000     0.0000E+00    0.0000E+00    4.250000E+09  0.02000  3.271E-05    0   0.5468   age158_m62            0.0000     3.0302E+00    13.2386  -1.0000    81.0378
 49      0.0000     0.0000E+00    0.0000E+00    1.000000E+10  0.02000  1.360E-05    0   0.5167   age181_m62            0.0000     4.5326E+00    15.8421  -1.0000    69.1812
 50      0.0000     0.0000E+00    0.0000E+00    1.800000E+10  0.02000  7.124E-06    0   0.5013   age213_m62            0.0000     5.6597E+00    17.5669  -1.0000    62.3105
 51      0.0000     0.0000E+00    0.0000E+00    1.000000E+06  0.05000  2.592E-02    0   0.9998   age020_m72            0.0000     2.3230E+00    12.0061   2.2994    82.8914
 52      0.0000     0.0000E+00    0.0000E+00    3.160000E+06  0.05000  4.845E-02    0   0.9577   age045_m72            0.0000     2.1784E+00    11.7406   2.1190    85.1880
 53      0.0000     0.0000E+00    0.0000E+00    5.010000E+06  0.05000  3.072E-02    0   0.9147   age055_m72            0.0000     2.2505E+00    11.9960   1.6179    89.6831
 54      0.0000     0.0000E+00    0.0000E+00    6.610000E+06  0.05000  1.455E-02    0   0.8877   age061_m72            0.0000     3.3819E+00    14.5976   0.8627    94.9911
 55      0.0000     0.0000E+00    0.0000E+00    1.000000E+07  0.05000  9.074E-03    0   0.8524   age070_m72            0.0000     2.3838E+00    12.3552   1.8047    89.3617
 56      0.0000     0.0000E+00    0.0000E+00    2.512000E+07  0.05000  4.250E-03    0   0.7902   age090_m72            0.0000     2.1835E+00    11.9460   1.4858    91.7765
 57      0.0000     0.0000E+00    0.0000E+00    4.000000E+07  0.05000  3.087E-03    0   0.7618   age104_m72            0.0000     2.1601E+00    11.9441   1.2497    93.6735
 58      0.0000     0.0000E+00    0.0000E+00    1.015200E+08  0.05000  1.700E-03    0   0.7096   age116_m72            0.0000     1.8949E+00    11.2491   0.9807    96.8822
 59      0.0000     0.0000E+00    0.0000E+00    2.861200E+08  0.05000  7.384E-04    0   0.6633   age125_m72            0.0000     1.8115E+00    10.9985   0.4474   102.0758
 60     46.7502     6.5333E+01    6.4651E+01    5.088000E+08  0.05000  3.819E-04    0   0.6372   age130_m72            0.0000     1.8279E+00    10.9784  -0.0360   103.5035
 61      4.3420     1.3827E+01    1.3120E+01    9.047900E+08  0.05000  1.676E-04    0   0.6110   age135_m72            0.0000     2.0483E+00    11.4343  -0.7113   100.9428
 62      0.0000     0.0000E+00    0.0000E+00    1.434000E+09  0.05000  8.837E-05    0   0.5874   age139_m72            0.0000     2.2732E+00    11.8269  -1.0000    94.1033
 63      0.0000     0.0000E+00    0.0000E+00    2.500000E+09  0.05000  4.233E-05    0   0.5598   age150_m72            0.0000     3.0932E+00    13.3270  -1.0000    81.7564
 64      0.0000     0.0000E+00    0.0000E+00    6.250000E+09  0.05000  1.435E-05    0   0.5249   age166_m72            0.0000     4.9952E+00    16.6201  -1.0000    65.9357
 65      0.0000     0.0000E+00    0.0000E+00    1.300000E+10  0.05000  6.513E-06    0   0.5036   age193_m72            0.0000     6.5913E+00    18.9546  -1.0000    58.3691
 66      0.0000     0.0000E+00    0.0000E+00    1.800000E+10  0.05000  4.527E-06    0   0.4945   age213_m72            0.0000     7.5803E+00    20.2897  -1.0000    53.9221


## Synthesis Results - Average & Chains ##

# j      x_j: min, <> & last-chain-values for 1 ...  7 chains
  1      0.0000      0.1206      0.0000      0.0000      0.0000      0.0000      1.7669      0.0557      0.0000
  2      0.0000      0.4694      0.0000      0.7747      0.0000      0.0000      0.1201      2.0868      0.0000
  3      0.0000      0.1187      0.0000      0.6076      0.0000      0.1221      0.4424      0.0000      0.0000
  4      0.0000      0.6969      0.0000      0.0000      0.0000      0.0000      0.0000      1.1695      0.9565
  5      0.0000      0.4336      2.0984      1.5991      0.0000      0.0000      0.0000      0.8363      0.0000
  6      0.0000      0.6839      0.0000      0.0000      3.5013      0.0000      0.7769      1.5417      0.0000
  7      0.0000      0.5472      0.1664      0.0000      0.0000      2.8469      2.3489      0.0000      0.0000
  8     18.3091      1.9591      1.4331      0.0000      0.0000      5.9741      4.8126      4.4640      0.9859
  9      0.0000      1.2894      1.3263      1.5537      0.9901      6.4648      0.0000      0.0000      0.0000
 10      0.3705      3.9101      2.5324      2.9674      8.9996      0.7356      6.1292      5.8768      0.9150
 11      0.0000      0.7092      0.0000      0.0000      0.8596      0.0000      0.0000      0.0000      0.0000
 12      0.0000      1.1022      0.0000      0.0000      0.0000      0.0542      0.3510      0.0000      0.0000
 13      0.0000      0.4701      1.2008      0.0225      0.0000      0.8863      0.0000      0.0000      0.2011
 14      0.0000      0.0865      0.0000      0.0000      0.0000      0.0000      0.0000      0.0000      0.0000
 15      0.0000      0.0428      0.0000      0.0000      0.0000      0.5900      0.0000      0.0000      0.0000
 16      0.0000      0.0181      0.0000      0.0000      0.0000      0.0000      0.0000      0.0000      0.0000
 17      0.0000      0.0571      0.0000      0.0000      0.0000      0.0000      0.0000      0.0000      0.0000
 18      0.0000      0.1155      0.0000      0.0000      0.0000      1.9683      0.0000      0.0000      0.0000
 19      0.0000      0.1564      0.0000      0.0000      0.0000      0.0000      0.0000      1.9827      0.0000
 20      0.0000      0.5888      4.0633      1.6272      0.0000      0.0000      0.0000      0.0000      0.0000
 21      0.0000      2.4045      0.0000      0.0000      1.9138      0.0000      3.3277      0.0000      6.7285
 22      0.0000      0.2976      0.0000      0.0000      0.0000      0.0000      0.3611      0.0000      0.0000
 23      0.0000      0.5001      0.0000      1.2347      0.0000      0.0000      0.0000      0.0000      0.0000
 24      0.8670      0.6986      0.0000      0.6371      0.0000      0.0000      1.8869      1.9734      2.2462
 25      0.0000      0.7569      1.2071      0.0000      0.0000      1.1644      0.0000      0.0000      0.0000
 26      0.0000      1.3856      4.5260      1.3429      0.6766      0.0000      2.3788      0.0000      0.0110
 27      0.0000      2.1217      0.0620      0.0000      0.0000      0.0000      0.0000      0.0000      0.0000
 28      0.0000      0.2633      0.0000      0.0000      0.0000      0.0000      0.0000      1.2121      1.5129
 29      0.0000      0.0573      0.0000      0.0000      0.0000      0.0000      0.0000      0.0000      0.0000
 30      0.0000      0.0433      0.0000      0.0000      0.0000      0.0000      0.0000      0.0000      0.0000
 31      0.0000      0.0408      0.0000      0.0094      0.0000      0.0000      0.0000      0.0000      0.0000
 32      0.0000      0.0100      0.0000      0.0000      0.0000      0.0000      0.0000      0.0000      0.0000
 33      0.0000      0.0388      0.0000      0.0000      0.0000      0.0000      0.0000      0.0000      0.0000
 34      0.0000      0.0469      0.0000      0.0000      0.0000      0.0000      0.0000      0.0000      0.0000
 35      0.0000      0.1348      1.5775      0.0000      0.0000      0.0000      0.0000      0.0000      0.0000
 36      0.0000      0.1366      0.0000      0.4076      0.0000      0.0000      0.0000      0.0000      0.0000
 37      0.0000      0.4434      0.0000      0.4554      2.7091      0.0000      0.0000      0.0000      0.0373
 38      0.0000      0.3375      0.0000      0.0000      0.0000      0.0000      0.0000      0.0000      0.0000
 39      0.0000      0.3254      0.0000      0.0000      0.0000      0.0000      0.0000      0.0000      1.6565
 40      0.0000      0.3239      0.0000      0.4038      0.0000      0.0000      0.0000      0.0000      0.0000
 41      0.0040      1.9771      0.0000      7.6327      0.0000      0.0000      0.0000      2.0225      5.3719
 42      0.0000      1.5295      0.0151      0.0000      4.5266      2.5209      0.0000      0.0000      0.0000
 43     30.3809     20.9406     22.6468     20.4666     22.4306     24.2307     25.0130     26.4693     31.4693
 44      0.0008     18.2510     25.0302     15.1927     16.4450     18.4036     25.0757     16.8295     22.4449
 45      0.0000      1.1065      0.0000      1.5588      0.0000      1.2752      0.0000      0.0899      0.5834
 46      0.0000      0.1207      0.0000      0.0000      0.0000      0.0000      0.3938      0.0000      0.0000
