###################################################################
## OUTPUT of StarlightChains_v04.for    [Cid@UFSC - 01/Apr/2007] ##
###################################################################

## Some input info
2003dr.txt                               [arq_obs]
Base.CB07.vall.4m                        [arq_base]
Masks.EmLines.NEW.gm                     [arq_masks]
StCv04.C11.config                        [arq_config]
   66                                    [N_base]
    0                                    [N_YAV_components = # of components with extra extinction!]
    0                                    [i_FitPowerLaw (1/0 = Yes/No)]
-9.99                                    [alpha_PowerLaw]
CCM                                      [red_law_option]
 1.458241                                [q_norm = A(l_norm)/A(V)]

## (Re)Sampling Parameters
 3741.00                                 [l_ini (A)]
 7218.00                                 [l_fin (A)]
    1.00                                 [dl    (A)]     (OBS: dl_cushion =    50.00 A)

## Normalization info
 4020.00                                 [l_norm (A) - for base]
 4010.00                                 [llow_norm (A) - window for f_obs]
 4060.00                                 [lupp_norm (A) - window for f_obs]
1.099821E-17                             [fobs_norm (in input units)]

## S/N
 3691.00                                 [llow_SN (A) - window for S/N]
 7268.00                                 [lupp_SN (A) - window for S/N]
   2.048                                 [S/N in S/N window]
   3.573                                 [S/N in norm. window]
  10.000                                 [S/N_err in S/N window]
  17.444                                 [S/N_err in norm. window]
  1.0000                                 [fscale_chi2]

## etc...
    -2007272                             [idum_orig]
  2330                                   [NOl_eff]
  1185                                   [Nl_eff]
  1145    NSIGMA                         [Ntot_cliped & clip_method]
  1008840                                [Nglobal_steps]
   7                                     [N_chains]
  21                                     [NEX0s_base = N_base in EX0s-fits]
 0   0   1       22   2.0   8.617E+01    [Clip-Bug, RC-Crash & Burn-In warning-flags, n_censored_weights, wei_nsig_threshold & wei_limit]
    12     11.930     11.436      0.494  [idt_all, wdt_TotTime, wdt_UsrTime & wdt_SysTime (sec)]

## Synthesis Results - Best model ##

 2.72841E+00                             [chi2/Nl_eff]
    13.99222                             [adev (%)]

    71.76028                             [sum-of-x (%)]
 2.64234E-18                             [Flux_tot (units of input spectrum!)]
 5.42192E-14                             [Mini_tot (???)]
 2.80404E-14                             [Mcor_tot (???)]

  39.79                                  [v0_min  (km/s)]
 110.15                                  [vd_min  (km/s)]
-0.8147                                  [AV_min  (mag)]
 0.0000                                  [YAV_min (mag)]

# j     x_j(%)      Mini_j(%)     Mcor_j(%)     age_j(yr)     Z_j      (L/M)_j    YAV?  Mstars   component_j        a/Fe...       SSP_chi2r SSP_adev(%)   SSP_AV   SSP_x(%)
  1      0.0000     0.0000E+00    0.0000E+00    1.000000E+06  0.00400  1.094E-02    0   1.0000   age020_m42            0.0000     3.2962E+00    15.1091   2.0185    59.4073
  2      0.0000     0.0000E+00    0.0000E+00    3.160000E+06  0.00400  4.007E-02    0   0.9999   age045_m42            0.0000     3.1113E+00    14.7959   1.3150    62.9915
  3      0.0000     0.0000E+00    0.0000E+00    5.010000E+06  0.00400  2.539E-02    0   0.9488   age055_m42            0.0000     3.1873E+00    14.9343   1.6266    61.6553
  4      0.0000     0.0000E+00    0.0000E+00    6.610000E+06  0.00400  2.620E-02    0   0.9220   age061_m42            0.0000     3.0920E+00    14.7566   1.2410    63.2061
  5      0.0000     0.0000E+00    0.0000E+00    1.000000E+07  0.00400  1.322E-02    0   0.8862   age070_m42            0.0000     3.0887E+00    14.7713   0.9519    65.1025
  6      0.0000     0.0000E+00    0.0000E+00    1.445000E+07  0.00400  7.883E-03    0   0.8571   age078_m42            0.0000     3.1405E+00    14.8464   1.2766    63.4421
  7      0.0000     0.0000E+00    0.0000E+00    2.512000E+07  0.00400  5.251E-03    0   0.8174   age090_m42            0.0000     3.0899E+00    14.7696   0.8221    65.5395
  8      0.0000     0.0000E+00    0.0000E+00    4.000000E+07  0.00400  3.649E-03    0   0.7851   age104_m42            0.0000     3.0434E+00    14.6818   0.5956    66.0510
  9      0.0000     0.0000E+00    0.0000E+00    5.500000E+07  0.00400  3.098E-03    0   0.7629   age110_m42            0.0000     3.0097E+00    14.6040   0.7563    65.7143
 10      0.0000     4.6076E-07    6.4209E-07    1.015200E+08  0.00400  2.228E-03    0   0.7207   age116_m42            0.0000     2.9969E+00    14.5727   0.7814    65.6303
 11      0.0000     0.0000E+00    0.0000E+00    2.861200E+08  0.00400  1.093E-03    0   0.6648   age125_m42            0.0000     2.9586E+00    14.5038   0.2182    67.6860
 12      0.0000     0.0000E+00    0.0000E+00    5.088000E+08  0.00400  6.597E-04    0   0.6365   age130_m42            0.0000     2.9125E+00    14.4043   0.2111    68.0394
 13      0.0000     0.0000E+00    0.0000E+00    1.434000E+09  0.00400  2.132E-04    0   0.5798   age139_m42            0.0000     2.7996E+00    14.1596  -0.7694    69.7191
 14      0.0000     0.0000E+00    0.0000E+00    4.250000E+09  0.00400  5.895E-05    0   0.5377   age158_m42            0.0000     2.9600E+00    14.4238  -1.0000    61.7294
 15      0.0000     0.0000E+00    0.0000E+00    7.500000E+09  0.00400  3.510E-05    0   0.5212   age171_m42            0.0000     3.3128E+00    15.0045  -1.0000    56.8734
 16      0.0000     0.0000E+00    0.0000E+00    1.300000E+10  0.00400  2.005E-05    0   0.5034   age193_m42            0.0000     3.7782E+00    15.7970  -1.0000    52.8245
 17      0.0000     0.0000E+00    0.0000E+00    1.800000E+10  0.00400  1.525E-05    0   0.4967   age213_m42            0.0000     3.8543E+00    15.9346  -1.0000    52.0849
 18      0.0000     0.0000E+00    0.0000E+00    1.000000E+06  0.00800  1.238E-02    0   1.0000   age020_m52            0.0000     3.2931E+00    15.0994   2.0148    59.5258
 19      0.0000     0.0000E+00    0.0000E+00    3.160000E+06  0.00800  3.074E-02    0   0.9966   age045_m52            0.0000     3.2791E+00    15.0703   1.9394    60.0219
 20      0.0000     0.0000E+00    0.0000E+00    5.010000E+06  0.00800  2.668E-02    0   0.9443   age055_m52            0.0000     3.1936E+00    14.9215   1.7042    61.2326
 21      0.0000     0.0000E+00    0.0000E+00    6.610000E+06  0.00800  2.136E-02    0   0.9177   age061_m52            0.0000     3.0082E+00    14.5694   0.4423    66.1474
 22      0.0000     0.0000E+00    0.0000E+00    1.000000E+07  0.00800  1.215E-02    0   0.8827   age070_m52            0.0000     3.1204E+00    14.8182   1.1292    65.1134
 23      0.0000     0.0000E+00    0.0000E+00    1.445000E+07  0.00800  8.717E-03    0   0.8552   age078_m52            0.0000     3.1067E+00    14.7843   1.2424    64.3431
 24      0.0000     0.0000E+00    0.0000E+00    2.512000E+07  0.00800  5.592E-03    0   0.8162   age090_m52            0.0000     3.0643E+00    14.7374   0.8866    66.3422
 25      0.0082     1.4323E-04    2.1715E-04    4.000000E+07  0.00800  3.896E-03    0   0.7841   age104_m52            0.0000     3.0142E+00    14.6365   0.8053    66.6504
 26      0.0000     0.0000E+00    0.0000E+00    1.015200E+08  0.00800  2.148E-03    0   0.7226   age116_m52            0.0000     2.9699E+00    14.5212   0.7489    66.2622
 27      0.0000     0.0000E+00    0.0000E+00    2.861200E+08  0.00800  9.925E-04    0   0.6683   age125_m52            0.0000     2.8750E+00    14.3360   0.2744    68.7596
 28      0.0000     0.0000E+00    0.0000E+00    9.047900E+08  0.00800  3.141E-04    0   0.6138   age135_m52            0.0000     2.7746E+00    14.1097  -0.5166    71.3517
 29      6.7157     2.6532E+00    3.0027E+00    1.434000E+09  0.00800  1.719E-04    0   0.5853   age139_m52            0.0000     2.7902E+00    14.1250  -1.0000    67.4984
 30      0.0000     0.0000E+00    0.0000E+00    2.500000E+09  0.00800  7.872E-05    0   0.5600   age150_m52            0.0000     3.2128E+00    14.8530  -1.0000    58.9586
 31      0.0000     0.0000E+00    0.0000E+00    4.250000E+09  0.00800  4.336E-05    0   0.5426   age158_m52            0.0000     3.2684E+00    14.9362  -1.0000    58.0302
 32      0.0000     0.0000E+00    0.0000E+00    6.250000E+09  0.00800  3.159E-05    0   0.5319   age166_m52            0.0000     3.8448E+00    15.8899  -1.0000    53.3465
 33      0.0000     0.0000E+00    0.0000E+00    1.300000E+10  0.00800  1.361E-05    0   0.5073   age193_m52            0.0000     5.7768E+00    19.1830  -1.0000    43.1588
 34      0.0000     0.0000E+00    0.0000E+00    1.800000E+10  0.00800  9.886E-06    0   0.4990   age213_m52            0.0000     6.3079E+00    19.9376  -1.0000    40.8826
 35      0.0000     0.0000E+00    0.0000E+00    1.000000E+06  0.02000  1.544E-02    0   1.0000   age020_m62            0.0000     3.3008E+00    15.1098   2.0103    59.6777
 36      0.0000     0.0000E+00    0.0000E+00    3.160000E+06  0.02000  3.762E-02    0   0.9858   age045_m62            0.0000     3.3000E+00    15.1060   1.9504    60.1799
 37      0.0000     0.0000E+00    0.0000E+00    5.010000E+06  0.02000  3.296E-02    0   0.9342   age055_m62            0.0000     3.1423E+00    14.8420   1.5882    62.3577
 38      0.0000     0.0000E+00    0.0000E+00    8.710000E+06  0.02000  1.154E-02    0   0.8861   age067_m62            0.0000     3.4832E+00    15.4955   0.5620    68.2047
 39      0.0000     0.0000E+00    0.0000E+00    1.445000E+07  0.02000  7.663E-03    0   0.8472   age078_m62            0.0000     3.1492E+00    14.8995   0.7723    66.9733
 40      0.0000     0.0000E+00    0.0000E+00    2.512000E+07  0.02000  4.532E-03    0   0.8099   age090_m62            0.0000     3.1689E+00    14.9504   0.7678    66.7628
 41      0.0000     0.0000E+00    0.0000E+00    5.500000E+07  0.02000  2.733E-03    0   0.7595   age110_m62            0.0000     3.0155E+00    14.6471   0.7837    66.2954
 42      0.0017     8.5718E-05    1.1577E-04    1.609000E+08  0.02000  1.369E-03    0   0.6985   age120_m62            0.0000     2.9335E+00    14.4658   0.6326    67.7127
 43      0.0000     0.0000E+00    0.0000E+00    2.861200E+08  0.02000  9.013E-04    0   0.6714   age125_m62            0.0000     2.8826E+00    14.3447   0.3843    69.5590
 44      0.0000     0.0000E+00    0.0000E+00    5.088000E+08  0.02000  5.028E-04    0   0.6449   age130_m62            0.0000     2.8296E+00    14.2084   0.0148    71.0339
 45      0.0000     0.0000E+00    0.0000E+00    9.047900E+08  0.02000  2.428E-04    0   0.6179   age135_m62            0.0000     2.7540E+00    14.0464  -0.5755    70.7795
 46      0.0000     0.0000E+00    0.0000E+00    1.434000E+09  0.02000  1.263E-04    0   0.5908   age139_m62            0.0000     2.7740E+00    14.1126  -1.0000    69.2691
 47      0.0000     0.0000E+00    0.0000E+00    2.500000E+09  0.02000  5.985E-05    0   0.5673   age150_m62            0.0000     3.2853E+00    14.9653  -1.0000    59.1630
 48      0.0000     0.0000E+00    0.0000E+00    4.250000E+09  0.02000  3.271E-05    0   0.5468   age158_m62            0.0000     4.2454E+00    16.5499  -1.0000    51.5996
 49      0.0000     0.0000E+00    0.0000E+00    1.000000E+10  0.02000  1.360E-05    0   0.5167   age181_m62            0.0000     5.7367E+00    18.9343  -1.0000    44.0914
 50      0.0012     1.1854E-02    1.1490E-02    1.800000E+10  0.02000  7.124E-06    0   0.5013   age213_m62            0.0000     6.7816E+00    20.4282  -1.0000    39.7598
 51      0.0000     0.0000E+00    0.0000E+00    1.000000E+06  0.05000  2.592E-02    0   0.9998   age020_m72            0.0000     3.3190E+00    15.1310   2.0015    59.7185
 52      0.0000     0.0000E+00    0.0000E+00    3.160000E+06  0.05000  4.845E-02    0   0.9577   age045_m72            0.0000     3.2438E+00    15.0143   1.8389    60.8306
 53      0.0000     0.0000E+00    0.0000E+00    5.010000E+06  0.05000  3.072E-02    0   0.9147   age055_m72            0.0000     3.1642E+00    14.8863   1.3694    63.9125
 54      0.0000     0.0000E+00    0.0000E+00    6.610000E+06  0.05000  1.455E-02    0   0.8877   age061_m72            0.0000     3.8139E+00    16.0396   0.6347    68.7189
 55      0.0000     0.0000E+00    0.0000E+00    1.000000E+07  0.05000  9.074E-03    0   0.8524   age070_m72            0.0000     3.2257E+00    15.0500   1.5735    63.3602
 56      0.0000     0.0000E+00    0.0000E+00    2.512000E+07  0.05000  4.250E-03    0   0.7902   age090_m72            0.0000     3.1321E+00    14.8621   1.2661    64.6699
 57      0.0000     0.0000E+00    0.0000E+00    4.000000E+07  0.05000  3.087E-03    0   0.7618   age104_m72            0.0000     3.1167E+00    14.8367   1.0377    65.8429
 58      8.5509     3.4160E-01    4.6870E-01    1.015200E+08  0.05000  1.700E-03    0   0.7096   age116_m72            0.0000     2.9716E+00    14.5515   0.7746    67.5421
 59      5.5281     5.0843E-01    6.5210E-01    2.861200E+08  0.05000  7.384E-04    0   0.6633   age125_m72            0.0000     2.8296E+00    14.2232   0.2552    70.3705
 60     25.2733     4.4943E+00    5.5374E+00    5.088000E+08  0.05000  3.819E-04    0   0.6372   age130_m72            0.0000     2.7631E+00    14.0372  -0.2368    71.4025
 61     15.8209     6.4107E+00    7.5739E+00    9.047900E+08  0.05000  1.676E-04    0   0.6110   age135_m72            0.0000     2.7898E+00    14.1278  -0.9378    70.2161
 62      3.6404     2.7977E+00    3.1776E+00    1.434000E+09  0.05000  8.837E-05    0   0.5874   age139_m72            0.0000     3.2812E+00    14.9694  -1.0000    60.0360
 63      0.0000     0.0000E+00    0.0000E+00    2.500000E+09  0.05000  4.233E-05    0   0.5598   age150_m72            0.0000     4.2654E+00    16.5693  -1.0000    52.0234
 64      0.0000     0.0000E+00    0.0000E+00    6.250000E+09  0.05000  1.435E-05    0   0.5249   age166_m72            0.0000     6.2097E+00    19.6574  -1.0000    42.0269
 65      2.3011     2.3994E+01    2.3364E+01    1.300000E+10  0.05000  6.513E-06    0   0.5036   age193_m72            0.0000     7.6782E+00    21.6788  -1.0000    37.2836
 66      3.9188     5.8788E+01    5.6212E+01    1.800000E+10  0.05000  4.527E-06    0   0.4945   age213_m72            0.0000     8.5675E+00    22.8488  -1.0000    34.5052


## Synthesis Results - Average & Chains ##

# j      x_j: min, <> & last-chain-values for 1 ...  7 chains
  1      0.0000      0.0901      0.0000      0.0000      0.0000      0.0000      0.0000      0.1786      0.0000
  2      0.0000      0.1417      0.0000      0.0000      0.9887      0.0000      0.0000      0.4914      0.0000
  3      0.0000      0.1087      0.0000      0.5603      0.0000      0.0559      0.0000      0.0000      0.0000
  4      0.0000      0.1351      0.0000      0.0000      0.0000      0.0000      0.2896      1.1164      0.0000
  5      0.0000      0.3065      0.9188      0.3930      0.0000      0.3731      0.0000      0.0000      0.0000
  6      0.0000      0.4014      0.0000      0.0000      0.0000      0.0000      0.0036      0.0000      0.0000
  7      0.0000      0.3673      0.0000      0.0000      0.0000      0.0000      0.4052      0.0000      0.9678
  8      0.0000      0.2970      1.4710      0.0000      0.0000      0.0000      0.0000      0.0000      0.0000
  9      0.0000      0.2010      0.0000      0.6211      0.0000      0.2721      0.0000      0.0000      0.0000
 10      0.0000      0.2433      0.0000      0.2012      1.3644      0.0000      0.4833      0.0000      0.0000
 11      0.0000      0.3695      0.0000      0.0000      0.2444      0.1751      0.4632      0.0000      0.0000
 12      0.0000      0.6387      0.0000      0.0000      0.0000      0.0000      2.3351      0.0000      0.5891
 13      0.0000      1.2917      0.0000      0.0000      0.0000      0.0000      0.0000      0.0000      0.0000
 14      0.0000      0.6187      0.0000      0.8248      1.0844      0.2593      0.0000      0.0000      0.0000
 15      0.0000      0.3854      0.0000      0.5116      0.1740      0.0000      0.0000      0.1730      0.0000
 16      0.0000      0.5819      0.0000      0.4384      0.0000      0.0000      0.0000      0.0000      0.0000
 17      0.0000      0.3528      0.2263      0.0000      0.0000      0.0000      0.0000      0.9991      0.0000
 18      0.0000      0.0872      0.0000      0.0000      0.2466      0.0000      0.0000      0.0000      0.0000
 19      0.0000      0.1598      0.5196      0.0000      0.0000      0.0000      0.0000      0.0000      0.0000
 20      0.0000      0.2863      0.7824      0.0000      0.0000      0.0000      0.0000      0.0000      0.0000
 21      0.0000      0.2271      0.0000      0.0000      0.0000      1.7762      0.0000      0.0675      1.1567
 22      0.0000      0.2086      0.1973      0.0000      0.0000      0.0000      0.1008      0.0000      0.3595
 23      0.0000      0.2464      0.0000      0.0000      0.0000      0.0000      0.0000      0.0000      0.0000
 24      0.0000      0.3432      0.4850      0.1908      0.0000      0.0000      0.1100      0.5226      0.0000
 25      0.0082      0.3180      1.4111      0.2948      0.0000      0.0000      1.6180      0.0000      1.0566
 26      0.0000      0.3270      0.8473      0.0000      0.3004      0.0000      0.0000      0.8505      0.0000
 27      0.0000      0.8299      0.6480      0.0000      0.8505      1.3447      1.9623      0.6199      0.0000
 28      0.0000      2.2090      0.0000      0.9157      0.0000      1.9294      4.5602      0.0000      0.6200
 29      6.7157      4.0684      0.0000      0.0000      3.6882      2.2581      3.8857      2.5385      3.9562
 30      0.0000      1.5131      0.0000      0.0000      1.5668      0.1379      1.0120      4.5568      1.4910
 31      0.0000      0.9051      1.0412      3.7774      0.0000      0.0000      0.0000      0.7564      1.0116
 32      0.0000      0.6902      2.7626      0.5290      0.0000      0.0000      0.0000      0.0000      0.0000
 33      0.0000      0.2682      0.0974      0.9653      0.0000      0.1374      0.9212      0.0000      1.3428
 34      0.0000      0.2461      0.0000      0.7518      0.0000      0.0000      0.0000      0.8287      0.0000
 35      0.0000      0.1234      0.4619      0.0000      0.0000      0.0000      0.0000      0.0000      0.0000
 36      0.0000      0.1432      0.0000      0.6351      0.0000      0.2979      0.0000      0.0000      0.1561
 37      0.0000      0.2645      0.3611      0.0985      0.0000      0.0000      0.0000      0.0000      2.2694
 38      0.0000      0.1895      0.6200      1.5151      0.0000      0.0874      0.0000      0.0000      0.0000
 39      0.0000      0.1667      0.1078      0.0000      0.0000      0.0000      0.0000      0.1472      0.0000
 40      0.0000      0.4232      0.0000      0.0000      0.0000      1.1782      0.0000      0.0000      1.4431
 41      0.0000      0.1804      0.2628      0.0000      0.0000      0.1505      0.0000      0.0000      0.0000
 42      0.0017      0.7209      0.0000      0.6217      0.0000      2.6047      0.8368      2.2983      2.7197
 43      0.0000      0.4523      1.3217      0.0000      0.0000      0.1907      0.0000      0.7603      0.0000
 44      0.0000      0.7005      1.1040      0.0000      0.0000      0.0796      0.0000      2.4198      0.6471
 45      0.0000      2.3551      0.0000      0.4008      7.6537      0.0000      0.0000      3.2580      1.9605
 46      0.0000      2.6823      0.0000      2.4054      3.1813      2.4103      0.9917      3.7546      2.5182
