###################################################################
## OUTPUT of StarlightChains_v04.for    [Cid@UFSC - 01/Apr/2007] ##
###################################################################

## Some input info
2003dt.txt                               [arq_obs]
Base.CB07.vall.4m                        [arq_base]
Masks.EmLines.NEW.gm                     [arq_masks]
StCv04.C11.config                        [arq_config]
   66                                    [N_base]
    0                                    [N_YAV_components = # of components with extra extinction!]
    0                                    [i_FitPowerLaw (1/0 = Yes/No)]
-9.99                                    [alpha_PowerLaw]
CCM                                      [red_law_option]
 1.458241                                [q_norm = A(l_norm)/A(V)]

## (Re)Sampling Parameters
 3741.00                                 [l_ini (A)]
 7218.00                                 [l_fin (A)]
    1.00                                 [dl    (A)]     (OBS: dl_cushion =    50.00 A)

## Normalization info
 4020.00                                 [l_norm (A) - for base]
 4010.00                                 [llow_norm (A) - window for f_obs]
 4060.00                                 [lupp_norm (A) - window for f_obs]
2.342265E-17                             [fobs_norm (in input units)]

## S/N
 3691.00                                 [llow_SN (A) - window for S/N]
 7268.00                                 [lupp_SN (A) - window for S/N]
   4.164                                 [S/N in S/N window]
   3.477                                 [S/N in norm. window]
  10.000                                 [S/N_err in S/N window]
   8.349                                 [S/N_err in norm. window]
  1.0000                                 [fscale_chi2]

## etc...
    -2007274                             [idum_orig]
  2380                                   [NOl_eff]
  1877                                   [Nl_eff]
   503    NSIGMA                         [Ntot_cliped & clip_method]
   615720                                [Nglobal_steps]
   7                                     [N_chains]
  11                                     [NEX0s_base = N_base in EX0s-fits]
 0   0   1        7   2.0   6.132E+01    [Clip-Bug, RC-Crash & Burn-In warning-flags, n_censored_weights, wei_nsig_threshold & wei_limit]
    10      9.227      8.733      0.494  [idt_all, wdt_TotTime, wdt_UsrTime & wdt_SysTime (sec)]

## Synthesis Results - Best model ##

 1.99097E+00                             [chi2/Nl_eff]
    11.73993                             [adev (%)]

    91.08302                             [sum-of-x (%)]
 9.52993E-18                             [Flux_tot (units of input spectrum!)]
 1.37000E-12                             [Mini_tot (???)]
 6.89384E-13                             [Mcor_tot (???)]

   1.92                                  [v0_min  (km/s)]
 272.20                                  [vd_min  (km/s)]
-0.6000                                  [AV_min  (mag)]
 0.0000                                  [YAV_min (mag)]

# j     x_j(%)      Mini_j(%)     Mcor_j(%)     age_j(yr)     Z_j      (L/M)_j    YAV?  Mstars   component_j        a/Fe...       SSP_chi2r SSP_adev(%)   SSP_AV   SSP_x(%)
  1      0.0000     0.0000E+00    0.0000E+00    1.000000E+06  0.00400  1.094E-02    0   1.0000   age020_m42            0.0000     3.9048E+00    14.6334   3.9616    69.8611
  2      0.0000     0.0000E+00    0.0000E+00    3.160000E+06  0.00400  4.007E-02    0   0.9999   age045_m42            0.0000     3.5016E+00    14.1701   3.1705    77.1608
  3      0.0000     0.0000E+00    0.0000E+00    5.010000E+06  0.00400  2.539E-02    0   0.9488   age055_m42            0.0000     3.6507E+00    14.3521   3.5122    74.4176
  4      0.0000     0.0000E+00    0.0000E+00    6.610000E+06  0.00400  2.620E-02    0   0.9220   age061_m42            0.0000     3.4751E+00    14.1644   3.0835    77.7909
  5      0.0000     0.0000E+00    0.0000E+00    1.000000E+07  0.00400  1.322E-02    0   0.8862   age070_m42            0.0000     3.8727E+00    14.8864   2.7923    79.3362
  6      0.0000     0.0000E+00    0.0000E+00    1.445000E+07  0.00400  7.883E-03    0   0.8571   age078_m42            0.0000     3.9368E+00    14.9207   3.1379    76.6370
  7      0.0000     0.0000E+00    0.0000E+00    2.512000E+07  0.00400  5.251E-03    0   0.8174   age090_m42            0.0000     3.9377E+00    15.0392   2.6570    79.9098
  8      0.0000     0.0000E+00    0.0000E+00    4.000000E+07  0.00400  3.649E-03    0   0.7851   age104_m42            0.0000     3.8175E+00    14.8659   2.4191    81.0717
  9      0.0000     0.0000E+00    0.0000E+00    5.500000E+07  0.00400  3.098E-03    0   0.7629   age110_m42            0.0000     3.5724E+00    14.4503   2.5639    81.6478
 10      0.0000     0.0000E+00    0.0000E+00    1.015200E+08  0.00400  2.228E-03    0   0.7207   age116_m42            0.0000     3.4078E+00    14.1759   2.5757    82.2993
 11      0.0000     0.0000E+00    0.0000E+00    2.861200E+08  0.00400  1.093E-03    0   0.6648   age125_m42            0.0000     3.4420E+00    14.2840   1.9764    85.8539
 12      3.9327     4.5528E-02    5.7589E-02    5.088000E+08  0.00400  6.597E-04    0   0.6365   age130_m42            0.0000     3.1660E+00    13.7986   1.9572    87.2615
 13      0.2944     1.0546E-02    1.2151E-02    1.434000E+09  0.00400  2.132E-04    0   0.5798   age139_m42            0.0000     2.8712E+00    13.3561   0.9770    89.6784
 14      0.0000     0.0000E+00    0.0000E+00    4.250000E+09  0.00400  5.895E-05    0   0.5377   age158_m42            0.0000     2.6680E+00    12.8691   0.5668    85.3114
 15      0.0000     0.0000E+00    0.0000E+00    7.500000E+09  0.00400  3.510E-05    0   0.5212   age171_m42            0.0000     2.5576E+00    12.6697   0.3777    84.9466
 16      0.0000     0.0000E+00    0.0000E+00    1.300000E+10  0.00400  2.005E-05    0   0.5034   age193_m42            0.0000     2.4623E+00    12.4934   0.2091    84.7630
 17      0.0000     0.0000E+00    0.0000E+00    1.800000E+10  0.00400  1.525E-05    0   0.4967   age213_m42            0.0000     2.4936E+00    12.5394   0.1890    84.2435
 18      0.0000     0.0000E+00    0.0000E+00    1.000000E+06  0.00800  1.238E-02    0   1.0000   age020_m52            0.0000     3.9045E+00    14.6307   3.9593    69.9567
 19      0.0000     0.0000E+00    0.0000E+00    3.160000E+06  0.00800  3.074E-02    0   0.9966   age045_m52            0.0000     3.8477E+00    14.5520   3.8776    70.7827
 20      0.0000     0.0000E+00    0.0000E+00    5.010000E+06  0.00800  2.668E-02    0   0.9443   age055_m52            0.0000     3.7076E+00    14.4190   3.6053    73.3616
 21      0.0000     0.0000E+00    0.0000E+00    6.610000E+06  0.00800  2.136E-02    0   0.9177   age061_m52            0.0000     3.7790E+00    14.6792   2.3022    79.9797
 22      0.0000     0.0000E+00    0.0000E+00    1.000000E+07  0.00800  1.215E-02    0   0.8827   age070_m52            0.0000     4.0670E+00    15.1838   2.9783    78.7395
 23      0.0000     0.0000E+00    0.0000E+00    1.445000E+07  0.00800  8.717E-03    0   0.8552   age078_m52            0.0000     3.9094E+00    14.8975   3.0977    77.9174
 24      0.0000     0.0000E+00    0.0000E+00    2.512000E+07  0.00800  5.592E-03    0   0.8162   age090_m52            0.0000     3.9433E+00    15.0585   2.7155    81.0461
 25      0.0000     0.0000E+00    0.0000E+00    4.000000E+07  0.00800  3.896E-03    0   0.7841   age104_m52            0.0000     3.7788E+00    14.8139   2.6164    82.2477
 26      0.0000     0.0000E+00    0.0000E+00    1.015200E+08  0.00800  2.148E-03    0   0.7226   age116_m52            0.0000     3.4938E+00    14.3437   2.5447    82.7843
 27      0.0000     0.0000E+00    0.0000E+00    2.861200E+08  0.00800  9.925E-04    0   0.6683   age125_m52            0.0000     3.1805E+00    13.8314   2.0221    88.0491
 28      0.0000     0.0000E+00    0.0000E+00    9.047900E+08  0.00800  3.141E-04    0   0.6138   age135_m52            0.0000     2.7383E+00    13.1233   1.2017    93.1643
 29      0.0000     0.0000E+00    0.0000E+00    1.434000E+09  0.00800  1.719E-04    0   0.5853   age139_m52            0.0000     2.6902E+00    12.9834   0.6411    90.4988
 30      0.0000     0.0000E+00    0.0000E+00    2.500000E+09  0.00800  7.872E-05    0   0.5600   age150_m52            0.0000     2.4573E+00    12.5381   0.3841    87.9835
 31      0.0000     0.0000E+00    0.0000E+00    4.250000E+09  0.00800  4.336E-05    0   0.5426   age158_m52            0.0000     2.4530E+00    12.5063   0.3712    87.0747
 32      0.0000     0.0000E+00    0.0000E+00    6.250000E+09  0.00800  3.159E-05    0   0.5319   age166_m52            0.0000     2.3035E+00    12.2440   0.1591    87.7147
 33      0.0000     0.0000E+00    0.0000E+00    1.300000E+10  0.00800  1.361E-05    0   0.5073   age193_m52            0.0000     2.1500E+00    11.9922  -0.3208    87.9253
 34      0.0000     0.0000E+00    0.0000E+00    1.800000E+10  0.00800  9.886E-06    0   0.4990   age213_m52            0.0000     2.0652E+00    11.8307  -0.4355    87.9902
 35      0.0000     0.0000E+00    0.0000E+00    1.000000E+06  0.02000  1.544E-02    0   1.0000   age020_m62            0.0000     3.9163E+00    14.6377   3.9569    70.0666
 36      0.0000     0.0000E+00    0.0000E+00    3.160000E+06  0.02000  3.762E-02    0   0.9858   age045_m62            0.0000     3.8762E+00    14.5827   3.8922    70.8304
 37      0.0000     0.0000E+00    0.0000E+00    5.010000E+06  0.02000  3.296E-02    0   0.9342   age055_m62            0.0000     3.5194E+00    14.1761   3.4605    75.8514
 38      0.0000     0.0000E+00    0.0000E+00    8.710000E+06  0.02000  1.154E-02    0   0.8861   age067_m62            0.0000     5.3889E+00    17.4523   2.4332    79.7326
 39      0.0000     0.0000E+00    0.0000E+00    1.445000E+07  0.02000  7.663E-03    0   0.8472   age078_m62            0.0000     4.3918E+00    15.7602   2.6201    80.4175
 40      0.0000     0.0000E+00    0.0000E+00    2.512000E+07  0.02000  4.532E-03    0   0.8099   age090_m62            0.0000     4.4200E+00    15.8617   2.6023    80.5341
 41      0.0000     0.0000E+00    0.0000E+00    5.500000E+07  0.02000  2.733E-03    0   0.7595   age110_m62            0.0000     3.7710E+00    14.7872   2.6017    81.5611
 42      0.0000     0.0000E+00    0.0000E+00    1.609000E+08  0.02000  1.369E-03    0   0.6985   age120_m62            0.0000     3.3735E+00    14.1432   2.4058    85.5705
 43      0.0000     0.0000E+00    0.0000E+00    2.861200E+08  0.02000  9.013E-04    0   0.6714   age125_m62            0.0000     3.1777E+00    13.8214   2.1331    89.1777
 44      0.0000     0.0000E+00    0.0000E+00    5.088000E+08  0.02000  5.028E-04    0   0.6449   age130_m62            0.0000     2.8290E+00    13.2456   1.7412    92.6009
 45      0.0000     0.0000E+00    0.0000E+00    9.047900E+08  0.02000  2.428E-04    0   0.6179   age135_m62            0.0000     2.5940E+00    12.8409   1.1625    91.9950
 46      0.0000     0.0000E+00    0.0000E+00    1.434000E+09  0.02000  1.263E-04    0   0.5908   age139_m62            0.0000     2.5223E+00    12.6753   0.7300    90.2769
 47      0.0000     0.0000E+00    0.0000E+00    2.500000E+09  0.02000  5.985E-05    0   0.5673   age150_m62            0.0000     2.3312E+00    12.3048   0.3637    89.3754
 48      0.0000     0.0000E+00    0.0000E+00    4.250000E+09  0.02000  3.271E-05    0   0.5468   age158_m62            0.0000     2.1469E+00    12.0096   0.0471    89.4600
 49      0.0021     1.2053E-03    1.2376E-03    1.000000E+10  0.02000  1.360E-05    0   0.5167   age181_m62            0.0000     2.0313E+00    11.8088  -0.3169    90.0997
 50     18.9759     2.0343E+01    2.0266E+01    1.800000E+10  0.02000  7.124E-06    0   0.5013   age213_m62            0.0000     1.9968E+00    11.7364  -0.5305    89.8091
 51      0.0000     0.0000E+00    0.0000E+00    1.000000E+06  0.05000  2.592E-02    0   0.9998   age020_m72            0.0000     3.9911E+00    14.7197   3.9569    69.7688
 52      0.0000     0.0000E+00    0.0000E+00    3.160000E+06  0.05000  4.845E-02    0   0.9577   age045_m72            0.0000     3.6970E+00    14.3725   3.7547    72.5627
 53      0.0000     0.0000E+00    0.0000E+00    5.010000E+06  0.05000  3.072E-02    0   0.9147   age055_m72            0.0000     4.1690E+00    15.2159   3.2321    76.7007
 54      0.0000     0.0000E+00    0.0000E+00    6.610000E+06  0.05000  1.455E-02    0   0.8877   age061_m72            0.0000     6.3518E+00    19.0934   2.4693    80.3423
 55      0.0000     0.0000E+00    0.0000E+00    1.000000E+07  0.05000  9.074E-03    0   0.8524   age070_m72            0.0000     4.3043E+00    15.4369   3.4094    76.6917
 56      0.0000     0.0000E+00    0.0000E+00    2.512000E+07  0.05000  4.250E-03    0   0.7902   age090_m72            0.0000     4.0742E+00    15.2091   3.0788    79.2897
 57      0.0000     0.0000E+00    0.0000E+00    4.000000E+07  0.05000  3.087E-03    0   0.7618   age104_m72            0.0000     4.0808E+00    15.2831   2.8343    81.2144
 58      0.0000     0.0000E+00    0.0000E+00    1.015200E+08  0.05000  1.700E-03    0   0.7096   age116_m72            0.0000     3.5644E+00    14.4665   2.5529    84.8314
 59      0.0000     0.0000E+00    0.0000E+00    2.861200E+08  0.05000  7.384E-04    0   0.6633   age125_m72            0.0000     3.0032E+00    13.5155   1.9942    90.9037
 60      0.0000     0.0000E+00    0.0000E+00    5.088000E+08  0.05000  3.819E-04    0   0.6372   age130_m72            0.0000     2.6760E+00    13.0003   1.5027    92.7613
 61      0.0000     0.0000E+00    0.0000E+00    9.047900E+08  0.05000  1.676E-04    0   0.6110   age135_m72            0.0000     2.3771E+00    12.4171   0.8221    90.9765
 62      0.0000     0.0000E+00    0.0000E+00    1.434000E+09  0.05000  8.837E-05    0   0.5874   age139_m72            0.0000     2.3075E+00    12.2833   0.3591    90.9214
 63      0.0000     0.0000E+00    0.0000E+00    2.500000E+09  0.05000  4.233E-05    0   0.5598   age150_m72            0.0000     2.1049E+00    11.9373   0.0423    90.5112
 64      0.0000     0.0000E+00    0.0000E+00    6.250000E+09  0.05000  1.435E-05    0   0.5249   age166_m72            0.0000     2.0191E+00    11.7911  -0.4114    89.7572
 65     67.8653     7.9579E+01    7.9642E+01    1.300000E+10  0.05000  6.513E-06    0   0.5036   age193_m72            0.0000     1.9970E+00    11.7479  -0.6958    91.1004
 66      0.0125     2.1064E-02    2.0700E-02    1.800000E+10  0.05000  4.527E-06    0   0.4945   age213_m72            0.0000     2.0284E+00    11.8201  -0.8546    90.9941


## Synthesis Results - Average & Chains ##

# j      x_j: min, <> & last-chain-values for 1 ...  7 chains
  1      0.0000      0.0088      0.0000      0.0000      0.0000      0.0000      0.0000      0.0000      0.0000
  2      0.0000      0.0094      0.0000      0.0000      0.0000      0.0000      0.0000      0.0000      0.0000
  3      0.0000      0.0132      0.0000      0.0000      0.0000      0.0000      0.0000      0.0000      0.0000
  4      0.0000      0.0410      0.0000      0.0342      0.0000      0.0000      0.0000      0.0000      0.0000
  5      0.0000      0.0134      0.0000      0.0000      0.0000      0.0000      0.0000      0.0000      0.0000
  6      0.0000      0.0220      0.0000      0.0000      0.0000      0.0000      0.0000      0.0000      0.0000
  7      0.0000      0.0175      0.0000      0.0000      0.0000      0.0000      0.0000      0.0000      0.0000
  8      0.0000      0.0759      0.0000      0.0000      0.0000      0.0000      0.0000      0.0000      0.2537
  9      0.0000      0.0287      0.0000      0.0000      0.0000      0.0000      0.0000      0.0000      0.0000
 10      0.0000      0.0525      0.0000      0.0000      0.0000      0.0000      0.0000      0.0000      0.0000
 11      0.0000      0.1387      0.0000      0.0000      0.0000      0.0000      0.0000      0.0000      0.5178
 12      3.9327      0.1001      0.0000      0.0000      0.0000      1.2783      0.0000      0.8368      0.0000
 13      0.2944      0.2095      0.2680      0.0000      0.1325      0.0000      0.0000      1.7928      0.0000
 14      0.0000      0.2201      0.7584      0.0000      0.0000      0.0000      1.4919      0.0000      0.0000
 15      0.0000      0.4568      0.0000      1.2913      0.2318      0.0000      0.0000      1.0269      0.0000
 16      0.0000      0.6475      0.0000      0.0000      0.0000      0.9520      0.0000      0.7220      1.2305
 17      0.0000      1.5202      2.6937      1.4608      1.9322      0.0000      0.0000      0.0000      5.0776
 18      0.0000      0.0133      0.0000      0.0000      0.0000      0.0000      0.0000      0.0000      0.0000
 19      0.0000      0.0115      0.0000      0.0000      0.0000      0.0000      0.0000      0.0000      0.0000
 20      0.0000      0.0462      0.0000      0.0000      0.0000      0.0000      0.0000      0.0000      0.0000
 21      0.0000      0.0414      0.0000      0.0000      0.0000      0.0000      0.0000      0.0000      0.0000
 22      0.0000      0.0126      0.0000      0.0000      0.0883      0.0000      0.0000      0.0000      0.0000
 23      0.0000      0.0169      0.0000      0.0000      0.0000      0.0000      0.0000      0.0000      0.0000
 24      0.0000      0.0316      0.0000      0.0000      0.0000      0.0000      0.0000      0.0000      0.0000
 25      0.0000      0.0179      0.0000      0.0000      0.0000      0.0000      0.6140      0.0000      0.0000
 26      0.0000      0.0486      0.0000      0.0000      0.0000      0.0000      0.4500      0.0000      0.0000
 27      0.0000      0.1729      0.0000      0.0000      0.4661      0.0000      0.0000      0.0000      0.1030
 28      0.0000      0.1790      0.5890      0.1522      0.0000      0.0000      0.0000      0.0000      0.0000
 29      0.0000      0.2015      0.1290      0.0000      0.0000      0.0000      0.0000      0.0514      0.9319
 30      0.0000      0.4535      1.2563      1.3059      0.0000      0.0000      0.0000      0.0000      1.0746
 31      0.0000      0.6665      0.0000      0.0000      1.7859      0.4392      0.0000      0.0000      0.0000
 32      0.0000      0.6983      0.0000      0.3383      0.3047      0.0000      2.1674      0.3212      0.0000
 33      0.0000      1.5363      0.0000      3.2614      0.0000      0.1280      0.0000      3.9981      1.4388
 34      0.0000      6.4145      0.0000      5.2229      8.9863      0.1068      3.1391      0.1269      0.0000
 35      0.0000      0.0070      0.0000      0.0000      0.0000      0.0000      0.0000      0.0000      0.0000
 36      0.0000      0.0047      0.0000      0.0000      0.0000      0.0000      0.0000      0.0000      0.0000
 37      0.0000      0.0639      0.0000      0.0000      0.0000      0.0000      0.0000      0.0000      0.0000
 38      0.0000      0.0115      0.0000      0.0000      0.0000      0.0000      0.0000      0.0000      0.0000
 39      0.0000      0.0149      0.0000      0.0000      0.0000      0.0000      0.0000      0.3632      0.0000
 40      0.0000      0.0155      0.0000      0.0000      0.0000      0.0000      0.0000      0.0000      0.0000
 41      0.0000      0.0288      0.0000      0.0000      0.0000      0.0000      0.0000      0.0000      0.0000
 42      0.0000      0.0406      0.0000      0.0000      0.0000      0.0000      0.0000      0.0000      0.0000
 43      0.0000      0.3531      0.0000      0.3022      0.0000      1.4108      0.0000      0.0000      0.0000
 44      0.0000      0.1305      0.2991      0.9423      0.0000      0.0000      0.0000      0.1086      0.0000
 45      0.0000      0.1416      0.9964      0.0000      0.4434      0.0000      0.0000      0.0000      0.0000
 46      0.0000      0.2929      0.0000      0.0000      0.5398      0.0000      0.0000      0.0000      0.0000
