###################################################################
## OUTPUT of StarlightChains_v04.for    [Cid@UFSC - 01/Apr/2007] ##
###################################################################

## Some input info
2003I.txt                                [arq_obs]
Base.CB07.vall.4m                        [arq_base]
Masks.EmLines.NEW.gm                     [arq_masks]
StCv04.C11.config                        [arq_config]
   66                                    [N_base]
    0                                    [N_YAV_components = # of components with extra extinction!]
    0                                    [i_FitPowerLaw (1/0 = Yes/No)]
-9.99                                    [alpha_PowerLaw]
CCM                                      [red_law_option]
 1.458241                                [q_norm = A(l_norm)/A(V)]

## (Re)Sampling Parameters
 3741.00                                 [l_ini (A)]
 7218.00                                 [l_fin (A)]
    1.00                                 [dl    (A)]     (OBS: dl_cushion =    50.00 A)

## Normalization info
 4020.00                                 [l_norm (A) - for base]
 4010.00                                 [llow_norm (A) - window for f_obs]
 4060.00                                 [lupp_norm (A) - window for f_obs]
8.094570E-17                             [fobs_norm (in input units)]

## S/N
 3691.00                                 [llow_SN (A) - window for S/N]
 7268.00                                 [lupp_SN (A) - window for S/N]
   4.769                                 [S/N in S/N window]
   6.707                                 [S/N in norm. window]
  10.955                                 [S/N_err in S/N window]
  15.408                                 [S/N_err in norm. window]
  1.0000                                 [fscale_chi2]

## etc...
    -2007279                             [idum_orig]
  2382                                   [NOl_eff]
  2309                                   [Nl_eff]
    73    NSIGMA                         [Ntot_cliped & clip_method]
  1109010                                [Nglobal_steps]
   7                                     [N_chains]
  19                                     [NEX0s_base = N_base in EX0s-fits]
 0   0   1       10   2.0   2.976E+01    [Clip-Bug, RC-Crash & Burn-In warning-flags, n_censored_weights, wei_nsig_threshold & wei_limit]
    11     11.384     10.890      0.494  [idt_all, wdt_TotTime, wdt_UsrTime & wdt_SysTime (sec)]

## Synthesis Results - Best model ##

 5.41151E-01                             [chi2/Nl_eff]
     4.78533                             [adev (%)]

    99.49758                             [sum-of-x (%)]
 8.89482E-17                             [Flux_tot (units of input spectrum!)]
 2.48625E-13                             [Mini_tot (???)]
 1.52625E-13                             [Mcor_tot (???)]

 -36.66                                  [v0_min  (km/s)]
 228.55                                  [vd_min  (km/s)]
 0.0739                                  [AV_min  (mag)]
 0.0000                                  [YAV_min (mag)]

# j     x_j(%)      Mini_j(%)     Mcor_j(%)     age_j(yr)     Z_j      (L/M)_j    YAV?  Mstars   component_j        a/Fe...       SSP_chi2r SSP_adev(%)   SSP_AV   SSP_x(%)
  1      0.0000     0.0000E+00    0.0000E+00    1.000000E+06  0.00400  1.094E-02    0   1.0000   age020_m42            0.0000     1.0591E+00     6.5985   2.4049    80.3728
  2      0.0000     0.0000E+00    0.0000E+00    3.160000E+06  0.00400  4.007E-02    0   0.9999   age045_m42            0.0000     7.7567E-01     5.7761   1.6548    87.0284
  3      0.0000     0.0000E+00    0.0000E+00    5.010000E+06  0.00400  2.539E-02    0   0.9488   age055_m42            0.0000     8.8821E-01     6.0958   1.9851    84.4093
  4      0.0000     0.0000E+00    0.0000E+00    6.610000E+06  0.00400  2.620E-02    0   0.9220   age061_m42            0.0000     7.5935E-01     5.6782   1.5781    87.3591
  5      0.0000     0.0000E+00    0.0000E+00    1.000000E+07  0.00400  1.322E-02    0   0.8862   age070_m42            0.0000     7.9516E-01     5.6423   1.2830    89.6975
  6      0.1544     7.0448E-03    9.8360E-03    1.445000E+07  0.00400  7.883E-03    0   0.8571   age078_m42            0.0000     8.6109E-01     5.8573   1.6193    87.0284
  7      0.0000     0.0000E+00    0.0000E+00    2.512000E+07  0.00400  5.251E-03    0   0.8174   age090_m42            0.0000     7.9946E-01     5.6632   1.1487    90.3756
  8      3.5147     3.4633E-01    4.4293E-01    4.000000E+07  0.00400  3.649E-03    0   0.7851   age104_m42            0.0000     7.4168E-01     5.4680   0.9166    91.3610
  9      0.4163     4.8321E-02    6.0052E-02    5.500000E+07  0.00400  3.098E-03    0   0.7629   age110_m42            0.0000     6.8722E-01     5.3024   1.0719    91.3659
 10      0.0000     0.0000E+00    0.0000E+00    1.015200E+08  0.00400  2.228E-03    0   0.7207   age116_m42            0.0000     6.6790E-01     5.2512   1.0925    91.5693
 11      0.0000     0.0000E+00    0.0000E+00    2.861200E+08  0.00400  1.093E-03    0   0.6648   age125_m42            0.0000     6.8007E-01     5.2848   0.5106    94.9854
 12      0.0000     0.0000E+00    0.0000E+00    5.088000E+08  0.00400  6.597E-04    0   0.6365   age130_m42            0.0000     6.3883E-01     5.1359   0.5016    95.7877
 13     10.6507     1.7963E+01    1.6965E+01    1.434000E+09  0.00400  2.132E-04    0   0.5798   age139_m42            0.0000     5.5963E-01     4.8815  -0.4815    98.2305
 14      0.0000     0.0000E+00    0.0000E+00    4.250000E+09  0.00400  5.895E-05    0   0.5377   age158_m42            0.0000     6.6065E-01     5.3228  -0.9060    93.7896
 15      0.0000     0.0000E+00    0.0000E+00    7.500000E+09  0.00400  3.510E-05    0   0.5212   age171_m42            0.0000     7.7785E-01     5.6782  -1.0000    89.5703
 16      0.0000     0.0000E+00    0.0000E+00    1.300000E+10  0.00400  2.005E-05    0   0.5034   age193_m42            0.0000     1.0997E+00     6.7041  -1.0000    82.9378
 17      0.0000     0.0000E+00    0.0000E+00    1.800000E+10  0.00400  1.525E-05    0   0.4967   age213_m42            0.0000     1.1438E+00     6.8699  -1.0000    81.7032
 18      0.0000     0.0000E+00    0.0000E+00    1.000000E+06  0.00800  1.238E-02    0   1.0000   age020_m52            0.0000     1.0614E+00     6.6012   2.4021    80.4970
 19      0.0000     0.0000E+00    0.0000E+00    3.160000E+06  0.00800  3.074E-02    0   0.9966   age045_m52            0.0000     1.0398E+00     6.5404   2.3245    81.2481
 20      0.0000     0.0000E+00    0.0000E+00    5.010000E+06  0.00800  2.668E-02    0   0.9443   age055_m52            0.0000     9.1975E-01     6.1504   2.0701    83.5308
 21      0.0000     0.0000E+00    0.0000E+00    6.610000E+06  0.00800  2.136E-02    0   0.9177   age061_m52            0.0000     7.6363E-01     5.4644   0.7839    90.6669
 22      0.0000     0.0000E+00    0.0000E+00    1.000000E+07  0.00800  1.215E-02    0   0.8827   age070_m52            0.0000     8.7494E-01     5.8721   1.4626    89.4602
 23      0.0000     0.0000E+00    0.0000E+00    1.445000E+07  0.00800  8.717E-03    0   0.8552   age078_m52            0.0000     8.3211E-01     5.7328   1.5809    88.3914
 24      1.3402     8.6173E-02    1.1457E-01    2.512000E+07  0.00800  5.592E-03    0   0.8162   age090_m52            0.0000     7.9420E-01     5.6205   1.2085    91.6301
 25      1.3743     1.2683E-01    1.6200E-01    4.000000E+07  0.00800  3.896E-03    0   0.7841   age104_m52            0.0000     7.3480E-01     5.4266   1.1182    92.5375
 26      0.0000     0.0000E+00    0.0000E+00    1.015200E+08  0.00800  2.148E-03    0   0.7226   age116_m52            0.0000     6.6460E-01     5.2024   1.0578    92.4019
 27      0.0000     0.0000E+00    0.0000E+00    2.861200E+08  0.00800  9.925E-04    0   0.6683   age125_m52            0.0000     6.2191E-01     5.0450   0.5626    96.8421
 28      0.0000     0.0000E+00    0.0000E+00    9.047900E+08  0.00800  3.141E-04    0   0.6138   age135_m52            0.0000     6.0362E-01     5.0748  -0.2466   101.5540
 29      0.0000     0.0000E+00    0.0000E+00    1.434000E+09  0.00800  1.719E-04    0   0.5853   age139_m52            0.0000     6.3661E-01     5.2610  -0.8208    99.1955
 30      0.0000     0.0000E+00    0.0000E+00    2.500000E+09  0.00800  7.872E-05    0   0.5600   age150_m52            0.0000     7.7469E-01     5.7357  -1.0000    92.9690
 31      0.0000     0.0000E+00    0.0000E+00    4.250000E+09  0.00800  4.336E-05    0   0.5426   age158_m52            0.0000     8.1540E-01     5.8145  -1.0000    91.4942
 32      0.0000     0.0000E+00    0.0000E+00    6.250000E+09  0.00800  3.159E-05    0   0.5319   age166_m52            0.0000     1.2512E+00     7.0803  -1.0000    83.7949
 33      0.3015     7.9660E+00    6.5830E+00    1.300000E+10  0.00800  1.361E-05    0   0.5073   age193_m52            0.0000     3.1547E+00    12.0679  -1.0000    67.0809
 34      0.0000     0.0000E+00    0.0000E+00    1.800000E+10  0.00800  9.886E-06    0   0.4990   age213_m52            0.0000     3.8007E+00    13.2683  -1.0000    63.4617
 35      1.5521     3.6144E-02    5.8879E-02    1.000000E+06  0.02000  1.544E-02    0   1.0000   age020_m62            0.0000     1.0716E+00     6.6296   2.3990    80.6466
 36      0.0000     0.0000E+00    0.0000E+00    3.160000E+06  0.02000  3.762E-02    0   0.9858   age045_m62            0.0000     1.0706E+00     6.6396   2.3386    81.3312
 37      0.0000     0.0000E+00    0.0000E+00    5.010000E+06  0.02000  3.296E-02    0   0.9342   age055_m62            0.0000     8.3570E-01     5.9391   1.9417    85.6227
 38     10.6882     3.3303E-01    4.8071E-01    8.710000E+06  0.02000  1.154E-02    0   0.8861   age067_m62            0.0000     1.5404E+00     8.0198   0.8974    92.4408
 39      1.1543     5.4163E-02    7.4749E-02    1.445000E+07  0.02000  7.663E-03    0   0.8472   age078_m62            0.0000     9.9770E-01     6.2760   1.0998    91.8846
 40      0.0000     0.0000E+00    0.0000E+00    2.512000E+07  0.02000  4.532E-03    0   0.8099   age090_m62            0.0000     1.0344E+00     6.4246   1.0897    91.7534
 41      0.0000     0.0000E+00    0.0000E+00    5.500000E+07  0.02000  2.733E-03    0   0.7595   age110_m62            0.0000     7.4911E-01     5.4464   1.1030    91.7551
 42      0.0000     0.0000E+00    0.0000E+00    1.609000E+08  0.02000  1.369E-03    0   0.6985   age120_m62            0.0000     6.5170E-01     5.1105   0.9332    94.7951
 43      0.0000     0.0000E+00    0.0000E+00    2.861200E+08  0.02000  9.013E-04    0   0.6714   age125_m62            0.0000     6.2816E-01     5.0034   0.6727    98.0385
 44     10.0200     7.1656E+00    7.5277E+00    5.088000E+08  0.02000  5.028E-04    0   0.6449   age130_m62            0.0000     6.2739E-01     5.1000   0.2915   100.9631
 45      0.0015     2.2804E-03    2.2953E-03    9.047900E+08  0.02000  2.428E-04    0   0.6179   age135_m62            0.0000     6.3310E-01     5.2328  -0.2936   100.4129
 46      0.0000     0.0000E+00    0.0000E+00    1.434000E+09  0.02000  1.263E-04    0   0.5908   age139_m62            0.0000     7.0642E-01     5.5402  -0.7338    98.7680
 47      0.0000     0.0000E+00    0.0000E+00    2.500000E+09  0.02000  5.985E-05    0   0.5673   age150_m62            0.0000     9.1076E-01     6.1624  -1.0000    93.4167
 48      0.0000     0.0000E+00    0.0000E+00    4.250000E+09  0.02000  3.271E-05    0   0.5468   age158_m62            0.0000     1.7007E+00     8.2296  -1.0000    81.0019
 49      0.0000     0.0000E+00    0.0000E+00    1.000000E+10  0.02000  1.360E-05    0   0.5167   age181_m62            0.0000     3.3093E+00    11.8241  -1.0000    68.7319
 50      0.0000     0.0000E+00    0.0000E+00    1.800000E+10  0.02000  7.124E-06    0   0.5013   age213_m62            0.0000     4.5362E+00    14.1331  -1.0000    61.7496
 51      0.0000     0.0000E+00    0.0000E+00    1.000000E+06  0.05000  2.592E-02    0   0.9998   age020_m72            0.0000     1.1068E+00     6.6995   2.3925    80.5711
 52      0.0000     0.0000E+00    0.0000E+00    3.160000E+06  0.05000  4.845E-02    0   0.9577   age045_m72            0.0000     9.8280E-01     6.3989   2.2158    82.6792
 53      0.0000     0.0000E+00    0.0000E+00    5.010000E+06  0.05000  3.072E-02    0   0.9147   age055_m72            0.0000     1.0197E+00     6.3262   1.7096    87.5462
 54      0.0000     0.0000E+00    0.0000E+00    6.610000E+06  0.05000  1.455E-02    0   0.8877   age061_m72            0.0000     2.4255E+00    10.2599   0.9468    93.4774
 55      0.0000     0.0000E+00    0.0000E+00    1.000000E+07  0.05000  9.074E-03    0   0.8524   age070_m72            0.0000     1.2185E+00     6.9774   1.9010    87.2263
 56      0.0000     0.0000E+00    0.0000E+00    2.512000E+07  0.05000  4.250E-03    0   0.7902   age090_m72            0.0000     9.9101E-01     6.3214   1.5809    89.5654
 57      0.0000     0.0000E+00    0.0000E+00    4.000000E+07  0.05000  3.087E-03    0   0.7618   age104_m72            0.0000     9.8154E-01     6.2998   1.3420    91.5084
 58      0.0000     0.0000E+00    0.0000E+00    1.015200E+08  0.05000  1.700E-03    0   0.7096   age116_m72            0.0000     7.0173E-01     5.2996   1.0747    94.4215
 59      1.2476     6.0755E-01    6.5646E-01    2.861200E+08  0.05000  7.384E-04    0   0.6633   age125_m72            0.0000     6.1590E-01     4.9899   0.5347    99.7440
 60     47.5174     4.4739E+01    4.6438E+01    5.088000E+08  0.05000  3.819E-04    0   0.6372   age130_m72            0.0000     6.1092E-01     5.1418   0.0406   101.5211
 61      9.5643     2.0519E+01    2.0423E+01    9.047900E+08  0.05000  1.676E-04    0   0.6110   age135_m72            0.0000     8.0611E-01     6.0174  -0.6429    99.3143
 62      0.0000     0.0000E+00    0.0000E+00    1.434000E+09  0.05000  8.837E-05    0   0.5874   age139_m72            0.0000     9.6865E-01     6.3349  -1.0000    94.7882
 63      0.0000     0.0000E+00    0.0000E+00    2.500000E+09  0.05000  4.233E-05    0   0.5598   age150_m72            0.0000     1.7948E+00     8.4138  -1.0000    81.7086
 64      0.0000     0.0000E+00    0.0000E+00    6.250000E+09  0.05000  1.435E-05    0   0.5249   age166_m72            0.0000     3.8441E+00    12.9347  -1.0000    65.3682
 65      0.0000     0.0000E+00    0.0000E+00    1.300000E+10  0.05000  6.513E-06    0   0.5036   age193_m72            0.0000     5.5669E+00    16.0246  -1.0000    57.7046
 66      0.0000     0.0000E+00    0.0000E+00    1.800000E+10  0.05000  4.527E-06    0   0.4945   age213_m72            0.0000     6.6389E+00    17.7466  -1.0000    53.2484


## Synthesis Results - Average & Chains ##

# j      x_j: min, <> & last-chain-values for 1 ...  7 chains
  1      0.0000      0.2944      1.3000      0.0000      0.5417      1.3686      0.0000      0.7024      0.2258
  2      0.0000      0.4411      0.0000      0.7321      0.5959      0.0000      0.0000      0.2442      0.0000
  3      0.0000      0.4631      0.8226      0.0000      1.0339      0.0000      0.0000      0.2679      0.1387
  4      0.0000      0.3394      1.6666      0.0019      0.0000      0.0000      0.1814      0.0000      0.0000
  5      0.0000      0.5906      0.3790      1.7394      0.0000      0.0887      0.0000      0.0298      1.0508
  6      0.1544      0.4950      0.0000      0.0000      0.0000      0.0984      2.4674      0.0000      1.0617
  7      0.0000      0.5647      0.0000      0.0000      1.0356      0.0077      0.0000      0.0000      0.0000
  8      3.5147      0.8771      0.0000      0.0000      0.0000      2.6055      1.1929      3.0687      1.0608
  9      0.4163      0.5342      0.0000      0.0877      1.6265      0.0000      0.7413      0.4523      0.0000
 10      0.0000      0.8002      0.0000      0.0000      0.9337      0.0000      1.4543      4.2133      3.5700
 11      0.0000      1.2256      0.0000      0.0000      0.1541      0.0000      0.0000      0.1798      0.0000
 12      0.0000      1.3186      0.0000      0.0000      0.0000      0.0000      0.0000      0.3127      0.0000
 13     10.6507      1.9765      2.8019      4.1051      1.3753      2.5102      2.6512      2.6582      2.6098
 14      0.0000      0.3030      0.0000      0.6973      0.0000      0.0000      0.0159      0.0000      2.0458
 15      0.0000      0.1253      0.0000      0.0000      0.2085      0.7289      0.0000      0.8362      0.0000
 16      0.0000      0.1388      0.0000      0.1787      0.0000      0.1082      0.0000      0.0000      0.4193
 17      0.0000      0.2478      0.0000      0.3930      0.5120      0.0000      0.0350      0.0000      0.0000
 18      0.0000      0.2677      0.3334      0.0000      0.0000      0.2978      0.0000      0.0000      0.0000
 19      0.0000      0.2843      0.0000      0.6100      0.0000      0.0000      0.0000      0.1123      1.6052
 20      0.0000      0.2591      0.0865      0.0174      0.0000      0.0000      0.0000      0.0000      0.0000
 21      0.0000      1.8876      3.8799      5.5012      1.9467      4.0129      0.0000      1.3974      0.0000
 22      0.0000      0.3105      0.0000      0.0000      1.3708      0.5006      0.4170      0.2277      0.0000
 23      0.0000      0.3622      1.3213      1.0331      0.0139      0.0000      0.2352      0.0000      0.3387
 24      1.3402      0.9591      1.8595      1.4032      1.0097      1.9866      2.9362      1.4280      0.0000
 25      1.3743      1.2529      0.0000      1.1037      1.9615      0.8162      4.1285      2.7813      4.6707
 26      0.0000      2.1886      0.3857      0.9495      4.6490      1.6137      0.0000      3.2735      2.3954
 27      0.0000      1.0397      0.0000      0.0000      0.5052      0.5501      0.0000      0.9013      0.0000
 28      0.0000      1.2600      0.0000      0.0000      0.0000      1.4884      0.0000      3.6232      1.6112
 29      0.0000      0.4577      1.5373      1.6704      0.0000      0.0053      0.5080      0.0000      0.6917
 30      0.0000      0.1165      0.0000      0.0000      0.0000      1.0737      0.0000      0.0000      0.0000
 31      0.0000      0.1614      0.0000      0.0000      0.0000      0.0000      0.0000      0.0000      0.3453
 32      0.0000      0.6144      4.5834      0.0000      0.0000      0.0000      0.2752      0.0000      0.0000
 33      0.3015      0.0915      0.0000      0.0000      0.6708      0.0000      0.4203      0.0000      0.0414
 34      0.0000      0.0221      0.0000      0.0000      0.0926      0.0000      0.2447      0.0000      0.0000
 35      1.5521      0.2681      0.0000      0.0000      0.0000      1.3923      1.3281      0.0000      0.0000
 36      0.0000      0.2015      0.0000      0.0000      0.2789      0.0000      0.0000      0.0000      0.0000
 37      0.0000      0.4995      0.3437      0.0000      0.0000      0.2129      0.0000      0.0000      0.0000
 38     10.6882      2.0870      3.4828      4.0524      1.9295      2.1262      5.9711      5.1069      3.7903
 39      1.1543      1.0970      0.8417      1.9861      2.2543      0.3990      0.4763      0.0000      0.0000
 40      0.0000      0.9871      3.6875      0.0000      1.0004      3.2858      0.0000      0.2563      0.7557
 41      0.0000      0.6517      0.0000      0.0000      2.1350      0.0000      0.0064      0.0000      2.4403
 42      0.0000      0.7125      0.0000      0.7640      1.2704      0.5010      0.0000      0.8126      0.0000
 43      0.0000      2.7123      2.0992      2.4970      2.1407      4.8446      3.0561      3.2234      2.3400
 44     10.0200      8.8413     15.0152     10.9883     10.6678     12.0005      6.2642      8.5531      7.9501
 45      0.0015      2.0329      0.0000      3.5289      0.0000      0.0000      1.5394      4.3203      0.7040
 46      0.0000      0.7206      0.0000      0.0000      0.8533      1.6887      0.0000      1.6578      0.0000
