###################################################################
## OUTPUT of StarlightChains_v04.for    [Cid@UFSC - 01/Apr/2007] ##
###################################################################

## Some input info
2003hg.txt                               [arq_obs]
Base.CB07.vall.4m                        [arq_base]
Masks.EmLines.NEW.gm                     [arq_masks]
StCv04.C11.config                        [arq_config]
   66                                    [N_base]
    0                                    [N_YAV_components = # of components with extra extinction!]
    0                                    [i_FitPowerLaw (1/0 = Yes/No)]
-9.99                                    [alpha_PowerLaw]
CCM                                      [red_law_option]
 1.458241                                [q_norm = A(l_norm)/A(V)]

## (Re)Sampling Parameters
 3741.00                                 [l_ini (A)]
 7218.00                                 [l_fin (A)]
    1.00                                 [dl    (A)]     (OBS: dl_cushion =    50.00 A)

## Normalization info
 4020.00                                 [l_norm (A) - for base]
 4010.00                                 [llow_norm (A) - window for f_obs]
 4060.00                                 [lupp_norm (A) - window for f_obs]
4.117763E-16                             [fobs_norm (in input units)]

## S/N
 3691.00                                 [llow_SN (A) - window for S/N]
 7268.00                                 [lupp_SN (A) - window for S/N]
   6.593                                 [S/N in S/N window]
   5.890                                 [S/N in norm. window]
  10.000                                 [S/N_err in S/N window]
   8.934                                 [S/N_err in norm. window]
  1.0000                                 [fscale_chi2]

## etc...
    -2007278                             [idum_orig]
  2307                                   [NOl_eff]
  2307                                   [Nl_eff]
     0    NSIGMA                         [Ntot_cliped & clip_method]
  1214640                                [Nglobal_steps]
   7                                     [N_chains]
  23                                     [NEX0s_base = N_base in EX0s-fits]
 0   0   1      131   2.0   1.338E+01    [Clip-Bug, RC-Crash & Burn-In warning-flags, n_censored_weights, wei_nsig_threshold & wei_limit]
    11     10.716     10.220      0.496  [idt_all, wdt_TotTime, wdt_UsrTime & wdt_SysTime (sec)]

## Synthesis Results - Best model ##

 1.68879E-01                             [chi2/Nl_eff]
     3.09514                             [adev (%)]

   104.40665                             [sum-of-x (%)]
 8.14829E-16                             [Flux_tot (units of input spectrum!)]
 1.06045E-11                             [Mini_tot (???)]
 5.81276E-12                             [Mcor_tot (???)]

-202.41                                  [v0_min  (km/s)]
 291.80                                  [vd_min  (km/s)]
 0.4760                                  [AV_min  (mag)]
 0.0000                                  [YAV_min (mag)]

# j     x_j(%)      Mini_j(%)     Mcor_j(%)     age_j(yr)     Z_j      (L/M)_j    YAV?  Mstars   component_j        a/Fe...       SSP_chi2r SSP_adev(%)   SSP_AV   SSP_x(%)
  1      1.6413     1.1041E-02    2.0143E-02    1.000000E+06  0.00400  1.094E-02    0   1.0000   age020_m42            0.0000     7.2120E-01     6.3469   3.5373    86.2615
  2      0.0000     0.0000E+00    0.0000E+00    3.160000E+06  0.00400  4.007E-02    0   0.9999   age045_m42            0.0000     4.8915E-01     5.1607   2.7872    93.1799
  3      0.0000     0.0000E+00    0.0000E+00    5.010000E+06  0.00400  2.539E-02    0   0.9488   age055_m42            0.0000     5.8218E-01     5.6717   3.1190    90.4120
  4      0.0000     0.0000E+00    0.0000E+00    6.610000E+06  0.00400  2.620E-02    0   0.9220   age061_m42            0.0000     5.0255E-01     5.1677   2.7132    93.3730
  5      0.0000     0.0000E+00    0.0000E+00    1.000000E+07  0.00400  1.322E-02    0   0.8862   age070_m42            0.0000     6.3415E-01     5.8929   2.4405    94.7774
  6      0.0000     0.0000E+00    0.0000E+00    1.445000E+07  0.00400  7.883E-03    0   0.8571   age078_m42            0.0000     6.7501E-01     6.1172   2.7731    92.1804
  7      0.0000     0.0000E+00    0.0000E+00    2.512000E+07  0.00400  5.251E-03    0   0.8174   age090_m42            0.0000     6.5655E-01     6.0544   2.3090    95.3291
  8      0.0000     0.0000E+00    0.0000E+00    4.000000E+07  0.00400  3.649E-03    0   0.7851   age104_m42            0.0000     5.9348E-01     5.7440   2.0760    96.3932
  9      2.4189     5.7463E-02    7.9976E-02    5.500000E+07  0.00400  3.098E-03    0   0.7629   age110_m42            0.0000     5.3102E-01     5.2652   2.2217    96.8302
 10      0.0000     0.0000E+00    0.0000E+00    1.015200E+08  0.00400  2.228E-03    0   0.7207   age116_m42            0.0000     5.1077E-01     5.0557   2.2373    97.2863
 11      0.0000     0.0000E+00    0.0000E+00    2.861200E+08  0.00400  1.093E-03    0   0.6648   age125_m42            0.0000     5.2997E-01     5.3921   1.6658   100.3199
 12      0.0000     0.0000E+00    0.0000E+00    5.088000E+08  0.00400  6.597E-04    0   0.6365   age130_m42            0.0000     4.7460E-01     5.0407   1.6475   101.6569
 13      9.6815     3.3420E+00    3.5350E+00    1.434000E+09  0.00400  2.132E-04    0   0.5798   age139_m42            0.0000     2.8304E-01     4.0058   0.6634   104.3379
 14     16.1804     2.0200E+01    1.9815E+01    4.250000E+09  0.00400  5.895E-05    0   0.5377   age158_m42            0.0000     1.8601E-01     3.3098   0.2211   100.4934
 15      0.0000     0.0000E+00    0.0000E+00    7.500000E+09  0.00400  3.510E-05    0   0.5212   age171_m42            0.0000     2.1814E-01     3.5386   0.0307    99.9988
 16      0.0000     0.0000E+00    0.0000E+00    1.300000E+10  0.00400  2.005E-05    0   0.5034   age193_m42            0.0000     2.6935E-01     3.8626  -0.1361    99.5941
 17      0.0000     0.0000E+00    0.0000E+00    1.800000E+10  0.00400  1.525E-05    0   0.4967   age213_m42            0.0000     2.6029E-01     3.8070  -0.1573    99.0692
 18      0.0000     0.0000E+00    0.0000E+00    1.000000E+06  0.00800  1.238E-02    0   1.0000   age020_m52            0.0000     7.1909E-01     6.3409   3.5336    86.4318
 19      0.0000     0.0000E+00    0.0000E+00    3.160000E+06  0.00800  3.074E-02    0   0.9966   age045_m52            0.0000     6.9100E-01     6.2139   3.4546    87.2858
 20      0.0000     0.0000E+00    0.0000E+00    5.010000E+06  0.00800  2.668E-02    0   0.9443   age055_m52            0.0000     6.0841E-01     5.8040   3.2047    89.4718
 21      0.0000     0.0000E+00    0.0000E+00    6.610000E+06  0.00800  2.136E-02    0   0.9177   age061_m52            0.0000     5.2514E-01     5.5044   1.9380    95.9810
 22      0.0000     0.0000E+00    0.0000E+00    1.000000E+07  0.00800  1.215E-02    0   0.8827   age070_m52            0.0000     7.1073E-01     6.3763   2.6269    94.2643
 23      0.0000     0.0000E+00    0.0000E+00    1.445000E+07  0.00800  8.717E-03    0   0.8552   age078_m52            0.0000     6.4790E-01     5.9813   2.7361    93.5588
 24      1.8333     2.4127E-02    3.5926E-02    2.512000E+07  0.00800  5.592E-03    0   0.8162   age090_m52            0.0000     6.4385E-01     6.0124   2.3733    96.4889
 25      0.6020     1.1371E-02    1.6266E-02    4.000000E+07  0.00800  3.896E-03    0   0.7841   age104_m52            0.0000     5.7938E-01     5.6600   2.2793    97.5698
 26      0.0000     0.0000E+00    0.0000E+00    1.015200E+08  0.00800  2.148E-03    0   0.7226   age116_m52            0.0000     4.9480E-01     5.1127   2.2085    97.8974
 27      0.0153     1.1338E-03    1.3824E-03    2.861200E+08  0.00800  9.925E-04    0   0.6683   age125_m52            0.0000     4.7011E-01     4.9480   1.7119   102.6421
 28      0.0000     0.0000E+00    0.0000E+00    9.047900E+08  0.00800  3.141E-04    0   0.6138   age135_m52            0.0000     3.0517E-01     4.1325   0.8924   108.1255
 29      0.0000     0.0000E+00    0.0000E+00    1.434000E+09  0.00800  1.719E-04    0   0.5853   age139_m52            0.0000     2.1199E-01     3.4912   0.3196   105.6434
 30      0.0031     2.8740E-03    2.9362E-03    2.500000E+09  0.00800  7.872E-05    0   0.5600   age150_m52            0.0000     2.2111E-01     3.5171   0.0426   103.2372
 31      0.0000     0.0000E+00    0.0000E+00    4.250000E+09  0.00800  4.336E-05    0   0.5426   age158_m52            0.0000     2.4023E-01     3.6622   0.0276   102.2399
 32      0.0000     0.0000E+00    0.0000E+00    6.250000E+09  0.00800  3.159E-05    0   0.5319   age166_m52            0.0000     3.2652E-01     4.1526  -0.1809   102.6150
 33      0.0000     0.0000E+00    0.0000E+00    1.300000E+10  0.00800  1.361E-05    0   0.5073   age193_m52            0.0000     4.9757E-01     4.8950  -0.6568   102.3673
 34      0.0000     0.0000E+00    0.0000E+00    1.800000E+10  0.00800  9.886E-06    0   0.4990   age213_m52            0.0000     6.6110E-01     5.6065  -0.7704   102.1990
 35      0.0000     0.0000E+00    0.0000E+00    1.000000E+06  0.02000  1.544E-02    0   1.0000   age020_m62            0.0000     7.2577E-01     6.3717   3.5300    86.6185
 36      5.2820     1.0333E-02    1.8583E-02    3.160000E+06  0.02000  3.762E-02    0   0.9858   age045_m62            0.0000     7.1746E-01     6.3458   3.4678    87.4221
 37      0.0000     0.0000E+00    0.0000E+00    5.010000E+06  0.02000  3.296E-02    0   0.9342   age055_m62            0.0000     5.3331E-01     5.3582   3.0729    91.8092
 38      5.1115     3.2598E-02    5.2696E-02    8.710000E+06  0.02000  1.154E-02    0   0.8861   age067_m62            0.0000     1.3836E+00     9.7262   2.1020    95.4879
 39      0.0000     0.0000E+00    0.0000E+00    1.445000E+07  0.02000  7.663E-03    0   0.8472   age078_m62            0.0000     8.2347E-01     7.1514   2.2793    96.1171
 40      0.0000     0.0000E+00    0.0000E+00    2.512000E+07  0.02000  4.532E-03    0   0.8099   age090_m62            0.0000     8.6520E-01     7.3062   2.2720    95.8325
 41      0.0504     1.3566E-03    1.8797E-03    5.500000E+07  0.02000  2.733E-03    0   0.7595   age110_m62            0.0000     5.8807E-01     5.6793   2.2646    96.7533
 42      0.0000     0.0000E+00    0.0000E+00    1.609000E+08  0.02000  1.369E-03    0   0.6985   age120_m62            0.0000     5.2436E-01     5.1229   2.0842   100.3881
 43      0.0000     0.0000E+00    0.0000E+00    2.861200E+08  0.02000  9.013E-04    0   0.6714   age125_m62            0.0000     5.2863E-01     5.1136   1.8197   103.9781
 44      0.0000     0.0000E+00    0.0000E+00    5.088000E+08  0.02000  5.028E-04    0   0.6449   age130_m62            0.0000     4.4345E-01     4.7947   1.4242   107.7659
 45      0.0000     0.0000E+00    0.0000E+00    9.047900E+08  0.02000  2.428E-04    0   0.6179   age135_m62            0.0000     2.5111E-01     3.7184   0.8327   107.5300
 46      0.0000     0.0000E+00    0.0000E+00    1.434000E+09  0.02000  1.263E-04    0   0.5908   age139_m62            0.0000     2.2044E-01     3.5375   0.3888   105.9681
 47      0.0015     1.8270E-03    1.8909E-03    2.500000E+09  0.02000  5.985E-05    0   0.5673   age150_m62            0.0000     2.9703E-01     4.0171   0.0178   104.8278
 48      0.0000     0.0000E+00    0.0000E+00    4.250000E+09  0.02000  3.271E-05    0   0.5468   age158_m62            0.0000     4.6699E-01     4.8748  -0.2958   104.4397
 49      0.0000     0.0000E+00    0.0000E+00    1.000000E+10  0.02000  1.360E-05    0   0.5167   age181_m62            0.0000     7.9103E-01     6.2170  -0.6548   104.6136
 50      0.0000     0.0000E+00    0.0000E+00    1.800000E+10  0.02000  7.124E-06    0   0.5013   age213_m62            0.0000     1.0831E+00     7.3525  -0.8699   104.1252
 51      0.0000     0.0000E+00    0.0000E+00    1.000000E+06  0.05000  2.592E-02    0   0.9998   age020_m72            0.0000     7.5471E-01     6.4860   3.5240    86.5331
 52      0.0000     0.0000E+00    0.0000E+00    3.160000E+06  0.05000  4.845E-02    0   0.9577   age045_m72            0.0000     6.3343E-01     5.9482   3.3436    88.8897
 53      0.9506     2.2773E-03    3.8001E-03    5.010000E+06  0.05000  3.072E-02    0   0.9147   age055_m72            0.0000     7.6063E-01     6.6695   2.8744    92.3804
 54      0.0000     0.0000E+00    0.0000E+00    6.610000E+06  0.05000  1.455E-02    0   0.8877   age061_m72            0.0000     1.8990E+00    11.7716   2.1788    95.5292
 55      0.0000     0.0000E+00    0.0000E+00    1.000000E+07  0.05000  9.074E-03    0   0.8524   age070_m72            0.0000     8.1897E-01     6.9727   3.0747    91.8567
 56      0.0000     0.0000E+00    0.0000E+00    2.512000E+07  0.05000  4.250E-03    0   0.7902   age090_m72            0.0000     7.2932E-01     6.4347   2.7516    94.2085
 57      0.0000     0.0000E+00    0.0000E+00    4.000000E+07  0.05000  3.087E-03    0   0.7618   age104_m72            0.0000     7.4150E-01     6.5069   2.5182    95.9691
 58      0.0000     0.0000E+00    0.0000E+00    1.015200E+08  0.05000  1.700E-03    0   0.7096   age116_m72            0.0000     5.7893E-01     5.4685   2.2336    99.6593
 59      0.0000     0.0000E+00    0.0000E+00    2.861200E+08  0.05000  7.384E-04    0   0.6633   age125_m72            0.0000     4.9154E-01     4.9190   1.6772   105.9717
 60      0.0000     0.0000E+00    0.0000E+00    5.088000E+08  0.05000  3.819E-04    0   0.6372   age130_m72            0.0000     3.1790E-01     4.0497   1.1701   108.5402
 61     40.5583     1.7810E+01    1.9852E+01    9.047900E+08  0.05000  1.676E-04    0   0.6110   age135_m72            0.0000     2.7640E-01     3.9851   0.4663   107.1599
 62      7.0425     5.8651E+00    6.2851E+00    1.434000E+09  0.05000  8.837E-05    0   0.5874   age139_m72            0.0000     3.3328E-01     4.2044   0.0125   106.6412
 63      8.6589     1.5054E+01    1.5375E+01    2.500000E+09  0.05000  4.233E-05    0   0.5598   age150_m72            0.0000     5.3776E-01     5.2098  -0.3017   105.6258
 64      1.9233     9.8636E+00    9.4454E+00    6.250000E+09  0.05000  1.435E-05    0   0.5249   age166_m72            0.0000     8.6013E-01     6.5593  -0.7534   104.3296
 65      2.4522     2.7709E+01    2.5457E+01    1.300000E+10  0.05000  6.513E-06    0   0.5036   age193_m72            0.0000     1.2543E+00     7.9384  -1.0000   104.2069
 66      0.0000     0.0000E+00    0.0000E+00    1.800000E+10  0.05000  4.527E-06    0   0.4945   age213_m72            0.0000     1.6482E+00     8.7872  -1.0000    98.0492


## Synthesis Results - Average & Chains ##

# j      x_j: min, <> & last-chain-values for 1 ...  7 chains
  1      1.6413      0.3186      0.0000      0.0000      0.0000      0.0000      1.8721      0.0000      1.5204
  2      0.0000      0.4827      2.2670      0.0000      0.0000      0.0000      0.0000      0.0000      0.0000
  3      0.0000      0.2864      0.0000      0.0000      0.3528      2.7442      0.0000      1.6992      0.0000
  4      0.0000      0.3657      0.0000      0.0000      0.8708      1.9431      0.0000      0.0000      0.0000
  5      0.0000      0.2484      0.0000      0.0000      0.1142      0.0000      0.0000      0.0000      0.0000
  6      0.0000      0.5698      0.0000      4.6309      0.0000      1.8767      0.8603      1.4704      0.0000
  7      0.0000      0.2366      0.0000      0.0000      0.1485      0.5919      0.8643      0.0000      0.0000
  8      0.0000      0.4210      0.7274      1.1168      0.0000      0.0000      0.0000      3.3241      0.0000
  9      2.4189      0.8788      0.0000      0.0000      0.0000      2.6997      2.2000      0.0000      1.7376
 10      0.0000      0.4107      4.1230      0.0000      1.0582      0.0000      0.0000      0.0000      0.0000
 11      0.0000      0.3974      0.0000      0.0000      0.0000      0.0000      0.0000      0.0000      0.7810
 12      0.0000      0.2634      0.0000      0.0000      0.0000      0.0000      0.0000      0.0000      0.0000
 13      9.6815      3.6915      6.2713      3.3784      4.3141      0.0000      9.7956      1.6487      5.6630
 14     16.1804      8.9490      6.5959      9.4261     11.7728      6.6707      8.1426     11.7544     10.3998
 15      0.0000      2.6899      2.1823      3.5700      6.1091      0.0000      1.9514      0.0000      1.8450
 16      0.0000      0.4900      0.9667      0.0000      1.2441      1.1877      0.2867      0.8292      0.0000
 17      0.0000      0.9793      0.0000      0.6921      0.0000      0.0000      1.1875      1.9255      0.0000
 18      0.0000      0.2179      1.7196      1.0892      0.0000      0.0000      0.0000      0.0000      0.0000
 19      0.0000      0.3337      0.0000      0.3361      0.0000      1.2723      0.0000      0.0000      0.0000
 20      0.0000      0.6891      1.3104      0.0000      3.0816      0.6046      1.9192      1.8903      0.0000
 21      0.0000      0.4858      0.0000      0.6859      0.0000      1.4760      0.0000      2.7254      0.0000
 22      0.0000      0.3461      0.0000      0.4478      1.0510      0.0000      0.0000      0.0098      0.0000
 23      0.0000      0.3357      0.7124      0.0000      0.6358      0.1961      0.0000      0.0000      0.0000
 24      1.8333      0.6087      2.9104      0.0000      0.0000      0.3263      0.0000      0.0000      3.6326
 25      0.6020      0.2634      0.0000      0.0000      1.2683      0.0000      0.0073      1.5353      1.4495
 26      0.0000      0.1992      0.0000      0.0000      0.0000      0.0000      0.0000      0.0000      0.0000
 27      0.0153      0.6662      0.0000      0.0000      0.0000      0.0000      0.0000      0.8728      1.3102
 28      0.0000      0.7612      0.0000      0.0000      0.0000      0.0000      0.0000      0.1179      0.0000
 29      0.0000      2.9909      0.0000      0.0000      0.0000      2.0845      0.0000      0.0000      0.0000
 30      0.0031      5.4367      2.6428      3.4711      1.0447      1.2926      7.0148      6.1647      4.4538
 31      0.0000      0.9452      0.0000      0.0000      3.2491      0.0000      1.8552      0.0000      0.0000
 32      0.0000      0.8089      0.0000      0.0000      0.0000      0.0000      0.0000      0.0000      0.0000
 33      0.0000      0.2653      0.0000      0.0000      0.0000      0.0000      0.4404      0.0000      0.0000
 34      0.0000      0.3123      1.2716      0.0000      0.0000      0.5442      0.5005      0.0000      0.0452
 35      0.0000      0.2692      1.0080      0.0000      0.0000      0.1167      0.0000      0.4677      0.0000
 36      5.2820      1.9245      0.0833      0.5951      2.6821      3.1377      3.9488      0.0000      4.4830
 37      0.0000      0.5521      1.5623      1.6053      0.0000      0.0000      0.5073      0.0000      0.0000
 38      5.1115      0.7575      0.0000      0.0000      1.6519      0.0000      2.0033      0.8240      2.1519
 39      0.0000      0.6563      0.0000      0.1951      1.6100      0.0000      0.0000      1.6711      0.0000
 40      0.0000      0.4510      0.3618      0.0000      1.5726      1.1524      0.0000      0.0000      0.0000
 41      0.0504      0.4913      1.1645      0.0000      1.7397      0.0000      0.7557      1.2254      1.4661
 42      0.0000      0.5447      0.0000      2.2583      0.0000      0.0000      0.0000      0.0000      0.0000
 43      0.0000      0.7962      1.4121      0.0000      0.9636      0.0000      0.4747      3.7229      0.0000
 44      0.0000      0.6488      0.0000      0.0000      1.3845      1.6353      0.0000      0.0000      0.0000
 45      0.0000      2.9674      4.5350      2.8081      0.0000      0.0000      0.5896      0.0000      1.7265
 46      0.0000      8.1078      6.8616      7.0464      0.9985      4.2322      1.3123      0.0000      5.2772
