###################################################################
## OUTPUT of StarlightChains_v04.for    [Cid@UFSC - 01/Apr/2007] ##
###################################################################

## Some input info
2003ih.txt                               [arq_obs]
Base.CB07.vall.4m                        [arq_base]
Masks.EmLines.NEW.gm                     [arq_masks]
StCv04.C11.config                        [arq_config]
   66                                    [N_base]
    0                                    [N_YAV_components = # of components with extra extinction!]
    0                                    [i_FitPowerLaw (1/0 = Yes/No)]
-9.99                                    [alpha_PowerLaw]
CCM                                      [red_law_option]
 1.458241                                [q_norm = A(l_norm)/A(V)]

## (Re)Sampling Parameters
 3741.00                                 [l_ini (A)]
 7218.00                                 [l_fin (A)]
    1.00                                 [dl    (A)]     (OBS: dl_cushion =    50.00 A)

## Normalization info
 4020.00                                 [l_norm (A) - for base]
 4010.00                                 [llow_norm (A) - window for f_obs]
 4060.00                                 [lupp_norm (A) - window for f_obs]
4.306046E-16                             [fobs_norm (in input units)]

## S/N
 3691.00                                 [llow_SN (A) - window for S/N]
 7268.00                                 [lupp_SN (A) - window for S/N]
   6.672                                 [S/N in S/N window]
   9.139                                 [S/N in norm. window]
  10.000                                 [S/N_err in S/N window]
  13.697                                 [S/N_err in norm. window]
  1.0000                                 [fscale_chi2]

## etc...
    -2007281                             [idum_orig]
  2383                                   [NOl_eff]
  2282                                   [Nl_eff]
   101    NSIGMA                         [Ntot_cliped & clip_method]
   910840                                [Nglobal_steps]
   7                                     [N_chains]
  14                                     [NEX0s_base = N_base in EX0s-fits]
 0   0   1        2   2.0   9.420E+01    [Clip-Bug, RC-Crash & Burn-In warning-flags, n_censored_weights, wei_nsig_threshold & wei_limit]
    13     12.946     12.449      0.497  [idt_all, wdt_TotTime, wdt_UsrTime & wdt_SysTime (sec)]

## Synthesis Results - Best model ##

 6.40367E-01                             [chi2/Nl_eff]
     5.75234                             [adev (%)]

    87.47149                             [sum-of-x (%)]
 8.53404E-16                             [Flux_tot (units of input spectrum!)]
 2.07572E-12                             [Mini_tot (???)]
 1.25924E-12                             [Mcor_tot (???)]

 131.39                                  [v0_min  (km/s)]
 164.21                                  [vd_min  (km/s)]
 0.6090                                  [AV_min  (mag)]
 0.0000                                  [YAV_min (mag)]

# j     x_j(%)      Mini_j(%)     Mcor_j(%)     age_j(yr)     Z_j      (L/M)_j    YAV?  Mstars   component_j        a/Fe...       SSP_chi2r SSP_adev(%)   SSP_AV   SSP_x(%)
  1      0.0000     0.0000E+00    0.0000E+00    1.000000E+06  0.00400  1.094E-02    0   1.0000   age020_m42            0.0000     1.2449E+00     7.1856   2.8087    71.9033
  2      0.0000     0.0000E+00    0.0000E+00    3.160000E+06  0.00400  4.007E-02    0   0.9999   age045_m42            0.0000     9.1541E-01     6.5679   2.0605    77.6693
  3      0.0000     0.0000E+00    0.0000E+00    5.010000E+06  0.00400  2.539E-02    0   0.9488   age055_m42            0.0000     1.0378E+00     6.7737   2.3917    75.3582
  4      0.0000     0.0000E+00    0.0000E+00    6.610000E+06  0.00400  2.620E-02    0   0.9220   age061_m42            0.0000     8.7604E-01     6.4376   1.9851    77.8998
  5      0.0000     0.0000E+00    0.0000E+00    1.000000E+07  0.00400  1.322E-02    0   0.8862   age070_m42            0.0000     8.7069E-01     6.1867   1.6978    79.6836
  6      0.0000     0.0000E+00    0.0000E+00    1.445000E+07  0.00400  7.883E-03    0   0.8571   age078_m42            0.0000     9.6785E-01     6.3954   2.0326    77.3670
  7      4.0389     3.6152E-01    4.8712E-01    2.512000E+07  0.00400  5.251E-03    0   0.8174   age090_m42            0.0000     8.5873E-01     6.1267   1.5648    80.2383
  8      0.0000     0.0000E+00    0.0000E+00    4.000000E+07  0.00400  3.649E-03    0   0.7851   age104_m42            0.0000     8.0428E-01     6.0062   1.3328    81.1164
  9      0.0000     0.0000E+00    0.0000E+00    5.500000E+07  0.00400  3.098E-03    0   0.7629   age110_m42            0.0000     7.6096E-01     5.9991   1.4854    81.1814
 10      0.0123     2.5926E-03    3.0800E-03    1.015200E+08  0.00400  2.228E-03    0   0.7207   age116_m42            0.0000     7.3426E-01     6.0266   1.5050    81.3947
 11      0.0000     0.0000E+00    0.0000E+00    2.861200E+08  0.00400  1.093E-03    0   0.6648   age125_m42            0.0000     7.0985E-01     6.1771   0.9208    84.3577
 12      0.0000     0.0000E+00    0.0000E+00    5.088000E+08  0.00400  6.597E-04    0   0.6365   age130_m42            0.0000     6.9195E-01     6.1339   0.9095    85.1945
 13     26.0105     5.7343E+01    5.4805E+01    1.434000E+09  0.00400  2.132E-04    0   0.5798   age139_m42            0.0000     6.9527E-01     5.9975  -0.0644    87.1860
 14      0.0000     0.0000E+00    0.0000E+00    4.250000E+09  0.00400  5.895E-05    0   0.5377   age158_m42            0.0000     9.4087E-01     6.7339  -0.4927    83.4401
 15      0.0000     0.0000E+00    0.0000E+00    7.500000E+09  0.00400  3.510E-05    0   0.5212   age171_m42            0.0000     1.0737E+00     7.1510  -0.6785    82.8322
 16      0.0000     0.0000E+00    0.0000E+00    1.300000E+10  0.00400  2.005E-05    0   0.5034   age193_m42            0.0000     1.2125E+00     7.5884  -0.8417    82.3254
 17      0.0000     0.0000E+00    0.0000E+00    1.800000E+10  0.00400  1.525E-05    0   0.4967   age213_m42            0.0000     1.1938E+00     7.5291  -0.8642    81.9465
 18      0.0000     0.0000E+00    0.0000E+00    1.000000E+06  0.00800  1.238E-02    0   1.0000   age020_m52            0.0000     1.2426E+00     7.1809   2.8041    72.0720
 19      0.0000     0.0000E+00    0.0000E+00    3.160000E+06  0.00800  3.074E-02    0   0.9966   age045_m52            0.0000     1.2186E+00     7.1327   2.7288    72.6883
 20      0.0000     0.0000E+00    0.0000E+00    5.010000E+06  0.00800  2.668E-02    0   0.9443   age055_m52            0.0000     1.0766E+00     6.8027   2.4766    74.5996
 21      0.0000     0.0000E+00    0.0000E+00    6.610000E+06  0.00800  2.136E-02    0   0.9177   age061_m52            0.0000     8.8419E-01     6.0499   1.1967    80.7174
 22      1.8963     7.3358E-02    1.0674E-01    1.000000E+07  0.00800  1.215E-02    0   0.8827   age070_m52            0.0000     9.4892E-01     6.3856   1.8782    79.4117
 23      0.0000     0.0000E+00    0.0000E+00    1.445000E+07  0.00800  8.717E-03    0   0.8552   age078_m52            0.0000     9.3216E-01     6.2911   1.9947    78.5657
 24      1.9229     1.6162E-01    2.1745E-01    2.512000E+07  0.00800  5.592E-03    0   0.8162   age090_m52            0.0000     8.5136E-01     6.1401   1.6261    81.2770
 25      0.0000     0.0000E+00    0.0000E+00    4.000000E+07  0.00800  3.896E-03    0   0.7841   age104_m52            0.0000     7.9685E-01     6.0803   1.5343    82.0806
 26      0.0000     0.0000E+00    0.0000E+00    1.015200E+08  0.00800  2.148E-03    0   0.7226   age116_m52            0.0000     7.3367E-01     5.9692   1.4702    82.1025
 27      0.0000     0.0000E+00    0.0000E+00    2.861200E+08  0.00800  9.925E-04    0   0.6683   age125_m52            0.0000     6.7847E-01     6.0096   0.9728    86.0451
 28      0.0000     0.0000E+00    0.0000E+00    9.047900E+08  0.00800  3.141E-04    0   0.6138   age135_m52            0.0000     8.1958E-01     6.5097   0.1702    89.9277
 29      0.0000     0.0000E+00    0.0000E+00    1.434000E+09  0.00800  1.719E-04    0   0.5853   age139_m52            0.0000     8.8648E-01     6.7917  -0.4055    87.9878
 30      0.0000     0.0000E+00    0.0000E+00    2.500000E+09  0.00800  7.872E-05    0   0.5600   age150_m52            0.0000     1.0909E+00     7.3452  -0.6625    85.2943
 31      0.0000     0.0000E+00    0.0000E+00    4.250000E+09  0.00800  4.336E-05    0   0.5426   age158_m52            0.0000     1.1426E+00     7.4379  -0.6752    84.3987
 32      0.0000     0.0000E+00    0.0000E+00    6.250000E+09  0.00800  3.159E-05    0   0.5319   age166_m52            0.0000     1.3222E+00     7.9813  -0.8754    84.3640
 33      0.0000     0.0000E+00    0.0000E+00    1.300000E+10  0.00800  1.361E-05    0   0.5073   age193_m52            0.0000     1.9899E+00     8.9175  -1.0000    73.2422
 34      0.0000     0.0000E+00    0.0000E+00    1.800000E+10  0.00800  9.886E-06    0   0.4990   age213_m52            0.0000     2.4653E+00     9.9012  -1.0000    69.6843
 35      0.0000     0.0000E+00    0.0000E+00    1.000000E+06  0.02000  1.544E-02    0   1.0000   age020_m62            0.0000     1.2529E+00     7.2073   2.8005    72.2276
 36      0.0000     0.0000E+00    0.0000E+00    3.160000E+06  0.02000  3.762E-02    0   0.9858   age045_m62            0.0000     1.2550E+00     7.2389   2.7420    72.7870
 37      0.0000     0.0000E+00    0.0000E+00    5.010000E+06  0.02000  3.296E-02    0   0.9342   age055_m62            0.0000     9.6992E-01     6.6729   2.3474    76.4645
 38      0.0000     0.0000E+00    0.0000E+00    8.710000E+06  0.02000  1.154E-02    0   0.8861   age067_m62            0.0000     1.4462E+00     8.1886   1.3246    81.5987
 39      0.0000     0.0000E+00    0.0000E+00    1.445000E+07  0.02000  7.663E-03    0   0.8472   age078_m62            0.0000     1.0444E+00     6.7618   1.5188    81.3822
 40      0.0000     0.0000E+00    0.0000E+00    2.512000E+07  0.02000  4.532E-03    0   0.8099   age090_m62            0.0000     1.0512E+00     6.8995   1.5092    81.2063
 41      0.0000     0.0000E+00    0.0000E+00    5.500000E+07  0.02000  2.733E-03    0   0.7595   age110_m62            0.0000     8.0836E-01     6.0701   1.5196    81.4013
 42      0.0000     0.0000E+00    0.0000E+00    1.609000E+08  0.02000  1.369E-03    0   0.6985   age120_m62            0.0000     6.8907E-01     5.9192   1.3466    84.1705
 43     50.6493     2.6413E+01    2.9232E+01    2.861200E+08  0.02000  9.013E-04    0   0.6714   age125_m62            0.0000     6.7031E-01     5.8786   1.0860    87.0518
 44      0.0000     0.0000E+00    0.0000E+00    5.088000E+08  0.02000  5.028E-04    0   0.6449   age130_m62            0.0000     7.7446E-01     6.3161   0.7046    89.6147
 45      0.0000     0.0000E+00    0.0000E+00    9.047900E+08  0.02000  2.428E-04    0   0.6179   age135_m62            0.0000     8.9777E-01     6.6971   0.1242    88.9521
 46      0.0000     0.0000E+00    0.0000E+00    1.434000E+09  0.02000  1.263E-04    0   0.5908   age139_m62            0.0000     1.0324E+00     7.0465  -0.3144    87.4881
 47      0.0000     0.0000E+00    0.0000E+00    2.500000E+09  0.02000  5.985E-05    0   0.5673   age150_m62            0.0000     1.2712E+00     7.8253  -0.6726    86.0592
 48      0.0000     0.0000E+00    0.0000E+00    4.250000E+09  0.02000  3.271E-05    0   0.5468   age158_m62            0.0000     1.5728E+00     8.7263  -0.9713    85.1670
 49      0.0000     0.0000E+00    0.0000E+00    1.000000E+10  0.02000  1.360E-05    0   0.5167   age181_m62            0.0000     2.3299E+00     9.6070  -1.0000    74.8153
 50      0.0000     0.0000E+00    0.0000E+00    1.800000E+10  0.02000  7.124E-06    0   0.5013   age213_m62            0.0000     3.1670E+00    11.1276  -1.0000    67.9803
 51      0.0000     0.0000E+00    0.0000E+00    1.000000E+06  0.05000  2.592E-02    0   0.9998   age020_m72            0.0000     1.2880E+00     7.2479   2.7937    72.1921
 52      0.0000     0.0000E+00    0.0000E+00    3.160000E+06  0.05000  4.845E-02    0   0.9577   age045_m72            0.0000     1.1476E+00     7.0728   2.6201    73.9434
 53      0.0000     0.0000E+00    0.0000E+00    5.010000E+06  0.05000  3.072E-02    0   0.9147   age055_m72            0.0000     1.1398E+00     7.1025   2.1190    77.7871
 54      0.0000     0.0000E+00    0.0000E+00    6.610000E+06  0.05000  1.455E-02    0   0.8877   age061_m72            0.0000     2.1429E+00    10.5297   1.3621    82.3600
 55      0.0000     0.0000E+00    0.0000E+00    1.000000E+07  0.05000  9.074E-03    0   0.8524   age070_m72            0.0000     1.3166E+00     7.9875   2.3008    77.5466
 56      0.0000     0.0000E+00    0.0000E+00    2.512000E+07  0.05000  4.250E-03    0   0.7902   age090_m72            0.0000     1.0568E+00     7.2055   1.9888    79.4734
 57      0.0000     0.0000E+00    0.0000E+00    4.000000E+07  0.05000  3.087E-03    0   0.7618   age104_m72            0.0000     1.0055E+00     7.1308   1.7531    81.0900
 58      0.0000     0.0000E+00    0.0000E+00    1.015200E+08  0.05000  1.700E-03    0   0.7096   age116_m72            0.0000     7.2667E-01     6.1061   1.4886    83.7727
 59      0.0000     0.0000E+00    0.0000E+00    2.861200E+08  0.05000  7.384E-04    0   0.6633   age125_m72            0.0000     7.1136E-01     6.0513   0.9513    88.3973
 60      0.0000     0.0000E+00    0.0000E+00    5.088000E+08  0.05000  3.819E-04    0   0.6372   age130_m72            0.0000     8.1820E-01     6.3821   0.4626    89.8254
 61      0.0000     0.0000E+00    0.0000E+00    9.047900E+08  0.05000  1.676E-04    0   0.6110   age135_m72            0.0000     1.1593E+00     7.4867  -0.2184    87.8068
 62      2.9414     1.5645E+01    1.5148E+01    1.434000E+09  0.05000  8.837E-05    0   0.5874   age139_m72            0.0000     1.3364E+00     7.9759  -0.6745    87.3924
 63      0.0000     0.0000E+00    0.0000E+00    2.500000E+09  0.05000  4.233E-05    0   0.5598   age150_m72            0.0000     1.6845E+00     9.0480  -0.9706    85.8621
 64      0.0000     0.0000E+00    0.0000E+00    6.250000E+09  0.05000  1.435E-05    0   0.5249   age166_m72            0.0000     2.6295E+00    10.2496  -1.0000    71.6039
 65      0.0000     0.0000E+00    0.0000E+00    1.300000E+10  0.05000  6.513E-06    0   0.5036   age193_m72            0.0000     3.8902E+00    12.5085  -1.0000    64.0837
 66      0.0000     0.0000E+00    0.0000E+00    1.800000E+10  0.05000  4.527E-06    0   0.4945   age213_m72            0.0000     4.7431E+00    13.9454  -1.0000    59.5183


## Synthesis Results - Average & Chains ##

# j      x_j: min, <> & last-chain-values for 1 ...  7 chains
  1      0.0000      0.1031      0.0000      0.0000      0.0000      0.0000      0.0000      0.0000      0.0000
  2      0.0000      0.1781      0.6978      0.0000      0.0000      0.0000      0.0000      0.0000      0.0000
  3      0.0000      0.1678      0.0000      0.9895      0.9832      0.0000      0.0000      0.0000      0.0000
  4      0.0000      0.3190      0.7503      0.0000      0.0000      2.6734      0.0000      0.3681      0.3298
  5      0.0000      0.4835      2.9242      0.0373      0.0000      0.1769      0.0432      0.0000      0.0000
  6      0.0000      0.3769      0.0000      0.2348      0.6080      0.0000      0.7381      0.0000      0.0000
  7      4.0389      1.3876      0.0000      5.6037      0.0000      1.3036      0.0000      0.2976      0.5304
  8      0.0000      1.3896      0.0000      0.0000      1.7561      0.0000      0.6402      1.1018      1.0005
  9      0.0000      0.8926      0.0000      0.0000      1.5715      0.7454      0.3588      2.0289      0.0000
 10      0.0123      2.3280      1.7766      2.0470      1.4190      6.1395      2.7983      2.4191      2.0043
 11      0.0000      1.8594      0.0000      0.0000      0.0000      0.0449      0.7185      0.0000      0.0000
 12      0.0000      4.2577      6.0327      0.0000      1.1807      0.0000      4.3479      0.0000      0.0000
 13     26.0105      8.7622      8.9273     15.1604     10.1078     10.4338     11.9492      8.1025     12.4516
 14      0.0000      0.4118      0.0000      0.0000      0.0000      0.0000      0.3268      1.5694      0.1382
 15      0.0000      0.1481      0.0000      0.1414      0.0000      0.5187      0.0000      0.0000      0.0000
 16      0.0000      0.1128      0.0000      0.0000      0.0000      0.0000      0.0000      0.0000      0.0000
 17      0.0000      0.1645      0.0000      0.0000      1.2537      0.0000      0.0000      0.6046      0.4300
 18      0.0000      0.1429      0.5674      0.0000      0.0292      0.0000      0.0000      0.0000      0.1607
 19      0.0000      0.1092      0.8952      0.0000      0.0000      0.5640      0.0000      0.0000      0.0000
 20      0.0000      0.1741      0.0000      0.0000      0.0000      0.0000      0.0000      0.0000      0.0000
 21      0.0000      0.5850      0.7038      0.0000      0.0800      0.0000      0.5825      3.8844      0.0000
 22      1.8963      0.3197      0.0000      0.6721      0.0000      0.0000      0.0000      0.0000      2.1385
 23      0.0000      0.3000      0.0000      0.0000      0.0000      0.0000      0.0000      0.0000      0.0000
 24      1.9229      0.7375      0.0000      2.1505      0.0000      1.1390      4.0306      0.0000      0.0000
 25      0.0000      1.0879      0.0000      4.3342      0.0000      2.3365      0.0000      0.0000      0.0000
 26      0.0000      1.3729      5.4108      0.0000      4.8799      0.0000      0.0000      5.1594      1.1543
 27      0.0000      3.4542      0.0000      4.6070      1.1431      3.6693      2.1548      0.0000      0.0000
 28      0.0000      0.4806      0.4664      0.0000      1.5130      0.6851      0.0000      0.0000      0.0000
 29      0.0000      0.2907      0.0000      0.4314      0.0000      0.0000      0.0000      0.0000      0.0000
 30      0.0000      0.0927      0.0000      0.0000      0.0365      0.0000      0.0570      0.0000      0.0000
 31      0.0000      0.1806      0.0000      0.4275      0.0000      0.0000      0.0000      0.0000      0.0000
 32      0.0000      0.1745      0.0000      0.0000      0.8857      0.0000      0.0000      0.0000      0.0000
 33      0.0000      0.2961      1.3474      0.0421      0.0000      1.3929      0.4710      0.0489      0.4675
 34      0.0000      0.0697      0.0000      0.0000      0.0000      0.0000      0.0644      0.0000      0.0000
 35      0.0000      0.1805      0.0000      0.0000      0.0000      0.0000      0.9745      0.0000      0.0000
 36      0.0000      0.1003      0.0000      0.0000      1.0013      0.0000      0.0000      0.0000      0.0000
 37      0.0000      0.2448      0.0000      0.0000      0.0000      0.0000      0.0000      0.0000      0.0000
 38      0.0000      0.8329      0.0000      0.0000      0.0000      0.0000      0.0000      0.3986      2.5914
 39      0.0000      0.3297      0.0000      0.0000      0.0000      0.0000      0.0000      0.0000      0.0000
 40      0.0000      0.4455      0.0000      0.0000      2.6654      0.6396      1.9296      0.0000      0.0000
 41      0.0000      0.4766      0.0000      0.0000      0.0000      1.2587      0.0000      1.8673      0.6033
 42      0.0000      3.5292      4.2788      0.0000      4.6141      2.4358      8.3823      4.3318      5.1291
 43     50.6493     25.1615     34.5770     38.5777     33.6467     28.5428     29.7750     42.4562     35.8620
 44      0.0000      6.5858      0.0000      0.8107      0.0000      2.0267      4.6678      1.1398      5.9033
 45      0.0000      0.7423      0.1591      0.0000      0.0000      0.6815      0.0000      0.0000      0.0000
 46      0.0000      0.1602      0.0000      0.0685      0.0000      0.0000      0.0000      0.0857      0.0000
