###################################################################
## OUTPUT of StarlightChains_v04.for    [Cid@UFSC - 01/Apr/2007] ##
###################################################################

## Some input info
2003as.txt                               [arq_obs]
Base.CB07.vall.4m                        [arq_base]
Masks.EmLines.NEW.gm                     [arq_masks]
StCv04.C11.config                        [arq_config]
   66                                    [N_base]
    0                                    [N_YAV_components = # of components with extra extinction!]
    0                                    [i_FitPowerLaw (1/0 = Yes/No)]
-9.99                                    [alpha_PowerLaw]
CCM                                      [red_law_option]
 1.458241                                [q_norm = A(l_norm)/A(V)]

## (Re)Sampling Parameters
 3741.00                                 [l_ini (A)]
 7218.00                                 [l_fin (A)]
    1.00                                 [dl    (A)]     (OBS: dl_cushion =    50.00 A)

## Normalization info
 4020.00                                 [l_norm (A) - for base]
 4010.00                                 [llow_norm (A) - window for f_obs]
 4060.00                                 [lupp_norm (A) - window for f_obs]
2.644785E-16                             [fobs_norm (in input units)]

## S/N
 3691.00                                 [llow_SN (A) - window for S/N]
 7268.00                                 [lupp_SN (A) - window for S/N]
   4.398                                 [S/N in S/N window]
   6.714                                 [S/N in norm. window]
  10.000                                 [S/N_err in S/N window]
  15.264                                 [S/N_err in norm. window]
  1.0000                                 [fscale_chi2]

## etc...
    -2007270                             [idum_orig]
  2384                                   [NOl_eff]
  2313                                   [Nl_eff]
    71    NSIGMA                         [Ntot_cliped & clip_method]
   614250                                [Nglobal_steps]
   7                                     [N_chains]
  12                                     [NEX0s_base = N_base in EX0s-fits]
 0   0   1        3   2.0   8.202E+01    [Clip-Bug, RC-Crash & Burn-In warning-flags, n_censored_weights, wei_nsig_threshold & wei_limit]
    12     12.706     12.208      0.498  [idt_all, wdt_TotTime, wdt_UsrTime & wdt_SysTime (sec)]

## Synthesis Results - Best model ##

 8.69784E-01                             [chi2/Nl_eff]
     7.17572                             [adev (%)]

    90.40826                             [sum-of-x (%)]
 6.84526E-16                             [Flux_tot (units of input spectrum!)]
 2.66473E-13                             [Mini_tot (???)]
 1.90005E-13                             [Mcor_tot (???)]

 -69.84                                  [v0_min  (km/s)]
 321.19                                  [vd_min  (km/s)]
 0.7831                                  [AV_min  (mag)]
 0.0000                                  [YAV_min (mag)]

# j     x_j(%)      Mini_j(%)     Mcor_j(%)     age_j(yr)     Z_j      (L/M)_j    YAV?  Mstars   component_j        a/Fe...       SSP_chi2r SSP_adev(%)   SSP_AV   SSP_x(%)
  1      0.0000     0.0000E+00    0.0000E+00    1.000000E+06  0.00400  1.094E-02    0   1.0000   age020_m42            0.0000     1.1114E+00     7.7678   2.2573    78.3755
  2      0.0000     0.0000E+00    0.0000E+00    3.160000E+06  0.00400  4.007E-02    0   0.9999   age045_m42            0.0000     9.5511E-01     7.4207   1.4996    84.9784
  3      0.0000     0.0000E+00    0.0000E+00    5.010000E+06  0.00400  2.539E-02    0   0.9488   age055_m42            0.0000     9.8416E-01     7.4802   1.8307    82.4727
  4      0.0000     0.0000E+00    0.0000E+00    6.610000E+06  0.00400  2.620E-02    0   0.9220   age061_m42            0.0000     9.3228E-01     7.3445   1.4205    85.3624
  5      7.6547     1.6452E+00    2.0448E+00    1.000000E+07  0.00400  1.322E-02    0   0.8862   age070_m42            0.0000     8.8395E-01     7.2460   1.1346    87.1902
  6      0.0000     0.0000E+00    0.0000E+00    1.445000E+07  0.00400  7.883E-03    0   0.8571   age078_m42            0.0000     9.2005E-01     7.3391   1.4702    84.6549
  7      0.0000     0.0000E+00    0.0000E+00    2.512000E+07  0.00400  5.251E-03    0   0.8174   age090_m42            0.0000     8.8003E-01     7.2525   1.0021    87.7594
  8     11.9782     9.3271E+00    1.0270E+01    4.000000E+07  0.00400  3.649E-03    0   0.7851   age104_m42            0.0000     8.7297E-01     7.2089   0.7704    88.6849
  9      0.0000     0.0000E+00    0.0000E+00    5.500000E+07  0.00400  3.098E-03    0   0.7629   age110_m42            0.0000     8.9133E-01     7.2136   0.9189    88.9538
 10      0.0000     0.0000E+00    0.0000E+00    1.015200E+08  0.00400  2.228E-03    0   0.7207   age116_m42            0.0000     9.2676E-01     7.2791   0.9364    89.2905
 11      0.0000     0.0000E+00    0.0000E+00    2.861200E+08  0.00400  1.093E-03    0   0.6648   age125_m42            0.0000     9.7351E-01     7.5071   0.3557    92.3334
 12      0.0000     0.0000E+00    0.0000E+00    5.088000E+08  0.00400  6.597E-04    0   0.6365   age130_m42            0.0000     1.0590E+00     7.6238   0.3454    93.2087
 13      0.0000     0.0000E+00    0.0000E+00    1.434000E+09  0.00400  2.132E-04    0   0.5798   age139_m42            0.0000     1.1332E+00     7.7481  -0.6149    94.6601
 14      0.0000     0.0000E+00    0.0000E+00    4.250000E+09  0.00400  5.895E-05    0   0.5377   age158_m42            0.0000     1.3098E+00     8.1211  -1.0000    89.0175
 15      0.0000     0.0000E+00    0.0000E+00    7.500000E+09  0.00400  3.510E-05    0   0.5212   age171_m42            0.0000     1.6267E+00     8.7434  -1.0000    82.2680
 16      0.0000     0.0000E+00    0.0000E+00    1.300000E+10  0.00400  2.005E-05    0   0.5034   age193_m42            0.0000     2.1144E+00     9.8567  -1.0000    76.5442
 17      0.0000     0.0000E+00    0.0000E+00    1.800000E+10  0.00400  1.525E-05    0   0.4967   age213_m42            0.0000     2.1513E+00    10.0064  -1.0000    75.4849
 18      0.0000     0.0000E+00    0.0000E+00    1.000000E+06  0.00800  1.238E-02    0   1.0000   age020_m52            0.0000     1.1119E+00     7.7675   2.2542    78.5136
 19      0.0000     0.0000E+00    0.0000E+00    3.160000E+06  0.00800  3.074E-02    0   0.9966   age045_m52            0.0000     1.0911E+00     7.7250   2.1737    79.3484
 20      0.0000     0.0000E+00    0.0000E+00    5.010000E+06  0.00800  2.668E-02    0   0.9443   age055_m52            0.0000     9.9973E-01     7.5072   1.9171    81.5862
 21     15.1226     2.0116E+00    2.5891E+00    6.610000E+06  0.00800  2.136E-02    0   0.9177   age061_m52            0.0000     9.2873E-01     7.3448   0.6467    87.7133
 22      0.0000     0.0000E+00    0.0000E+00    1.000000E+07  0.00800  1.215E-02    0   0.8827   age070_m52            0.0000     9.1378E-01     7.3767   1.3172    86.8061
 23      0.0000     0.0000E+00    0.0000E+00    1.445000E+07  0.00800  8.717E-03    0   0.8552   age078_m52            0.0000     9.0428E-01     7.2848   1.4329    85.9375
 24     25.3413     1.2876E+01    1.4739E+01    2.512000E+07  0.00800  5.592E-03    0   0.8162   age090_m52            0.0000     8.7833E-01     7.2386   1.0637    88.8837
 25      0.0000     0.0000E+00    0.0000E+00    4.000000E+07  0.00800  3.896E-03    0   0.7841   age104_m52            0.0000     8.8431E-01     7.2457   0.9702    89.8205
 26      0.0000     0.0000E+00    0.0000E+00    1.015200E+08  0.00800  2.148E-03    0   0.7226   age116_m52            0.0000     9.1115E-01     7.2614   0.9048    89.9107
 27      0.0000     0.0000E+00    0.0000E+00    2.861200E+08  0.00800  9.925E-04    0   0.6683   age125_m52            0.0000     1.0565E+00     7.5738   0.4093    94.1155
 28      0.0000     0.0000E+00    0.0000E+00    9.047900E+08  0.00800  3.141E-04    0   0.6138   age135_m52            0.0000     1.3259E+00     8.2248  -0.3781    97.5926
 29      0.0000     0.0000E+00    0.0000E+00    1.434000E+09  0.00800  1.719E-04    0   0.5853   age139_m52            0.0000     1.3113E+00     8.2659  -0.9435    94.9755
 30      0.0000     0.0000E+00    0.0000E+00    2.500000E+09  0.00800  7.872E-05    0   0.5600   age150_m52            0.0000     1.6793E+00     8.8652  -1.0000    85.2682
 31      0.0000     0.0000E+00    0.0000E+00    4.250000E+09  0.00800  4.336E-05    0   0.5426   age158_m52            0.0000     1.7419E+00     8.9724  -1.0000    83.9305
 32      0.0000     0.0000E+00    0.0000E+00    6.250000E+09  0.00800  3.159E-05    0   0.5319   age166_m52            0.0000     2.3963E+00    10.3659  -1.0000    77.3511
 33      0.0000     0.0000E+00    0.0000E+00    1.300000E+10  0.00800  1.361E-05    0   0.5073   age193_m52            0.0000     4.5606E+00    14.7727  -1.0000    62.6338
 34      0.0000     0.0000E+00    0.0000E+00    1.800000E+10  0.00800  9.886E-06    0   0.4990   age213_m52            0.0000     5.2958E+00    15.8502  -1.0000    59.3332
 35      0.0000     0.0000E+00    0.0000E+00    1.000000E+06  0.02000  1.544E-02    0   1.0000   age020_m62            0.0000     1.1168E+00     7.7809   2.2505    78.6841
 36      0.0000     0.0000E+00    0.0000E+00    3.160000E+06  0.02000  3.762E-02    0   0.9858   age045_m62            0.0000     1.1070E+00     7.7766   2.1870    79.4656
 37      0.0000     0.0000E+00    0.0000E+00    5.010000E+06  0.02000  3.296E-02    0   0.9342   age055_m62            0.0000     9.6111E-01     7.4151   1.7827    83.8163
 38      7.3695     1.8145E+00    2.2549E+00    8.710000E+06  0.02000  1.154E-02    0   0.8861   age067_m62            0.0000     1.2815E+00     8.9852   0.7723    88.7030
 39      0.0000     0.0000E+00    0.0000E+00    1.445000E+07  0.02000  7.663E-03    0   0.8472   age078_m62            0.0000     9.8643E-01     7.7878   0.9623    88.7121
 40      0.0000     0.0000E+00    0.0000E+00    2.512000E+07  0.02000  4.532E-03    0   0.8099   age090_m62            0.0000     9.9459E-01     7.8919   0.9496    88.6494
 41      0.0000     0.0000E+00    0.0000E+00    5.500000E+07  0.02000  2.733E-03    0   0.7595   age110_m62            0.0000     8.8223E-01     7.2352   0.9550    89.0927
 42      0.0000     0.0000E+00    0.0000E+00    1.609000E+08  0.02000  1.369E-03    0   0.6985   age120_m62            0.0000     9.6332E-01     7.3682   0.7774    92.3238
 43     22.9420     7.2325E+01    6.8102E+01    2.861200E+08  0.02000  9.013E-04    0   0.6714   age125_m62            0.0000     1.1050E+00     7.6309   0.5197    95.3377
 44      0.0000     0.0000E+00    0.0000E+00    5.088000E+08  0.02000  5.028E-04    0   0.6449   age130_m62            0.0000     1.3325E+00     8.1701   0.1479    97.6958
 45      0.0000     0.0000E+00    0.0000E+00    9.047900E+08  0.02000  2.428E-04    0   0.6179   age135_m62            0.0000     1.4046E+00     8.4074  -0.4217    96.3995
 46      0.0000     0.0000E+00    0.0000E+00    1.434000E+09  0.02000  1.263E-04    0   0.5908   age139_m62            0.0000     1.4991E+00     8.5966  -0.8517    94.3947
 47      0.0000     0.0000E+00    0.0000E+00    2.500000E+09  0.02000  5.985E-05    0   0.5673   age150_m62            0.0000     1.9197E+00     9.2444  -1.0000    85.6657
 48      0.0000     0.0000E+00    0.0000E+00    4.250000E+09  0.02000  3.271E-05    0   0.5468   age158_m62            0.0000     2.9694E+00    11.3696  -1.0000    74.9995
 49      0.0000     0.0000E+00    0.0000E+00    1.000000E+10  0.02000  1.360E-05    0   0.5167   age181_m62            0.0000     4.7970E+00    14.7246  -1.0000    64.0922
 50      0.0000     0.0000E+00    0.0000E+00    1.800000E+10  0.02000  7.124E-06    0   0.5013   age213_m62            0.0000     6.1294E+00    16.7496  -1.0000    57.7441
 51      0.0000     0.0000E+00    0.0000E+00    1.000000E+06  0.05000  2.592E-02    0   0.9998   age020_m72            0.0000     1.1436E+00     7.8398   2.2446    78.6015
 52      0.0000     0.0000E+00    0.0000E+00    3.160000E+06  0.05000  4.845E-02    0   0.9577   age045_m72            0.0000     1.0440E+00     7.6413   2.0600    80.9089
 53      0.0000     0.0000E+00    0.0000E+00    5.010000E+06  0.05000  3.072E-02    0   0.9147   age055_m72            0.0000     1.0304E+00     7.8723   1.5625    84.8963
 54      0.0000     0.0000E+00    0.0000E+00    6.610000E+06  0.05000  1.455E-02    0   0.8877   age061_m72            0.0000     1.8806E+00    11.2157   0.8147    89.3846
 55      0.0000     0.0000E+00    0.0000E+00    1.000000E+07  0.05000  9.074E-03    0   0.8524   age070_m72            0.0000     1.1563E+00     8.5103   1.7435    84.7162
 56      0.0000     0.0000E+00    0.0000E+00    2.512000E+07  0.05000  4.250E-03    0   0.7902   age090_m72            0.0000     1.0089E+00     7.9657   1.4259    86.9949
 57      0.0000     0.0000E+00    0.0000E+00    4.000000E+07  0.05000  3.087E-03    0   0.7618   age104_m72            0.0000     1.0017E+00     7.9925   1.1885    88.8149
 58      0.0000     0.0000E+00    0.0000E+00    1.015200E+08  0.05000  1.700E-03    0   0.7096   age116_m72            0.0000     9.4144E-01     7.3925   0.9186    91.9328
 59      0.0000     0.0000E+00    0.0000E+00    2.861200E+08  0.05000  7.384E-04    0   0.6633   age125_m72            0.0000     1.2338E+00     7.9231   0.3895    96.5882
 60      0.0000     0.0000E+00    0.0000E+00    5.088000E+08  0.05000  3.819E-04    0   0.6372   age130_m72            0.0000     1.3706E+00     8.2994  -0.0901    97.6805
 61      0.0000     0.0000E+00    0.0000E+00    9.047900E+08  0.05000  1.676E-04    0   0.6110   age135_m72            0.0000     1.7002E+00     9.0937  -0.7558    94.7476
 62      0.0000     0.0000E+00    0.0000E+00    1.434000E+09  0.05000  8.837E-05    0   0.5874   age139_m72            0.0000     2.0081E+00     9.3661  -1.0000    86.9112
 63      0.0000     0.0000E+00    0.0000E+00    2.500000E+09  0.05000  4.233E-05    0   0.5598   age150_m72            0.0000     3.0907E+00    11.5129  -1.0000    75.6350
 64      0.0000     0.0000E+00    0.0000E+00    6.250000E+09  0.05000  1.435E-05    0   0.5249   age166_m72            0.0000     5.3344E+00    15.6440  -1.0000    61.0962
 65      0.0000     0.0000E+00    0.0000E+00    1.300000E+10  0.05000  6.513E-06    0   0.5036   age193_m72            0.0000     7.1791E+00    18.3448  -1.0000    54.0970
 66      0.0000     0.0000E+00    0.0000E+00    1.800000E+10  0.05000  4.527E-06    0   0.4945   age213_m72            0.0000     8.2960E+00    19.8685  -1.0000    49.9740


## Synthesis Results - Average & Chains ##

# j      x_j: min, <> & last-chain-values for 1 ...  7 chains
  1      0.0000      0.0817      0.0000      0.0000      0.0000      0.0000      0.0000      0.0000      0.3735
  2      0.0000      0.3249      0.0000      0.0000      0.0000      0.0000      0.0000      0.0000      0.0000
  3      0.0000      0.1582      0.0000      0.0000      0.0053      0.0000      0.0000      0.3226      0.9287
  4      0.0000      0.9074      0.0000      2.4412      0.0000      1.3352      1.9199      3.1273      0.0000
  5      7.6547      1.5140      0.0000      0.0000      0.1157      6.0215      0.0000      0.4449      0.0000
  6      0.0000      0.5433      0.0000      0.2239      1.5933      0.0000      3.3884      0.0000      0.0000
  7      0.0000      3.3127      7.8093      1.0317      1.0680      0.0000      1.3659      0.0000      8.8000
  8     11.9782     14.4498     21.5454     20.2297     14.9282     35.0052     23.3676     13.8866     18.0749
  9      0.0000      5.1205      6.9135      1.7183      5.6605      3.7185      1.4954      2.0361      1.2739
 10      0.0000      5.5665      1.2491      5.9013      7.0873      2.7579      6.4492     16.2852      4.1149
 11      0.0000      0.4703      0.0000      0.0000      0.0000      0.0000      0.0000      0.0000      0.0000
 12      0.0000      0.9821      0.0000      1.6448      0.0000      0.0000      0.5682      0.0637      0.6104
 13      0.0000      0.0441      0.0000      0.0000      0.0000      0.0000      0.0000      0.0000      0.2821
 14      0.0000      0.0405      0.0000      0.0000      0.0000      0.0000      0.0000      0.0000      0.0000
 15      0.0000      0.0135      0.0000      0.0000      0.0000      0.0000      0.0000      0.0000      0.0000
 16      0.0000      0.0122      0.1788      0.0000      0.0000      0.0000      0.0000      0.0000      0.0000
 17      0.0000      0.0122      0.0000      0.0000      0.0000      0.0000      0.0000      0.0000      0.0000
 18      0.0000      0.1303      0.0000      0.0000      0.0000      0.0000      0.0000      0.0000      0.9792
 19      0.0000      0.1954      1.5903      0.0000      0.0000      0.4824      0.0000      0.0000      0.9851
 20      0.0000      0.1667      0.0000      0.0000      0.7333      0.0000      0.0000      0.0000      1.3743
 21     15.1226     12.6384     11.4529     16.7145     12.8387      8.6901     12.3248     13.5412     16.7178
 22      0.0000      0.8380      0.0000      3.0453      0.4551      0.0000      0.0000      1.9282      0.0000
 23      0.0000      0.7093      0.0000      0.7178      1.1080      0.0241      0.0000      0.0000      0.0000
 24     25.3413      2.5566      3.5897      3.7868      7.2646      1.9731      7.2279      3.0488      0.9500
 25      0.0000      1.7659      0.0000      1.2698      1.0117      0.0000      0.0000      0.0000      4.3842
 26      0.0000      2.3482      1.2731      2.7145      1.5440      0.0000      0.0000      0.0000      0.0000
 27      0.0000      1.6796      1.1709      1.0270      0.5245      1.8073      0.0000      0.9297      4.7736
 28      0.0000      0.1505      0.0000      0.0000      0.0000      0.0000      0.0000      0.0000      0.0000
 29      0.0000      0.0166      0.0000      0.0000      0.0000      0.0000      0.0000      0.0000      0.0000
 30      0.0000      0.0286      0.0000      0.0000      0.0000      0.0000      0.0000      0.0000      0.0000
 31      0.0000      0.0143      0.0000      0.0000      0.0000      0.0000      0.0000      0.0000      0.0000
 32      0.0000      0.0154      0.0000      0.0000      0.0000      0.0000      0.1607      0.0000      0.2142
 33      0.0000      0.0101      0.0000      0.0000      0.0000      0.0000      0.0000      0.0000      0.0000
 34      0.0000      0.0069      0.0000      0.0000      0.0000      0.0000      0.0000      0.0000      0.0000
 35      0.0000      0.1073      0.0000      0.0000      0.0000      0.0000      0.0000      0.0000      0.0000
 36      0.0000      0.2888      0.0000      0.0000      0.0000      0.0000      0.1492      0.0000      0.0000
 37      0.0000      0.1049      0.0000      0.0000      0.0000      0.0000      0.0000      0.3496      0.0000
 38      7.3695      9.3268     10.9403      7.6902      9.5259      7.8522      9.3604     12.6166      8.4898
 39      0.0000      1.0762      0.0000      0.0000      0.0000      0.0000      0.0000      0.0000      0.0024
 40      0.0000      0.9732      0.0000      1.0653      0.4028      0.0000      0.0000      0.0000      0.0000
 41      0.0000      2.2879      0.0000      1.7098      0.0000      4.4712      0.0000      0.8939      0.0000
 42      0.0000      3.7722      2.0005      4.0469     13.1396      4.6779     11.9517      5.0186      3.3792
 43     22.9420      7.6760     12.6196     10.6540     10.2306     10.6253      5.2947      7.8276     12.4865
 44      0.0000      0.8163      0.0000      0.0000      0.0000      0.0000      0.0000      3.2874      0.2823
 45      0.0000      0.2374      0.4483      0.0000      0.0000      0.0000      0.0000      0.0000      0.0000
 46      0.0000      0.0476      0.2752      0.0000      0.0000      0.0000      0.3824      0.0000      0.0000
