###################################################################
## OUTPUT of StarlightChains_v04.for    [Cid@UFSC - 01/Apr/2007] ##
###################################################################

## Some input info
2003ld.txt                               [arq_obs]
Base.CB07.vall.4m                        [arq_base]
Masks.EmLines.NEW.gm                     [arq_masks]
StCv04.C11.config                        [arq_config]
   66                                    [N_base]
    0                                    [N_YAV_components = # of components with extra extinction!]
    0                                    [i_FitPowerLaw (1/0 = Yes/No)]
-9.99                                    [alpha_PowerLaw]
CCM                                      [red_law_option]
 1.458241                                [q_norm = A(l_norm)/A(V)]

## (Re)Sampling Parameters
 3741.00                                 [l_ini (A)]
 7218.00                                 [l_fin (A)]
    1.00                                 [dl    (A)]     (OBS: dl_cushion =    50.00 A)

## Normalization info
 4020.00                                 [l_norm (A) - for base]
 4010.00                                 [llow_norm (A) - window for f_obs]
 4060.00                                 [lupp_norm (A) - window for f_obs]
3.364595E-16                             [fobs_norm (in input units)]

## S/N
 3691.00                                 [llow_SN (A) - window for S/N]
 7268.00                                 [lupp_SN (A) - window for S/N]
  13.838                                 [S/N in S/N window]
  15.436                                 [S/N in norm. window]
  26.659                                 [S/N_err in S/N window]
  29.738                                 [S/N_err in norm. window]
  1.0000                                 [fscale_chi2]

## etc...
    -2007283                             [idum_orig]
  2383                                   [NOl_eff]
  2380                                   [Nl_eff]
     3    NSIGMA                         [Ntot_cliped & clip_method]
  1768690                                [Nglobal_steps]
   7                                     [N_chains]
  25                                     [NEX0s_base = N_base in EX0s-fits]
 0   0   1       27   2.0   4.812E+01    [Clip-Bug, RC-Crash & Burn-In warning-flags, n_censored_weights, wei_nsig_threshold & wei_limit]
    18     17.702     17.198      0.504  [idt_all, wdt_TotTime, wdt_UsrTime & wdt_SysTime (sec)]

## Synthesis Results - Best model ##

 4.67948E-01                             [chi2/Nl_eff]
     1.95510                             [adev (%)]

   102.43954                             [sum-of-x (%)]
 9.85284E-16                             [Flux_tot (units of input spectrum!)]
 8.40286E-12                             [Mini_tot (???)]
 4.39219E-12                             [Mcor_tot (???)]

  14.41                                  [v0_min  (km/s)]
 168.12                                  [vd_min  (km/s)]
 0.7820                                  [AV_min  (mag)]
 0.0000                                  [YAV_min (mag)]

# j     x_j(%)      Mini_j(%)     Mcor_j(%)     age_j(yr)     Z_j      (L/M)_j    YAV?  Mstars   component_j        a/Fe...       SSP_chi2r SSP_adev(%)   SSP_AV   SSP_x(%)
  1      4.9584     5.1879E-02    9.9251E-02    1.000000E+06  0.00400  1.094E-02    0   1.0000   age020_m42            0.0000     2.8731E+00     5.0080   2.7968    91.2083
  2      0.3279     9.3672E-04    1.7919E-03    3.160000E+06  0.00400  4.007E-02    0   0.9999   age045_m42            0.0000     1.9173E+00     4.1307   2.1108    95.6519
  3      0.0000     0.0000E+00    0.0000E+00    5.010000E+06  0.00400  2.539E-02    0   0.9488   age055_m42            0.0000     2.1978E+00     4.2298   2.4140    94.0743
  4      0.0000     0.0000E+00    0.0000E+00    6.610000E+06  0.00400  2.620E-02    0   0.9220   age061_m42            0.0000     1.7834E+00     3.9614   2.0399    95.7674
  5      0.0000     0.0000E+00    0.0000E+00    1.000000E+07  0.00400  1.322E-02    0   0.8862   age070_m42            0.0000     1.0236E+00     2.7050   1.7553    97.9710
  6      0.0000     0.0000E+00    0.0000E+00    1.445000E+07  0.00400  7.883E-03    0   0.8571   age078_m42            0.0000     1.3105E+00     2.9825   2.0732    95.9197
  7      0.0011     2.3075E-05    3.6084E-05    2.512000E+07  0.00400  5.251E-03    0   0.8174   age090_m42            0.0000     9.5288E-01     2.5626   1.6289    98.3511
  8      0.0000     0.0000E+00    0.0000E+00    4.000000E+07  0.00400  3.649E-03    0   0.7851   age104_m42            0.0000     8.8450E-01     2.5833   1.4059    98.9408
  9      0.0000     0.0000E+00    0.0000E+00    5.500000E+07  0.00400  3.098E-03    0   0.7629   age110_m42            0.0000     1.2102E+00     3.1364   1.5685    98.5212
 10      0.0000     0.0000E+00    0.0000E+00    1.015200E+08  0.00400  2.228E-03    0   0.7207   age116_m42            0.0000     1.5269E+00     3.5600   1.5950    98.4014
 11      0.0001     8.0746E-06    1.0270E-05    2.861200E+08  0.00400  1.093E-03    0   0.6648   age125_m42            0.0000     1.3679E+00     3.2755   1.0386   100.8943
 12      0.0000     0.0000E+00    0.0000E+00    5.088000E+08  0.00400  6.597E-04    0   0.6365   age130_m42            0.0000     1.8601E+00     3.7434   1.0360   101.3336
 13      6.0089     3.2261E+00    3.5785E+00    1.434000E+09  0.00400  2.132E-04    0   0.5798   age139_m42            0.0000     2.1878E+00     4.0142   0.0698   102.9112
 14      5.7038     1.1075E+01    1.1393E+01    4.250000E+09  0.00400  5.895E-05    0   0.5377   age158_m42            0.0000     3.3442E+00     5.1419  -0.3846    99.6290
 15      8.6771     2.8296E+01    2.8215E+01    7.500000E+09  0.00400  3.510E-05    0   0.5212   age171_m42            0.0000     4.3585E+00     5.7403  -0.5697    98.8818
 16      0.0000     0.0000E+00    0.0000E+00    1.300000E+10  0.00400  2.005E-05    0   0.5034   age193_m42            0.0000     5.4184E+00     6.2816  -0.7329    98.3182
 17      2.4871     1.8668E+01    1.7739E+01    1.800000E+10  0.00400  1.525E-05    0   0.4967   age213_m42            0.0000     5.2331E+00     6.1786  -0.7577    97.9425
 18      4.5993     4.2524E-02    8.1354E-02    1.000000E+06  0.00800  1.238E-02    0   1.0000   age020_m52            0.0000     2.8838E+00     5.0207   2.7931    91.3913
 19      2.6461     9.8531E-03    1.8786E-02    3.160000E+06  0.00800  3.074E-02    0   0.9966   age045_m52            0.0000     2.8526E+00     4.9702   2.7183    92.1080
 20      0.0000     0.0000E+00    0.0000E+00    5.010000E+06  0.00800  2.668E-02    0   0.9443   age055_m52            0.0000     2.2856E+00     4.3103   2.4899    93.5137
 21      0.0000     0.0000E+00    0.0000E+00    6.610000E+06  0.00800  2.136E-02    0   0.9177   age061_m52            0.0000     7.8703E-01     2.5670   1.2455    99.5270
 22      0.0000     0.0000E+00    0.0000E+00    1.000000E+07  0.00800  1.215E-02    0   0.8827   age070_m52            0.0000     1.0146E+00     2.5561   1.9298    98.0133
 23      0.0000     0.0000E+00    0.0000E+00    1.445000E+07  0.00800  8.717E-03    0   0.8552   age078_m52            0.0000     1.1779E+00     2.8372   2.0413    97.1106
 24      0.0000     0.0000E+00    0.0000E+00    2.512000E+07  0.00800  5.592E-03    0   0.8162   age090_m52            0.0000     8.9486E-01     2.4837   1.6955    99.3699
 25      0.0000     0.0000E+00    0.0000E+00    4.000000E+07  0.00800  3.896E-03    0   0.7841   age104_m52            0.0000     9.3779E-01     2.6692   1.6170    99.7227
 26      0.0000     0.0000E+00    0.0000E+00    1.015200E+08  0.00800  2.148E-03    0   0.7226   age116_m52            0.0000     1.1884E+00     3.1176   1.5625    99.2277
 27      0.0000     0.0000E+00    0.0000E+00    2.861200E+08  0.00800  9.925E-04    0   0.6683   age125_m52            0.0000     1.8185E+00     3.6396   1.1012   102.2135
 28      6.4297     2.3431E+00    2.7515E+00    9.047900E+08  0.00800  3.141E-04    0   0.6138   age135_m52            0.0000     3.1414E+00     4.6533   0.3222   105.4169
 29      0.0000     0.0000E+00    0.0000E+00    1.434000E+09  0.00800  1.719E-04    0   0.5853   age139_m52            0.0000     3.2080E+00     4.8629  -0.2684   103.8018
 30      0.0000     0.0000E+00    0.0000E+00    2.500000E+09  0.00800  7.872E-05    0   0.5600   age150_m52            0.0000     4.8220E+00     6.0892  -0.5415   101.2322
 31      0.0000     0.0000E+00    0.0000E+00    4.250000E+09  0.00800  4.336E-05    0   0.5426   age158_m52            0.0000     5.1006E+00     6.1692  -0.5577   100.3508
 32      0.0000     0.0000E+00    0.0000E+00    6.250000E+09  0.00800  3.159E-05    0   0.5319   age166_m52            0.0000     6.7195E+00     7.0196  -0.7551   100.1407
 33      0.0000     0.0000E+00    0.0000E+00    1.300000E+10  0.00800  1.361E-05    0   0.5073   age193_m52            0.0000     1.0995E+01     8.3911  -1.0000    91.9282
 34      2.7237     3.1536E+01    3.0106E+01    1.800000E+10  0.00800  9.886E-06    0   0.4990   age213_m52            0.0000     1.4796E+01     9.6365  -1.0000    87.8841
 35     13.5054     1.0012E-01    1.9155E-01    1.000000E+06  0.02000  1.544E-02    0   1.0000   age020_m62            0.0000     2.9220E+00     5.0615   2.7872    91.6876
 36      6.5581     1.9954E-02    3.7632E-02    3.160000E+06  0.02000  3.762E-02    0   0.9858   age045_m62            0.0000     2.9687E+00     5.0864   2.7265    92.4998
 37      0.0000     0.0000E+00    0.0000E+00    5.010000E+06  0.02000  3.296E-02    0   0.9342   age055_m62            0.0000     2.1689E+00     4.3302   2.3784    95.0244
 38     12.4416     1.2341E-01    2.0920E-01    8.710000E+06  0.02000  1.154E-02    0   0.8861   age067_m62            0.0000     2.0290E+00     4.1828   1.3652   101.6032
 39      0.0000     0.0000E+00    0.0000E+00    1.445000E+07  0.02000  7.663E-03    0   0.8472   age078_m62            0.0000     9.1108E-01     2.5379   1.5758   100.3437
 40      0.0000     0.0000E+00    0.0000E+00    2.512000E+07  0.02000  4.532E-03    0   0.8099   age090_m62            0.0000     1.0893E+00     2.7553   1.5735    99.8345
 41      0.0000     0.0000E+00    0.0000E+00    5.500000E+07  0.02000  2.733E-03    0   0.7595   age110_m62            0.0000     9.5352E-01     2.6297   1.5950    99.2406
 42      0.0000     0.0000E+00    0.0000E+00    1.609000E+08  0.02000  1.369E-03    0   0.6985   age120_m62            0.0000     1.5195E+00     3.3642   1.4530   101.0247
 43      0.0000     0.0000E+00    0.0000E+00    2.861200E+08  0.02000  9.013E-04    0   0.6714   age125_m62            0.0000     2.1473E+00     3.8458   1.2145   103.2841
 44     19.6841     4.4811E+00    5.5287E+00    5.088000E+08  0.02000  5.028E-04    0   0.6449   age130_m62            0.0000     3.2614E+00     4.8792   0.8519   105.2548
 45      0.0000     0.0000E+00    0.0000E+00    9.047900E+08  0.02000  2.428E-04    0   0.6179   age135_m62            0.0000     3.7398E+00     5.2962   0.2644   104.7105
 46      0.0000     0.0000E+00    0.0000E+00    1.434000E+09  0.02000  1.263E-04    0   0.5908   age139_m62            0.0000     4.5420E+00     5.8013  -0.1859   103.4568
 47      0.0000     0.0000E+00    0.0000E+00    2.500000E+09  0.02000  5.985E-05    0   0.5673   age150_m62            0.0000     6.5018E+00     6.9889  -0.5532   102.1155
 48      0.0000     0.0000E+00    0.0000E+00    4.250000E+09  0.02000  3.271E-05    0   0.5468   age158_m62            0.0000     9.2814E+00     8.3404  -0.8507   100.8902
 49      0.0000     0.0000E+00    0.0000E+00    1.000000E+10  0.02000  1.360E-05    0   0.5167   age181_m62            0.0000     1.4425E+01     9.7931  -1.0000    93.6165
 50      0.0000     0.0000E+00    0.0000E+00    1.800000E+10  0.02000  7.124E-06    0   0.5013   age213_m62            0.0000     2.1258E+01    11.4530  -1.0000    85.8731
 51      5.6871     2.5114E-02    4.8037E-02    1.000000E+06  0.05000  2.592E-02    0   0.9998   age020_m72            0.0000     3.0354E+00     5.1734   2.7753    91.8635
 52      0.0001     2.6552E-07    4.8648E-07    3.160000E+06  0.05000  4.845E-02    0   0.9577   age045_m72            0.0000     2.7765E+00     4.8053   2.6201    93.2407
 53      0.0000     0.0000E+00    0.0000E+00    5.010000E+06  0.05000  3.072E-02    0   0.9147   age055_m72            0.0000     1.4705E+00     3.3102   2.1573    96.9135
 54      0.0000     0.0000E+00    0.0000E+00    6.610000E+06  0.05000  1.455E-02    0   0.8877   age061_m72            0.0000     4.8252E+00     6.5875   1.4242   102.6141
 55      0.0000     0.0000E+00    0.0000E+00    1.000000E+07  0.05000  9.074E-03    0   0.8524   age070_m72            0.0000     2.1739E+00     4.1646   2.3533    96.4319
 56      0.0000     0.0000E+00    0.0000E+00    2.512000E+07  0.05000  4.250E-03    0   0.7902   age090_m72            0.0000     1.5402E+00     3.4464   2.0614    97.5496
 57      0.0000     0.0000E+00    0.0000E+00    4.000000E+07  0.05000  3.087E-03    0   0.7618   age104_m72            0.0000     1.4963E+00     3.4680   1.8403    98.8158
 58      0.0000     0.0000E+00    0.0000E+00    1.015200E+08  0.05000  1.700E-03    0   0.7096   age116_m72            0.0000     1.3829E+00     3.2113   1.5936   100.7343
 59      0.0000     0.0000E+00    0.0000E+00    2.861200E+08  0.05000  7.384E-04    0   0.6633   age125_m72            0.0000     2.7068E+00     4.3113   1.0916   104.2089
 60      0.0000     0.0000E+00    0.0000E+00    5.088000E+08  0.05000  3.819E-04    0   0.6372   age130_m72            0.0000     3.5812E+00     5.2922   0.6026   105.6418
 61      0.0000     0.0000E+00    0.0000E+00    9.047900E+08  0.05000  1.676E-04    0   0.6110   age135_m72            0.0000     5.8974E+00     6.9045  -0.0980   104.0659
 62      0.0000     0.0000E+00    0.0000E+00    1.434000E+09  0.05000  8.837E-05    0   0.5874   age139_m72            0.0000     7.2151E+00     7.2809  -0.5494   103.3645
 63      0.0000     0.0000E+00    0.0000E+00    2.500000E+09  0.05000  4.233E-05    0   0.5598   age150_m72            0.0000     1.0308E+01     8.7915  -0.8491   101.6349
 64      0.0000     0.0000E+00    0.0000E+00    6.250000E+09  0.05000  1.435E-05    0   0.5249   age166_m72            0.0000     1.6887E+01    10.4770  -1.0000    89.9748
 65      0.0000     0.0000E+00    0.0000E+00    1.300000E+10  0.05000  6.513E-06    0   0.5036   age193_m72            0.0000     2.8005E+01    13.1156  -1.0000    81.4874
 66      0.0000     0.0000E+00    0.0000E+00    1.800000E+10  0.05000  4.527E-06    0   0.4945   age213_m72            0.0000     3.6217E+01    14.9203  -1.0000    76.1332


## Synthesis Results - Average & Chains ##

# j      x_j: min, <> & last-chain-values for 1 ...  7 chains
  1      4.9584      3.0674      3.5426      2.3461      4.1791      4.4698      2.5991      3.1197      3.0465
  2      0.3279      0.3721      0.0000      0.0874      0.4350      0.4100      0.6456      1.2191      0.2012
  3      0.0000      0.1593      0.7433      0.0000      0.1054      0.0000      0.0000      0.0000      0.0000
  4      0.0000      0.3044      0.7464      0.0000      0.1190      0.0175      0.5243      0.0000      0.3896
  5      0.0000      2.1528      1.9137      1.7681      1.6926      1.9627      2.2677      0.2140      2.1057
  6      0.0000      0.6937      0.0000      0.9104      1.6269      0.1031      0.8945      0.8524      0.0000
  7      0.0011      0.3638      0.0000      0.0000      0.6319      0.8574      0.2174      0.0000      0.0000
  8      0.0000      0.4635      0.0000      0.0000      0.2827      0.0000      2.9260      0.0000      0.0000
  9      0.0000      0.2842      0.3623      0.0000      0.0000      0.3882      0.4611      0.3445      0.2930
 10      0.0000      0.2628      0.3839      0.0000      0.1244      0.0000      0.5330      0.6724      0.8289
 11      0.0001      0.4865      0.0691      0.1140      0.0000      0.5389      0.0000      0.4057      0.5835
 12      0.0000      0.3771      0.0000      0.1085      0.0000      0.5967      0.5140      0.1743      0.0000
 13      6.0089      8.6799      8.7693      8.7607      7.9564      8.6507      9.2102      7.0961      8.0471
 14      5.7038      4.5740      4.9045      4.2647      4.5601      4.6403      4.8225      5.4652      4.5683
 15      8.6771      6.5335      7.0952      6.6591      6.9232      6.7923      6.1703      7.7446      6.8055
 16      0.0000      0.0800      0.0000      0.0000      0.0000      0.0000      0.5705      0.0000      0.1368
 17      2.4871      2.0044      2.0490      2.2776      1.9991      2.3705      2.1555      1.9298      2.3433
 18      4.5993      2.9881      4.0307      3.3349      3.2296      3.6494      3.6590      3.0968      3.4547
 19      2.6461      1.5400      1.6673      1.0140      1.3431      1.3719      1.6835      1.6743      1.9592
 20      0.0000      0.5639      0.0000      0.2828      0.6470      0.0737      0.1194      1.3057      0.2194
 21      0.0000      4.8566      5.1572      6.3844      3.9267      2.2319      4.6805      3.6060      5.4137
 22      0.0000      1.1364      0.8708      0.0000      1.5730      1.0924      1.7214      0.0000      1.3147
 23      0.0000      0.3492      0.0000      1.4406      0.0000      0.0000      0.0000      0.0000      0.1022
 24      0.0000      1.0125      2.6805      0.0000      0.0000      0.2626      1.0319      1.8300      0.4787
 25      0.0000      0.4478      0.0000      0.1181      0.0000      0.0000      0.1629      0.2043      1.1944
 26      0.0000      0.2859      0.0000      0.0000      0.7878      0.3098      0.0000      0.0000      0.7690
 27      0.0000      0.5966      0.0000      0.2927      0.1251      0.0000      0.0000      1.1097      0.0000
 28      6.4297      5.3657      4.8657      6.8891      5.9281      8.2296      6.0332      5.6628      5.6744
 29      0.0000      0.1124      0.0000      0.0496      0.0000      0.0000      0.0000      0.0000      0.0000
 30      0.0000      0.0489      0.0000      0.0000      0.0747      0.0224      0.0000      0.0832      0.0000
 31      0.0000      0.7891      0.9677      0.7653      0.8459      0.7638      0.2809      0.0000      0.9299
 32      0.0000      1.4069      1.4000      1.1751      1.4005      1.4421      1.2017      1.4660      1.1984
 33      0.0000      0.0119      0.0000      0.0000      0.0000      0.0000      0.0013      0.0000      0.1707
 34      2.7237      2.3820      2.3561      2.4576      2.4176      2.7896      2.4022      2.3062      2.4642
 35     13.5054      9.4722     10.2539     10.3979     10.2438     10.6131      9.2888     10.3371     10.7540
 36      6.5581      5.7943      6.3432      7.1217      6.1651      6.0334      5.7064      6.0354      5.8802
 37      0.0000      0.1746      0.0000      0.0000      0.0000      0.0000      0.0000      0.3089      0.0000
 38     12.4416     12.7332     11.7289     13.1889     13.0057     12.8438     12.9837     13.0681     12.7076
 39      0.0000      0.2617      0.3134      0.2710      0.0000      0.0000      0.4069      0.0000      0.0000
 40      0.0000      0.1720      0.0000      0.0000      0.0000      0.0679      0.0000      0.1450      0.0000
 41      0.0000      0.1896      0.0000      0.1653      0.0000      0.1733      0.0000      0.0000      0.0256
 42      0.0000      0.3128      0.0000      0.0000      0.6757      0.2260      0.2389      0.0964      0.0000
 43      0.0000      0.3368      0.0000      1.9380      0.7123      0.0000      0.0000      0.0000      0.3104
 44     19.6841      9.8451     12.3282     10.4120     10.1496     11.3562     10.1828     13.6260     11.3348
 45      0.0000      0.4328      0.0000      0.5495      0.0000      0.2651      0.0000      0.0000      0.0000
 46      0.0000      0.1378      0.0000      0.0000      0.0000      0.0000      0.0000      0.0000      0.0000
