###################################################################
## OUTPUT of StarlightChains_v04.for    [Cid@UFSC - 01/Apr/2007] ##
###################################################################

## Some input info
2003el.txt                               [arq_obs]
Base.CB07.vall.4m                        [arq_base]
Masks.EmLines.NEW.gm                     [arq_masks]
StCv04.C11.config                        [arq_config]
   66                                    [N_base]
    0                                    [N_YAV_components = # of components with extra extinction!]
    0                                    [i_FitPowerLaw (1/0 = Yes/No)]
-9.99                                    [alpha_PowerLaw]
CCM                                      [red_law_option]
 1.458241                                [q_norm = A(l_norm)/A(V)]

## (Re)Sampling Parameters
 3741.00                                 [l_ini (A)]
 7218.00                                 [l_fin (A)]
    1.00                                 [dl    (A)]     (OBS: dl_cushion =    50.00 A)

## Normalization info
 4020.00                                 [l_norm (A) - for base]
 4010.00                                 [llow_norm (A) - window for f_obs]
 4060.00                                 [lupp_norm (A) - window for f_obs]
4.658317E-17                             [fobs_norm (in input units)]

## S/N
 3691.00                                 [llow_SN (A) - window for S/N]
 7268.00                                 [lupp_SN (A) - window for S/N]
   7.361                                 [S/N in S/N window]
   7.729                                 [S/N in norm. window]
   9.264                                 [S/N_err in S/N window]
   9.727                                 [S/N_err in norm. window]
  1.0000                                 [fscale_chi2]

## etc...
    -2007275                             [idum_orig]
  2384                                   [NOl_eff]
  2381                                   [Nl_eff]
     3    NSIGMA                         [Ntot_cliped & clip_method]
  1228430                                [Nglobal_steps]
   7                                     [N_chains]
  20                                     [NEX0s_base = N_base in EX0s-fits]
 0   0   1       29   2.0   1.280E+01    [Clip-Bug, RC-Crash & Burn-In warning-flags, n_censored_weights, wei_nsig_threshold & wei_limit]
    13     13.019     12.524      0.495  [idt_all, wdt_TotTime, wdt_UsrTime & wdt_SysTime (sec)]

## Synthesis Results - Best model ##

 5.30425E-01                             [chi2/Nl_eff]
     6.44610                             [adev (%)]

   100.91082                             [sum-of-x (%)]
 4.85639E-17                             [Flux_tot (units of input spectrum!)]
 6.96894E-13                             [Mini_tot (???)]
 3.81143E-13                             [Mcor_tot (???)]

  16.01                                  [v0_min  (km/s)]
 160.98                                  [vd_min  (km/s)]
 0.0243                                  [AV_min  (mag)]
 0.0000                                  [YAV_min (mag)]

# j     x_j(%)      Mini_j(%)     Mcor_j(%)     age_j(yr)     Z_j      (L/M)_j    YAV?  Mstars   component_j        a/Fe...       SSP_chi2r SSP_adev(%)   SSP_AV   SSP_x(%)
  1      0.0000     0.0000E+00    0.0000E+00    1.000000E+06  0.00400  1.094E-02    0   1.0000   age020_m42            0.0000     7.8356E-01     8.3292   3.0404    88.8466
  2      0.0000     0.0000E+00    0.0000E+00    3.160000E+06  0.00400  4.007E-02    0   0.9999   age045_m42            0.0000     7.1923E-01     7.7511   2.3386    93.8263
  3      0.5188     1.4112E-03    2.4481E-03    5.010000E+06  0.00400  2.539E-02    0   0.9488   age055_m42            0.0000     7.3676E-01     7.8940   2.6466    92.0589
  4      4.1000     1.0807E-02    1.8218E-02    6.610000E+06  0.00400  2.620E-02    0   0.9220   age061_m42            0.0000     7.1320E-01     7.6927   2.2638    94.0742
  5      3.4327     1.7931E-02    2.9055E-02    1.000000E+07  0.00400  1.322E-02    0   0.8862   age070_m42            0.0000     7.6568E-01     8.0374   1.9623    96.8349
  6      0.0000     0.0000E+00    0.0000E+00    1.445000E+07  0.00400  7.883E-03    0   0.8571   age078_m42            0.0000     7.7946E-01     8.1458   2.2852    94.5751
  7      0.0000     0.0000E+00    0.0000E+00    2.512000E+07  0.00400  5.251E-03    0   0.8174   age090_m42            0.0000     7.8741E-01     8.1411   1.8316    97.3896
  8      2.3248     4.3996E-02    6.3156E-02    4.000000E+07  0.00400  3.649E-03    0   0.7851   age104_m42            0.0000     7.5960E-01     7.9712   1.6083    98.0278
  9      0.0000     0.0000E+00    0.0000E+00    5.500000E+07  0.00400  3.098E-03    0   0.7629   age110_m42            0.0000     7.3463E-01     7.7755   1.7754    97.4533
 10      3.2901     1.0198E-01    1.3438E-01    1.015200E+08  0.00400  2.228E-03    0   0.7207   age116_m42            0.0000     7.2207E-01     7.6859   1.8051    97.2479
 11      0.0000     0.0000E+00    0.0000E+00    2.861200E+08  0.00400  1.093E-03    0   0.6648   age125_m42            0.0000     7.6730E-01     7.9548   1.2300   100.2845
 12      0.0000     0.0000E+00    0.0000E+00    5.088000E+08  0.00400  6.597E-04    0   0.6365   age130_m42            0.0000     7.1601E-01     7.7183   1.2328   100.6260
 13      0.2902     9.4012E-02    9.9665E-02    1.434000E+09  0.00400  2.132E-04    0   0.5798   age139_m42            0.0000     5.9597E-01     6.8822   0.2697   102.4544
 14     40.4203     4.7350E+01    4.6553E+01    4.250000E+09  0.00400  5.895E-05    0   0.5377   age158_m42            0.0000     5.4289E-01     6.5408  -0.1712    98.7187
 15      3.0504     6.0015E+00    5.7193E+00    7.500000E+09  0.00400  3.510E-05    0   0.5212   age171_m42            0.0000     5.6545E-01     6.6913  -0.3554    97.9615
 16      0.0000     0.0000E+00    0.0000E+00    1.300000E+10  0.00400  2.005E-05    0   0.5034   age193_m42            0.0000     6.0117E-01     6.8983  -0.5176    97.3570
 17      0.0000     0.0000E+00    0.0000E+00    1.800000E+10  0.00400  1.525E-05    0   0.4967   age213_m42            0.0000     5.9304E-01     6.8345  -0.5429    97.0210
 18      0.0000     0.0000E+00    0.0000E+00    1.000000E+06  0.00800  1.238E-02    0   1.0000   age020_m52            0.0000     7.8384E-01     8.3310   3.0356    89.0567
 19      0.0000     0.0000E+00    0.0000E+00    3.160000E+06  0.00800  3.074E-02    0   0.9966   age045_m52            0.0000     7.7559E-01     8.2494   2.9622    89.7264
 20      0.0000     0.0000E+00    0.0000E+00    5.010000E+06  0.00800  2.668E-02    0   0.9443   age055_m52            0.0000     7.4010E-01     7.9549   2.7251    91.4174
 21     12.5662     4.0627E-02    6.8170E-02    6.610000E+06  0.00800  2.136E-02    0   0.9177   age061_m52            0.0000     6.7500E-01     7.6542   1.4575    98.2739
 22      0.0000     0.0000E+00    0.0000E+00    1.000000E+07  0.00800  1.215E-02    0   0.8827   age070_m52            0.0000     8.1173E-01     8.3385   2.1322    96.9789
 23      0.0000     0.0000E+00    0.0000E+00    1.445000E+07  0.00800  8.717E-03    0   0.8552   age078_m52            0.0000     7.6865E-01     8.0810   2.2519    95.8266
 24      0.0000     0.0000E+00    0.0000E+00    2.512000E+07  0.00800  5.592E-03    0   0.8162   age090_m52            0.0000     7.9346E-01     8.1655   1.8951    98.5261
 25      0.0000     0.0000E+00    0.0000E+00    4.000000E+07  0.00800  3.896E-03    0   0.7841   age104_m52            0.0000     7.7561E-01     8.0300   1.8152    98.9268
 26      0.0000     0.0000E+00    0.0000E+00    1.015200E+08  0.00800  2.148E-03    0   0.7226   age116_m52            0.0000     7.2379E-01     7.7185   1.7672    98.2202
 27      0.0000     0.0000E+00    0.0000E+00    2.861200E+08  0.00800  9.925E-04    0   0.6683   age125_m52            0.0000     7.0835E-01     7.6791   1.2980   101.5328
 28      0.0000     0.0000E+00    0.0000E+00    9.047900E+08  0.00800  3.141E-04    0   0.6138   age135_m52            0.0000     6.5670E-01     7.2991   0.5171   105.0477
 29      0.0000     0.0000E+00    0.0000E+00    1.434000E+09  0.00800  1.719E-04    0   0.5853   age139_m52            0.0000     5.9246E-01     6.7999  -0.0707   103.3838
 30      0.0000     0.0000E+00    0.0000E+00    2.500000E+09  0.00800  7.872E-05    0   0.5600   age150_m52            0.0000     5.8970E-01     6.8907  -0.3295   100.4072
 31      0.0000     0.0000E+00    0.0000E+00    4.250000E+09  0.00800  4.336E-05    0   0.5426   age158_m52            0.0000     6.0244E-01     6.9521  -0.3453    99.5106
 32      0.0000     0.0000E+00    0.0000E+00    6.250000E+09  0.00800  3.159E-05    0   0.5319   age166_m52            0.0000     6.5740E-01     7.3024  -0.5398    99.2519
 33      0.0000     0.0000E+00    0.0000E+00    1.300000E+10  0.00800  1.361E-05    0   0.5073   age193_m52            0.0000     7.6127E-01     7.8977  -0.9969    98.2504
 34      0.0000     0.0000E+00    0.0000E+00    1.800000E+10  0.00800  9.886E-06    0   0.4990   age213_m52            0.0000     8.9212E-01     8.6287  -1.0000    93.9563
 35      0.0000     0.0000E+00    0.0000E+00    1.000000E+06  0.02000  1.544E-02    0   1.0000   age020_m62            0.0000     7.8800E-01     8.3626   3.0309    89.2976
 36      0.0000     0.0000E+00    0.0000E+00    3.160000E+06  0.02000  3.762E-02    0   0.9858   age045_m62            0.0000     7.8554E-01     8.3105   2.9704    90.0664
 37      3.2231     6.7530E-03    1.1535E-02    5.010000E+06  0.02000  3.296E-02    0   0.9342   age055_m62            0.0000     7.1707E-01     7.7348   2.6127    92.9405
 38      0.0000     0.0000E+00    0.0000E+00    8.710000E+06  0.02000  1.154E-02    0   0.8861   age067_m62            0.0000     1.2292E+00    10.6753   1.5366   101.6408
 39      0.0000     0.0000E+00    0.0000E+00    1.445000E+07  0.02000  7.663E-03    0   0.8472   age078_m62            0.0000     9.0048E-01     8.8765   1.7635    99.7702
 40      0.0000     0.0000E+00    0.0000E+00    2.512000E+07  0.02000  4.532E-03    0   0.8099   age090_m62            0.0000     9.4460E-01     9.0295   1.7562    99.4342
 41      0.0000     0.0000E+00    0.0000E+00    5.500000E+07  0.02000  2.733E-03    0   0.7595   age110_m62            0.0000     7.5899E-01     7.9431   1.7951    98.3691
 42      0.0000     0.0000E+00    0.0000E+00    1.609000E+08  0.02000  1.369E-03    0   0.6985   age120_m62            0.0000     7.2772E-01     7.7487   1.6554   100.1227
 43      0.0000     0.0000E+00    0.0000E+00    2.861200E+08  0.02000  9.013E-04    0   0.6714   age125_m62            0.0000     7.2082E-01     7.8139   1.4169   102.4734
 44      0.0000     0.0000E+00    0.0000E+00    5.088000E+08  0.02000  5.028E-04    0   0.6449   age130_m62            0.0000     6.9285E-01     7.6403   1.0569   104.4569
 45      0.0000     0.0000E+00    0.0000E+00    9.047900E+08  0.02000  2.428E-04    0   0.6179   age135_m62            0.0000     6.1449E-01     7.0873   0.4705   104.0008
 46      0.0000     0.0000E+00    0.0000E+00    1.434000E+09  0.02000  1.263E-04    0   0.5908   age139_m62            0.0000     6.0088E-01     6.9846   0.0240   102.7087
 47      0.0000     0.0000E+00    0.0000E+00    2.500000E+09  0.02000  5.985E-05    0   0.5673   age150_m62            0.0000     6.5298E-01     7.3051  -0.3357   101.1727
 48      2.3972     5.0610E+00    5.0599E+00    4.250000E+09  0.02000  3.271E-05    0   0.5468   age158_m62            0.0000     7.6021E-01     7.9495  -0.6288    99.9412
 49      0.0000     0.0000E+00    0.0000E+00    1.000000E+10  0.02000  1.360E-05    0   0.5167   age181_m62            0.0000     9.6903E-01     9.0448  -0.9613    98.9600
 50      0.0000     0.0000E+00    0.0000E+00    1.800000E+10  0.02000  7.124E-06    0   0.5013   age213_m62            0.0000     1.2352E+00    10.2198  -1.0000    91.9303
 51      0.0000     0.0000E+00    0.0000E+00    1.000000E+06  0.05000  2.592E-02    0   0.9998   age020_m72            0.0000     8.0377E-01     8.4846   3.0203    89.4122
 52      0.0000     0.0000E+00    0.0000E+00    3.160000E+06  0.05000  4.845E-02    0   0.9577   age045_m72            0.0000     7.5961E-01     8.0573   2.8640    90.8220
 53      0.0000     0.0000E+00    0.0000E+00    5.010000E+06  0.05000  3.072E-02    0   0.9147   age055_m72            0.0000     8.6360E-01     8.6725   2.3555    95.7742
 54      0.0000     0.0000E+00    0.0000E+00    6.610000E+06  0.05000  1.455E-02    0   0.8877   age061_m72            0.0000     1.8379E+00    13.0076   1.5575   103.3121
 55      0.0000     0.0000E+00    0.0000E+00    1.000000E+07  0.05000  9.074E-03    0   0.8524   age070_m72            0.0000     1.0128E+00     9.2375   2.5360    95.5032
 56      0.0000     0.0000E+00    0.0000E+00    2.512000E+07  0.05000  4.250E-03    0   0.7902   age090_m72            0.0000     9.2539E-01     8.7538   2.2469    96.8023
 57      0.0000     0.0000E+00    0.0000E+00    4.000000E+07  0.05000  3.087E-03    0   0.7618   age104_m72            0.0000     9.4936E-01     8.8352   2.0199    98.3281
 58      0.0000     0.0000E+00    0.0000E+00    1.015200E+08  0.05000  1.700E-03    0   0.7096   age116_m72            0.0000     7.8182E-01     8.0293   1.7901    99.9592
 59      0.0000     0.0000E+00    0.0000E+00    2.861200E+08  0.05000  7.384E-04    0   0.6633   age125_m72            0.0000     7.0570E-01     7.7342   1.2940   103.4802
 60      0.0000     0.0000E+00    0.0000E+00    5.088000E+08  0.05000  3.819E-04    0   0.6372   age130_m72            0.0000     6.3272E-01     7.2311   0.8125   104.8461
 61      0.0000     0.0000E+00    0.0000E+00    9.047900E+08  0.05000  1.676E-04    0   0.6110   age135_m72            0.0000     6.4351E-01     7.3104   0.1253   102.8993
 62      0.0000     0.0000E+00    0.0000E+00    1.434000E+09  0.05000  8.837E-05    0   0.5874   age139_m72            0.0000     6.7936E-01     7.4623  -0.3335   102.5403
 63     25.2970     4.1270E+01    4.2242E+01    2.500000E+09  0.05000  4.233E-05    0   0.5598   age150_m72            0.0000     8.1159E-01     8.2235  -0.6257   100.6574
 64      0.0000     0.0000E+00    0.0000E+00    6.250000E+09  0.05000  1.435E-05    0   0.5249   age166_m72            0.0000     1.0325E+00     9.3371  -1.0000    96.4216
 65      0.0000     0.0000E+00    0.0000E+00    1.300000E+10  0.05000  6.513E-06    0   0.5036   age193_m72            0.0000     1.5860E+00    11.3750  -1.0000    87.1398
 66      0.0000     0.0000E+00    0.0000E+00    1.800000E+10  0.05000  4.527E-06    0   0.4945   age213_m72            0.0000     2.0955E+00    12.8580  -1.0000    81.3405


## Synthesis Results - Average & Chains ##

# j      x_j: min, <> & last-chain-values for 1 ...  7 chains
  1      0.0000      0.5002      0.0000      0.2994      1.5447      2.3750      0.0000      0.0000      0.0000
  2      0.0000      0.9080      1.9442      0.0000      0.0000      0.0000      0.4140      1.3425      0.0000
  3      0.5188      0.6746      0.0000      0.0000      0.0000      0.0983      1.5059      0.0000      0.6801
  4      4.1000      3.1057      4.9648      4.3171      4.3055      3.4810      2.7541      0.0000      4.2923
  5      3.4327      2.9341      2.3741      4.5501      4.1674      5.2403      0.0000      7.9702      3.5636
  6      0.0000      0.5648      0.0000      3.8419      0.5431      1.4201      0.0000      0.0000      0.0000
  7      0.0000      1.1122      1.8493      1.4821      0.5958      0.0000      5.6243      1.4880      0.0000
  8      2.3248      0.6320      0.0000      2.6716      0.0000      0.0000      1.4486      0.0000      1.2768
  9      0.0000      0.5037      0.0000      3.0198      1.3211      2.6069      0.0000      2.5808      0.0000
 10      3.2901      0.5099      0.0000      0.0000      1.4448      0.0271      1.6661      0.0000      4.3786
 11      0.0000      0.5299      0.0000      0.0000      2.8723      0.0000      0.0000      0.0000      0.7107
 12      0.0000      0.8229      0.0000      0.0000      0.0000      3.5104      0.0000      0.6781      0.0000
 13      0.2902      5.3795      7.1201      1.3620      0.1954      1.4671      5.7208      0.4760      5.0438
 14     40.4203     12.2252     19.3665     13.4826     11.6512     11.8840     12.4537     16.7228     16.7966
 15      3.0504      2.4608      4.6281      1.5210      5.7246      8.9266      1.7756      3.5025      3.3900
 16      0.0000      1.2527      0.0000      1.9284      1.9657      0.9104      1.9460      1.9824      2.8801
 17      0.0000      1.3751      1.3069      3.7876      0.0000      2.5003      1.4454      0.0000      2.2860
 18      0.0000      0.4449      0.0000      0.8815      0.9980      0.0000      0.0000      1.0160      0.0000
 19      0.0000      0.4275      1.6360      0.6936      0.0000      1.5725      0.0000      2.6751      0.2601
 20      0.0000      0.3672      0.0000      0.7493      1.5366      0.0000      0.0000      0.0000      0.0000
 21     12.5662      3.2579      3.9482      2.5381      5.0725      4.0734      4.3015      5.8785      2.7914
 22      0.0000      0.6832      0.0000      0.0000      0.6990      2.0696      0.0000      0.1488      0.0000
 23      0.0000      0.5160      0.0000      0.0000      0.0000      0.4094      0.0000      1.0516      0.0000
 24      0.0000      0.5270      0.4305      0.6892      1.4030      0.1155      0.0000      1.1736      0.0000
 25      0.0000      0.4850      0.0000      0.0000      0.0000      0.0000      3.2497      0.0000      0.0000
 26      0.0000      0.3553      0.0000      0.0000      0.0000      1.9261      0.0000      0.6527      0.0000
 27      0.0000      0.7494      0.0000      0.5926      0.3633      0.0000      1.2288      0.0000      1.2771
 28      0.0000      0.5379      0.0000      0.3361      0.0000      0.0000      0.0000      0.0000      0.0000
 29      0.0000      1.1677      0.0000      0.0000      0.0000      0.0000      0.0000      0.0000      0.0000
 30      0.0000      0.8713      0.0000      0.0000      0.2325      0.0000      0.0000      0.0000      0.5558
 31      0.0000      0.6203      0.0000      0.0000      0.0000      0.0000      0.4911      0.5600      0.0000
 32      0.0000      0.5649      0.0000      0.0000      0.0000      0.0000      0.0000      0.0000      0.0000
 33      0.0000      0.1326      0.0000      0.0000      0.0000      0.2402      0.0000      0.0000      0.0000
 34      0.0000      0.0657      0.0000      0.0000      0.0000      0.0000      0.0000      0.0000      0.0000
 35      0.0000      0.3556      0.0000      0.0000      0.0000      0.0000      0.2841      0.3040      3.9343
 36      0.0000      0.2844      1.2482      0.0000      0.0000      0.0000      0.0000      0.0000      0.0000
 37      3.2231      0.3532      1.2734      1.2587      0.0000      0.0034      0.5200      0.0000      3.3118
 38      0.0000      0.4057      0.0000      0.0000      0.0000      0.0000      2.1252      0.3058      0.0000
 39      0.0000      1.1468      0.0000      1.6079      4.5215      0.9843      0.1221      0.5721      0.0000
 40      0.0000      0.3749      2.0023      0.0000      0.0000      0.0000      0.0000      0.0000      0.0000
 41      0.0000      0.3488      0.0000      0.0000      0.0000      0.0000      1.2323      1.5853      0.0000
 42      0.0000      0.3428      0.0000      0.0000      0.0000      0.0000      0.0000      0.0000      0.0000
 43      0.0000      0.5959      0.0000      0.0000      0.0000      0.0000      0.0000      0.0000      0.0000
 44      0.0000      0.4811      0.0000      0.0000      0.0000      0.0000      0.0000      0.0000      2.8580
 45      0.0000      0.9280      0.0000      0.0000      0.0000      0.0231      0.0000      0.0000      0.0000
 46      0.0000      1.5589      0.0000      3.7434      0.0000      0.0000      0.0000      0.8679      0.0000
