###################################################################
## OUTPUT of StarlightChains_v04.for    [Cid@UFSC - 01/Apr/2007] ##
###################################################################

## Some input info
2003ic.txt                               [arq_obs]
Base.CB07.vall.4m                        [arq_base]
Masks.EmLines.NEW.gm                     [arq_masks]
StCv04.C11.config                        [arq_config]
   66                                    [N_base]
    0                                    [N_YAV_components = # of components with extra extinction!]
    0                                    [i_FitPowerLaw (1/0 = Yes/No)]
-9.99                                    [alpha_PowerLaw]
CCM                                      [red_law_option]
 1.458241                                [q_norm = A(l_norm)/A(V)]

## (Re)Sampling Parameters
 3741.00                                 [l_ini (A)]
 7218.00                                 [l_fin (A)]
    1.00                                 [dl    (A)]     (OBS: dl_cushion =    50.00 A)

## Normalization info
 4020.00                                 [l_norm (A) - for base]
 4010.00                                 [llow_norm (A) - window for f_obs]
 4060.00                                 [lupp_norm (A) - window for f_obs]
5.414866E-18                             [fobs_norm (in input units)]

## S/N
 3691.00                                 [llow_SN (A) - window for S/N]
 7268.00                                 [lupp_SN (A) - window for S/N]
   4.077                                 [S/N in S/N window]
   3.359                                 [S/N in norm. window]
   9.845                                 [S/N_err in S/N window]
   8.112                                 [S/N_err in norm. window]
  1.0000                                 [fscale_chi2]

## etc...
    -2007280                             [idum_orig]
  2203                                   [NOl_eff]
  2194                                   [Nl_eff]
     9    NSIGMA                         [Ntot_cliped & clip_method]
  1613990                                [Nglobal_steps]
   7                                     [N_chains]
  26                                     [NEX0s_base = N_base in EX0s-fits]
 0   0   1        0   2.0   1.538E+01    [Clip-Bug, RC-Crash & Burn-In warning-flags, n_censored_weights, wei_nsig_threshold & wei_limit]
    13     13.217     12.725      0.493  [idt_all, wdt_TotTime, wdt_UsrTime & wdt_SysTime (sec)]

## Synthesis Results - Best model ##

 6.84532E-01                             [chi2/Nl_eff]
    11.00347                             [adev (%)]

    93.31849                             [sum-of-x (%)]
 5.92131E-18                             [Flux_tot (units of input spectrum!)]
 5.18693E-13                             [Mini_tot (???)]
 2.60860E-13                             [Mcor_tot (???)]

  39.43                                  [v0_min  (km/s)]
 349.08                                  [vd_min  (km/s)]
 0.1181                                  [AV_min  (mag)]
 0.0000                                  [YAV_min (mag)]

# j     x_j(%)      Mini_j(%)     Mcor_j(%)     age_j(yr)     Z_j      (L/M)_j    YAV?  Mstars   component_j        a/Fe...       SSP_chi2r SSP_adev(%)   SSP_AV   SSP_x(%)
  1      0.3479     3.8898E-04    7.7345E-04    1.000000E+06  0.00400  1.094E-02    0   1.0000   age020_m42            0.0000     1.2492E+00    16.3570   3.8493    85.1926
  2      0.0000     0.0000E+00    0.0000E+00    3.160000E+06  0.00400  4.007E-02    0   0.9999   age045_m42            0.0000     1.2106E+00    15.2704   3.1361    90.6077
  3      0.4204     2.0257E-04    3.8216E-04    5.010000E+06  0.00400  2.539E-02    0   0.9488   age055_m42            0.0000     1.2058E+00    15.7560   3.4464    88.7688
  4      0.0000     0.0000E+00    0.0000E+00    6.610000E+06  0.00400  2.620E-02    0   0.9220   age061_m42            0.0000     1.1866E+00    15.2649   3.0557    91.1654
  5      0.0000     0.0000E+00    0.0000E+00    1.000000E+07  0.00400  1.322E-02    0   0.8862   age070_m42            0.0000     1.1737E+00    16.3643   2.7082    96.2522
  6      0.0000     0.0000E+00    0.0000E+00    1.445000E+07  0.00400  7.883E-03    0   0.8571   age078_m42            0.0000     1.1862E+00    16.5241   3.0422    93.4779
  7      0.0003     7.5142E-07    1.2213E-06    2.512000E+07  0.00400  5.251E-03    0   0.8174   age090_m42            0.0000     1.1942E+00    16.5797   2.5647    97.4315
  8      0.0000     0.0000E+00    0.0000E+00    4.000000E+07  0.00400  3.649E-03    0   0.7851   age104_m42            0.0000     1.1728E+00    16.1952   2.3460    97.8291
  9      0.0172     6.7825E-05    1.0289E-04    5.500000E+07  0.00400  3.098E-03    0   0.7629   age110_m42            0.0000     1.1660E+00    15.4554   2.5337    96.2406
 10      0.0000     0.0000E+00    0.0000E+00    1.015200E+08  0.00400  2.228E-03    0   0.7207   age116_m42            0.0000     1.1578E+00    14.9675   2.5743    95.4706
 11      0.0000     0.0000E+00    0.0000E+00    2.861200E+08  0.00400  1.093E-03    0   0.6648   age125_m42            0.0000     1.1335E+00    14.9679   1.9933    99.2095
 12      0.4903     9.0919E-03    1.1507E-02    5.088000E+08  0.00400  6.597E-04    0   0.6365   age130_m42            0.0000     1.0836E+00    14.1499   2.0134    98.4989
 13      1.0055     5.7696E-02    6.6516E-02    1.434000E+09  0.00400  2.132E-04    0   0.5798   age139_m42            0.0000     8.9817E-01    12.9628   1.0532    99.6621
 14      0.0000     0.0000E+00    0.0000E+00    4.250000E+09  0.00400  5.895E-05    0   0.5377   age158_m42            0.0000     7.9385E-01    12.1491   0.6591    93.6335
 15      0.0000     0.0000E+00    0.0000E+00    7.500000E+09  0.00400  3.510E-05    0   0.5212   age171_m42            0.0000     7.5847E-01    11.7592   0.4968    91.9549
 16      2.9056     1.7728E+00    1.7745E+00    1.300000E+10  0.00400  2.005E-05    0   0.5034   age193_m42            0.0000     7.3545E-01    11.4547   0.3565    90.4854
 17      5.9326     4.7590E+00    4.7002E+00    1.800000E+10  0.00400  1.525E-05    0   0.4967   age213_m42            0.0000     7.3272E-01    11.5499   0.3252    90.3980
 18      0.0000     0.0000E+00    0.0000E+00    1.000000E+06  0.00800  1.238E-02    0   1.0000   age020_m52            0.0000     1.2466E+00    16.3672   3.8447    85.3864
 19      0.0000     0.0000E+00    0.0000E+00    3.160000E+06  0.00800  3.074E-02    0   0.9966   age045_m52            0.0000     1.2323E+00    16.2282   3.7702    86.0296
 20      0.0000     0.0000E+00    0.0000E+00    5.010000E+06  0.00800  2.668E-02    0   0.9443   age055_m52            0.0000     1.1931E+00    15.9049   3.5240    88.1395
 21      2.6028     1.4907E-03    2.7201E-03    6.610000E+06  0.00800  2.136E-02    0   0.9177   age061_m52            0.0000     1.0698E+00    15.9212   2.2099    97.0929
 22      0.0000     0.0000E+00    0.0000E+00    1.000000E+07  0.00800  1.215E-02    0   0.8827   age070_m52            0.0000     1.1777E+00    16.8815   2.8708    96.8938
 23      0.0000     0.0000E+00    0.0000E+00    1.445000E+07  0.00800  8.717E-03    0   0.8552   age078_m52            0.0000     1.1633E+00    16.4291   3.0042    94.9081
 24      0.0000     0.0000E+00    0.0000E+00    2.512000E+07  0.00800  5.592E-03    0   0.8162   age090_m52            0.0000     1.1726E+00    16.5315   2.6274    98.6888
 25      0.0000     0.0000E+00    0.0000E+00    4.000000E+07  0.00800  3.896E-03    0   0.7841   age104_m52            0.0000     1.1619E+00    16.0092   2.5602    98.5416
 26      0.0000     0.0000E+00    0.0000E+00    1.015200E+08  0.00800  2.148E-03    0   0.7226   age116_m52            0.0000     1.1405E+00    15.1942   2.5300    96.8408
 27      0.0000     0.0000E+00    0.0000E+00    2.861200E+08  0.00800  9.925E-04    0   0.6683   age125_m52            0.0000     1.0787E+00    14.0952   2.0783    99.4227
 28      0.0000     0.0000E+00    0.0000E+00    9.047900E+08  0.00800  3.141E-04    0   0.6138   age135_m52            0.0000     9.3125E-01    12.4333   1.3296   101.0473
 29      0.0000     0.0000E+00    0.0000E+00    1.434000E+09  0.00800  1.719E-04    0   0.5853   age139_m52            0.0000     8.1039E-01    12.1104   0.7545    98.7269
 30      0.0031     4.8177E-04    5.3645E-04    2.500000E+09  0.00800  7.872E-05    0   0.5600   age150_m52            0.0000     7.3979E-01    11.3877   0.5352    93.7679
 31      0.0000     0.0000E+00    0.0000E+00    4.250000E+09  0.00800  4.336E-05    0   0.5426   age158_m52            0.0000     7.4399E-01    11.4104   0.5225    92.7691
 32      0.0000     0.0000E+00    0.0000E+00    6.250000E+09  0.00800  3.159E-05    0   0.5319   age166_m52            0.0000     7.1738E-01    10.9696   0.3509    91.4675
 33      0.0000     0.0000E+00    0.0000E+00    1.300000E+10  0.00800  1.361E-05    0   0.5073   age193_m52            0.0000     7.0062E-01    10.5579  -0.0800    89.3009
 34      9.2901     1.1496E+01    1.1406E+01    1.800000E+10  0.00800  9.886E-06    0   0.4990   age213_m52            0.0000     7.0875E-01    10.3878  -0.1548    87.5275
 35      0.0000     0.0000E+00    0.0000E+00    1.000000E+06  0.02000  1.544E-02    0   1.0000   age020_m62            0.0000     1.2457E+00    16.3981   3.8397    85.6221
 36      1.8341     5.9640E-04    1.1690E-03    3.160000E+06  0.02000  3.762E-02    0   0.9858   age045_m62            0.0000     1.2300E+00    16.2660   3.7835    86.1832
 37      2.1112     7.8357E-04    1.4555E-03    5.010000E+06  0.02000  3.296E-02    0   0.9342   age055_m62            0.0000     1.1872E+00    15.3913   3.4176    89.3973
 38      0.0000     0.0000E+00    0.0000E+00    8.710000E+06  0.02000  1.154E-02    0   0.8861   age067_m62            0.0000     1.4504E+00    20.7524   2.1893   106.6128
 39      0.7256     1.1584E-03    1.9514E-03    1.445000E+07  0.02000  7.663E-03    0   0.8472   age078_m62            0.0000     1.2071E+00    17.7247   2.4812   101.0466
 40      1.2179     3.2875E-03    5.2942E-03    2.512000E+07  0.02000  4.532E-03    0   0.8099   age090_m62            0.0000     1.2346E+00    17.8864   2.4693   101.0662
 41      0.0000     0.0000E+00    0.0000E+00    5.500000E+07  0.02000  2.733E-03    0   0.7595   age110_m62            0.0000     1.1299E+00    16.0249   2.5388    97.9825
 42      0.0000     0.0000E+00    0.0000E+00    1.609000E+08  0.02000  1.369E-03    0   0.6985   age120_m62            0.0000     1.1162E+00    14.7550   2.4199    98.6698
 43      0.0000     0.0000E+00    0.0000E+00    2.861200E+08  0.02000  9.013E-04    0   0.6714   age125_m62            0.0000     1.0938E+00    14.0404   2.1870   100.6049
 44      0.0000     0.0000E+00    0.0000E+00    5.088000E+08  0.02000  5.028E-04    0   0.6449   age130_m62            0.0000     1.0326E+00    12.8218   1.8626   100.6659
 45      0.0000     0.0000E+00    0.0000E+00    9.047900E+08  0.02000  2.428E-04    0   0.6179   age135_m62            0.0000     8.7295E-01    11.9421   1.3059    98.6520
 46      0.0000     0.0000E+00    0.0000E+00    1.434000E+09  0.02000  1.263E-04    0   0.5908   age139_m62            0.0000     7.8911E-01    11.5695   0.8760    96.5049
 47      0.0000     0.0000E+00    0.0000E+00    2.500000E+09  0.02000  5.985E-05    0   0.5673   age150_m62            0.0000     7.4430E-01    11.0871   0.5513    93.3366
 48      0.0000     0.0000E+00    0.0000E+00    4.250000E+09  0.02000  3.271E-05    0   0.5468   age158_m62            0.0000     7.1950E-01    10.6044   0.2892    90.6796
 49     35.8455     3.2243E+01    3.3127E+01    1.000000E+10  0.02000  1.360E-05    0   0.5167   age181_m62            0.0000     7.2923E-01    10.3643  -0.0053    88.1347
 50      0.0000     0.0000E+00    0.0000E+00    1.800000E+10  0.02000  7.124E-06    0   0.5013   age213_m62            0.0000     7.6466E-01    10.4956  -0.1705    85.7076
 51      0.0000     0.0000E+00    0.0000E+00    1.000000E+06  0.05000  2.592E-02    0   0.9998   age020_m72            0.0000     1.2493E+00    16.5380   3.8278    85.7628
 52      0.0000     0.0000E+00    0.0000E+00    3.160000E+06  0.05000  4.845E-02    0   0.9577   age045_m72            0.0000     1.2109E+00    15.8623   3.6748    87.0032
 53      1.6162     6.4360E-04    1.1706E-03    5.010000E+06  0.05000  3.072E-02    0   0.9147   age055_m72            0.0000     1.1692E+00    16.9523   3.1273    94.5514
 54      7.9391     6.6749E-03    1.1782E-02    6.610000E+06  0.05000  1.455E-02    0   0.8877   age061_m72            0.0000     2.0136E+00    23.2905   2.2254   109.5315
 55      0.0000     0.0000E+00    0.0000E+00    1.000000E+07  0.05000  9.074E-03    0   0.8524   age070_m72            0.0000     1.3023E+00    17.1609   3.3422    93.4673
 56      0.0000     0.0000E+00    0.0000E+00    2.512000E+07  0.05000  4.250E-03    0   0.7902   age090_m72            0.0000     1.2318E+00    16.7522   3.0203    95.8870
 57      0.0000     0.0000E+00    0.0000E+00    4.000000E+07  0.05000  3.087E-03    0   0.7618   age104_m72            0.0000     1.2566E+00    16.8635   2.7776    98.1775
 58      0.0000     0.0000E+00    0.0000E+00    1.015200E+08  0.05000  1.700E-03    0   0.7096   age116_m72            0.0000     1.1531E+00    15.3091   2.5447    99.2188
 59      0.0000     0.0000E+00    0.0000E+00    2.861200E+08  0.05000  7.384E-04    0   0.6633   age125_m72            0.0000     1.0509E+00    13.3728   2.0828   100.6327
 60      0.0000     0.0000E+00    0.0000E+00    5.088000E+08  0.05000  3.819E-04    0   0.6372   age130_m72            0.0000     9.3935E-01    12.2888   1.6334   100.0365
 61      0.0000     0.0000E+00    0.0000E+00    9.047900E+08  0.05000  1.676E-04    0   0.6110   age135_m72            0.0000     8.1917E-01    11.3383   1.0011    95.3230
 62      0.0000     0.0000E+00    0.0000E+00    1.434000E+09  0.05000  8.837E-05    0   0.5874   age139_m72            0.0000     7.4595E-01    11.0258   0.5577    94.3812
 63      0.0000     0.0000E+00    0.0000E+00    2.500000E+09  0.05000  4.233E-05    0   0.5598   age150_m72            0.0000     7.2964E-01    10.5124   0.3054    90.7637
 64      0.0044     3.7929E-03    3.9586E-03    6.250000E+09  0.05000  1.435E-05    0   0.5249   age166_m72            0.0000     7.4889E-01    10.4136  -0.0887    87.2102
 65      2.0917     3.9288E+00    3.9341E+00    1.300000E+10  0.05000  6.513E-06    0   0.5036   age193_m72            0.0000     8.0015E-01    10.6778  -0.3133    85.8816
 66     16.9170     4.5714E+01    4.4949E+01    1.800000E+10  0.05000  4.527E-06    0   0.4945   age213_m72            0.0000     8.5187E-01    10.9903  -0.4372    84.3107


## Synthesis Results - Average & Chains ##

# j      x_j: min, <> & last-chain-values for 1 ...  7 chains
  1      0.3479      0.1380      1.2548      0.0000      0.5826      0.0000      0.0000      0.0000      0.0000
  2      0.0000      0.3038      0.0000      0.0322      0.0000      0.0000      1.3143      0.0000      0.0000
  3      0.4204      0.1555      0.0000      0.0000      1.0261      0.0000      0.1402      0.0000      0.0000
  4      0.0000      0.0853      0.0000      0.0000      0.0000      0.0000      0.0000      0.0000      0.0000
  5      0.0000      0.3428      0.1691      1.2248      0.0000      0.0000      0.0000      0.0000      0.4394
  6      0.0000      0.1676      0.0000      0.0000      0.0000      0.0000      0.0000      0.1526      0.0000
  7      0.0003      0.1766      1.0994      0.0000      0.5341      0.0000      0.5987      0.0000      0.0000
  8      0.0000      0.2412      0.0000      1.0657      0.1073      0.5707      0.0000      0.0000      0.0000
  9      0.0172      1.4616      2.6294      0.0000      4.0452      0.0000      1.8093      1.7826      0.0000
 10      0.0000      0.7038      1.6719      0.0520      0.0000      0.0140      0.8042      0.0000      0.9768
 11      0.0000      0.1346      0.6131      0.0000      0.0000      0.0000      0.0000      0.0000      0.0000
 12      0.4903      0.2663      0.0000      0.1844      0.5804      0.3445      0.0000      0.0000      0.0000
 13      1.0055      0.8564      0.0000      0.6961      0.7478      2.0768      2.0025      0.0000      1.3691
 14      0.0000      1.2572      0.0000      0.5477      0.0000      0.0000      1.3065      0.0000      0.0000
 15      0.0000      1.6730      0.0000      3.3898      0.0000      0.0000      1.4567      5.1695      4.7827
 16      2.9056      3.0532      0.6552      3.1442      4.5801      4.3878      0.0000      7.9635      1.6052
 17      5.9326      3.7427      6.3237      1.1171      0.8660      2.2049      1.5318      0.5923      0.1347
 18      0.0000      0.2630      0.0000      0.1371      0.0000      0.8474      0.0506      0.0000      0.8120
 19      0.0000      0.2872      0.6063      0.0000      0.1255      0.5129      0.0000      0.0000      0.8798
 20      0.0000      0.2124      0.0000      0.0000      0.0000      0.0111      0.0000      0.0791      0.0000
 21      2.6028      1.2038      1.1553      0.9398      1.0706      3.8304      0.0000      0.0000      1.3312
 22      0.0000      0.3043      0.0000      0.0000      0.0000      2.1556      0.0000      0.1400      0.2357
 23      0.0000      0.1235      0.0000      0.0000      0.0000      0.0000      0.0445      1.0463      0.0000
 24      0.0000      0.1087      0.0000      0.0000      0.0000      0.0000      0.1799      0.0000      0.0000
 25      0.0000      0.4068      0.0000      0.0000      0.0000      2.0765      0.0000      2.9417      0.0000
 26      0.0000      0.2720      1.2648      0.4089      1.2980      0.0000      1.3327      0.0000      0.6346
 27      0.0000      0.3843      1.5964      0.3776      0.9385      1.0850      0.0000      0.0000      3.2261
 28      0.0000      1.0359      0.0000      0.6867      0.0000      0.0000      2.9753      0.0000      2.7525
 29      0.0000      2.5197      0.9007      2.8377      0.0000      1.8026      5.7903      1.3021      1.8169
 30      0.0031      1.4361      1.6169      0.0000      1.9663      1.4908      1.1509      0.0000      0.0000
 31      0.0000      2.1013      0.7847      0.4858      0.0000      0.0000      0.4954      0.5687      2.2745
 32      0.0000      3.7530      0.0000      2.6911      0.0000      0.0000      1.8079      3.4730      1.0595
 33      0.0000      3.6298      1.6207      0.0277      0.4806      5.0275      3.6488      4.2532      0.0000
 34      9.2901      7.1685      7.5494     11.0354     12.2761     10.6429      6.4740      5.7022      9.5930
 35      0.0000      0.0747      0.0000      0.0000      0.0000      0.0000      0.0000      0.0000      0.0000
 36      1.8341      0.7999      0.7911      3.5723      2.3073      1.2979      0.0000      3.3579      0.8502
 37      2.1112      0.3902      0.2325      2.2044      0.6060      1.9193      1.6050      0.0000      0.0000
 38      0.0000      0.3944      0.0000      1.2835      0.0000      0.6108      0.6932      0.0000      0.0000
 39      0.7256      0.2707      0.7790      0.3245      0.4854      0.0000      0.0000      0.0000      0.0000
 40      1.2179      0.5522      0.5102      1.3092      1.6294      0.0000      1.6665      1.5791      0.0421
 41      0.0000      0.3154      0.0000      0.0000      0.0000      0.0000      1.1704      0.0000      1.5268
 42      0.0000      0.1548      0.0000      0.7463      0.0000      0.0000      0.0000      0.0000      1.3946
 43      0.0000      0.4951      0.5962      0.0000      0.2999      0.8122      0.5750      3.3107      1.3000
 44      0.0000      0.3184      0.9861      0.0000      1.6922      0.6695      0.0000      0.8437      0.4920
 45      0.0000      0.3570      0.0000      0.0000      0.0000      1.2118      0.0000      0.0000      0.0000
 46      0.0000      0.7185      3.2840      0.0000      0.4323      0.2159      0.8534      0.0000      0.0000
