###################################################################
## OUTPUT of StarlightChains_v04.for    [Cid@UFSC - 01/Apr/2007] ##
###################################################################

## Some input info
2003ds.txt                               [arq_obs]
Base.CB07.vall.4m                        [arq_base]
Masks.EmLines.NEW.gm                     [arq_masks]
StCv04.C11.config                        [arq_config]
   66                                    [N_base]
    0                                    [N_YAV_components = # of components with extra extinction!]
    0                                    [i_FitPowerLaw (1/0 = Yes/No)]
-9.99                                    [alpha_PowerLaw]
CCM                                      [red_law_option]
 1.458241                                [q_norm = A(l_norm)/A(V)]

## (Re)Sampling Parameters
 3741.00                                 [l_ini (A)]
 7218.00                                 [l_fin (A)]
    1.00                                 [dl    (A)]     (OBS: dl_cushion =    50.00 A)

## Normalization info
 4020.00                                 [l_norm (A) - for base]
 4010.00                                 [llow_norm (A) - window for f_obs]
 4060.00                                 [lupp_norm (A) - window for f_obs]
1.524527E-16                             [fobs_norm (in input units)]

## S/N
 3691.00                                 [llow_SN (A) - window for S/N]
 7268.00                                 [lupp_SN (A) - window for S/N]
   5.165                                 [S/N in S/N window]
   7.010                                 [S/N in norm. window]
  14.806                                 [S/N_err in S/N window]
  20.094                                 [S/N_err in norm. window]
  1.0000                                 [fscale_chi2]

## etc...
    -2007273                             [idum_orig]
  2319                                   [NOl_eff]
  2305                                   [Nl_eff]
    14    NSIGMA                         [Ntot_cliped & clip_method]
  1363530                                [Nglobal_steps]
   7                                     [N_chains]
  18                                     [NEX0s_base = N_base in EX0s-fits]
 0   0   1        2   2.0   5.713E+01    [Clip-Bug, RC-Crash & Burn-In warning-flags, n_censored_weights, wei_nsig_threshold & wei_limit]
    16     15.374     14.843      0.531  [idt_all, wdt_TotTime, wdt_UsrTime & wdt_SysTime (sec)]

## Synthesis Results - Best model ##

 3.05553E-01                             [chi2/Nl_eff]
     2.58533                             [adev (%)]

   104.96233                             [sum-of-x (%)]
 2.57554E-16                             [Flux_tot (units of input spectrum!)]
 3.77572E-13                             [Mini_tot (???)]
 2.41524E-13                             [Mcor_tot (???)]

   0.00                                  [v0_min  (km/s)]
 309.96                                  [vd_min  (km/s)]
 0.3544                                  [AV_min  (mag)]
 0.0000                                  [YAV_min (mag)]

# j     x_j(%)      Mini_j(%)     Mcor_j(%)     age_j(yr)     Z_j      (L/M)_j    YAV?  Mstars   component_j        a/Fe...       SSP_chi2r SSP_adev(%)   SSP_AV   SSP_x(%)
  1      0.0000     0.0000E+00    0.0000E+00    1.000000E+06  0.00400  1.094E-02    0   1.0000   age020_m42            0.0000     9.4700E-01     5.4640   2.3259    84.9062
  2      0.6062     9.8313E-03    1.5368E-02    3.160000E+06  0.00400  4.007E-02    0   0.9999   age045_m42            0.0000     6.1266E-01     3.9562   1.5521    93.0739
  3      0.0000     0.0000E+00    0.0000E+00    5.010000E+06  0.00400  2.539E-02    0   0.9488   age055_m42            0.0000     6.9633E-01     4.4855   1.8869    90.0714
  4      0.0000     0.0000E+00    0.0000E+00    6.610000E+06  0.00400  2.620E-02    0   0.9220   age061_m42            0.0000     5.5220E-01     3.6934   1.4657    93.9019
  5      1.3853     6.8102E-02    9.4347E-02    1.000000E+07  0.00400  1.322E-02    0   0.8862   age070_m42            0.0000     4.5009E-01     3.3198   1.1323    98.2757
  6      0.0000     0.0000E+00    0.0000E+00    1.445000E+07  0.00400  7.883E-03    0   0.8571   age078_m42            0.0000     5.2855E-01     3.7366   1.4798    94.8240
  7      0.0000     0.0000E+00    0.0000E+00    2.512000E+07  0.00400  5.251E-03    0   0.8174   age090_m42            0.0000     4.3990E-01     3.2375   0.9883    99.4887
  8     15.1430     2.6970E+00    3.3101E+00    4.000000E+07  0.00400  3.649E-03    0   0.7851   age104_m42            0.0000     3.9293E-01     3.0094   0.7582   100.4743
  9      6.2346     1.3079E+00    1.5598E+00    5.500000E+07  0.00400  3.098E-03    0   0.7629   age110_m42            0.0000     3.8026E-01     2.8962   0.9262    99.8719
 10      0.0000     0.0000E+00    0.0000E+00    1.015200E+08  0.00400  2.228E-03    0   0.7207   age116_m42            0.0000     4.1042E-01     3.0088   0.9541    99.7521
 11      0.0000     0.0000E+00    0.0000E+00    2.861200E+08  0.00400  1.093E-03    0   0.6648   age125_m42            0.0000     4.4640E-01     3.1191   0.3613   104.2764
 12      0.0000     0.0000E+00    0.0000E+00    5.088000E+08  0.00400  6.597E-04    0   0.6365   age130_m42            0.0000     4.9703E-01     3.3252   0.3681   104.2956
 13      3.2346     9.8600E+00    8.9370E+00    1.434000E+09  0.00400  2.132E-04    0   0.5798   age139_m42            0.0000     4.8377E-01     3.4792  -0.5922   105.6260
 14      0.0000     0.0000E+00    0.0000E+00    4.250000E+09  0.00400  5.895E-05    0   0.5377   age158_m42            0.0000     6.2944E-01     4.2482  -0.9651    98.2678
 15      0.0000     0.0000E+00    0.0000E+00    7.500000E+09  0.00400  3.510E-05    0   0.5212   age171_m42            0.0000     9.0616E-01     5.3833  -1.0000    90.9348
 16      0.0000     0.0000E+00    0.0000E+00    1.300000E+10  0.00400  2.005E-05    0   0.5034   age193_m42            0.0000     1.4899E+00     7.1353  -1.0000    83.7149
 17      0.0000     0.0000E+00    0.0000E+00    1.800000E+10  0.00400  1.525E-05    0   0.4967   age213_m42            0.0000     1.5716E+00     7.3771  -1.0000    82.3963
 18      0.0000     0.0000E+00    0.0000E+00    1.000000E+06  0.00800  1.238E-02    0   1.0000   age020_m52            0.0000     9.4649E-01     5.4669   2.3222    85.0683
 19      0.6143     1.2988E-02    2.0234E-02    3.160000E+06  0.00800  3.074E-02    0   0.9966   age045_m52            0.0000     9.0533E-01     5.3400   2.2418    85.9767
 20      0.0000     0.0000E+00    0.0000E+00    5.010000E+06  0.00800  2.668E-02    0   0.9443   age055_m52            0.0000     7.1903E-01     4.6270   1.9727    89.0730
 21      0.0000     0.0000E+00    0.0000E+00    6.610000E+06  0.00800  2.136E-02    0   0.9177   age061_m52            0.0000     4.8275E-01     3.4714   0.6501    98.4027
 22      0.0029     1.5371E-04    2.1210E-04    1.000000E+07  0.00800  1.215E-02    0   0.8827   age070_m52            0.0000     5.1979E-01     3.5926   1.3090    98.2218
 23      0.0000     0.0000E+00    0.0000E+00    1.445000E+07  0.00800  8.717E-03    0   0.8552   age078_m52            0.0000     4.8408E-01     3.5386   1.4375    96.4967
 24     10.5610     1.2274E+00    1.5661E+00    2.512000E+07  0.00800  5.592E-03    0   0.8162   age090_m52            0.0000     4.1962E-01     3.1558   1.0479   100.9490
 25      3.5918     5.9914E-01    7.3442E-01    4.000000E+07  0.00800  3.896E-03    0   0.7841   age104_m52            0.0000     3.7731E-01     2.9388   0.9623   101.7345
 26      3.6320     1.0989E+00    1.2413E+00    1.015200E+08  0.00800  2.148E-03    0   0.7226   age116_m52            0.0000     3.6543E-01     2.8164   0.9138   100.9592
 27      0.0000     0.0000E+00    0.0000E+00    2.861200E+08  0.00800  9.925E-04    0   0.6683   age125_m52            0.0000     4.5995E-01     3.1966   0.4288   105.4241
 28      0.0000     0.0000E+00    0.0000E+00    9.047900E+08  0.00800  3.141E-04    0   0.6138   age135_m52            0.0000     6.3809E-01     4.0907  -0.3334   108.0187
 29      0.0000     0.0000E+00    0.0000E+00    1.434000E+09  0.00800  1.719E-04    0   0.5853   age139_m52            0.0000     6.7468E-01     4.2526  -0.8912   104.7280
 30      0.0000     0.0000E+00    0.0000E+00    2.500000E+09  0.00800  7.872E-05    0   0.5600   age150_m52            0.0000     9.6786E-01     5.5408  -1.0000    94.4601
 31      0.0000     0.0000E+00    0.0000E+00    4.250000E+09  0.00800  4.336E-05    0   0.5426   age158_m52            0.0000     9.8861E-01     5.6309  -1.0000    92.8868
 32      0.0000     0.0000E+00    0.0000E+00    6.250000E+09  0.00800  3.159E-05    0   0.5319   age166_m52            0.0000     1.7646E+00     7.7483  -1.0000    84.4374
 33      0.0000     0.0000E+00    0.0000E+00    1.300000E+10  0.00800  1.361E-05    0   0.5073   age193_m52            0.0000     4.9288E+00    13.8688  -1.0000    66.7711
 34      0.0000     0.0000E+00    0.0000E+00    1.800000E+10  0.00800  9.886E-06    0   0.4990   age213_m52            0.0000     5.8743E+00    15.1764  -1.0000    63.0746
 35      0.0000     0.0000E+00    0.0000E+00    1.000000E+06  0.02000  1.544E-02    0   1.0000   age020_m62            0.0000     9.5619E-01     5.5102   2.3200    85.1947
 36      0.0000     0.0000E+00    0.0000E+00    3.160000E+06  0.02000  3.762E-02    0   0.9858   age045_m62            0.0000     9.4381E-01     5.4810   2.2578    86.0130
 37      0.0000     0.0000E+00    0.0000E+00    5.010000E+06  0.02000  3.296E-02    0   0.9342   age055_m62            0.0000     6.5134E-01     4.2351   1.8426    91.4203
 38     12.5548     7.0703E-01    9.7941E-01    8.710000E+06  0.02000  1.154E-02    0   0.8861   age067_m62            0.0000     1.6162E+00     5.9371   0.6961   104.1174
 39      0.0000     0.0000E+00    0.0000E+00    1.445000E+07  0.02000  7.663E-03    0   0.8472   age078_m62            0.0000     7.1943E-01     3.9946   0.9341   101.6417
 40      0.0000     0.0000E+00    0.0000E+00    2.512000E+07  0.02000  4.532E-03    0   0.8099   age090_m62            0.0000     7.5902E-01     4.0705   0.9144   102.0419
 41      3.4857     8.2886E-01    9.8412E-01    5.500000E+07  0.02000  2.733E-03    0   0.7595   age110_m62            0.0000     3.7925E-01     2.9583   0.9477   100.8481
 42      0.0000     0.0000E+00    0.0000E+00    1.609000E+08  0.02000  1.369E-03    0   0.6985   age120_m62            0.0000     3.9388E-01     2.9522   0.7865   103.7657
 43      0.1411     1.0171E-01    1.0676E-01    2.861200E+08  0.02000  9.013E-04    0   0.6714   age125_m62            0.0000     5.0822E-01     3.3375   0.5318   106.9865
 44      0.0000     0.0000E+00    0.0000E+00    5.088000E+08  0.02000  5.028E-04    0   0.6449   age130_m62            0.0000     7.3306E-01     4.2130   0.1917   107.9787
 45      0.0000     0.0000E+00    0.0000E+00    9.047900E+08  0.02000  2.428E-04    0   0.6179   age135_m62            0.0000     7.1216E-01     4.4073  -0.3549   105.3715
 46      0.0000     0.0000E+00    0.0000E+00    1.434000E+09  0.02000  1.263E-04    0   0.5908   age139_m62            0.0000     7.8173E-01     4.7684  -0.7752   102.6059
 47      0.0000     0.0000E+00    0.0000E+00    2.500000E+09  0.02000  5.985E-05    0   0.5673   age150_m62            0.0000     1.1690E+00     6.1419  -1.0000    94.7507
 48      0.0000     0.0000E+00    0.0000E+00    4.250000E+09  0.02000  3.271E-05    0   0.5468   age158_m62            0.0000     2.4673E+00     9.1780  -1.0000    81.2862
 49      0.0000     0.0000E+00    0.0000E+00    1.000000E+10  0.02000  1.360E-05    0   0.5167   age181_m62            0.0000     4.9378E+00    13.5162  -1.0000    68.4283
 50      0.0000     0.0000E+00    0.0000E+00    1.800000E+10  0.02000  7.124E-06    0   0.5013   age213_m62            0.0000     6.7622E+00    16.1029  -1.0000    61.3035
 51      0.0000     0.0000E+00    0.0000E+00    1.000000E+06  0.05000  2.592E-02    0   0.9998   age020_m72            0.0000     9.8713E-01     5.6099   2.3135    85.1087
 52      0.0000     0.0000E+00    0.0000E+00    3.160000E+06  0.05000  4.845E-02    0   0.9577   age045_m72            0.0000     8.3375E-01     5.0533   2.1300    87.6805
 53      0.0000     0.0000E+00    0.0000E+00    5.010000E+06  0.05000  3.072E-02    0   0.9147   age055_m72            0.0000     7.4366E-01     4.4106   1.5817    95.1592
 54      0.0000     0.0000E+00    0.0000E+00    6.610000E+06  0.05000  1.455E-02    0   0.8877   age061_m72            0.0000     3.5255E+00     8.1078   0.7503   106.0317
 55      0.0000     0.0000E+00    0.0000E+00    1.000000E+07  0.05000  9.074E-03    0   0.8524   age070_m72            0.0000     9.9103E-01     4.9622   1.7901    94.4179
 56      0.0000     0.0000E+00    0.0000E+00    2.512000E+07  0.05000  4.250E-03    0   0.7902   age090_m72            0.0000     7.1748E-01     4.0355   1.4411    98.1202
 57      0.0000     0.0000E+00    0.0000E+00    4.000000E+07  0.05000  3.087E-03    0   0.7618   age104_m72            0.0000     7.5683E-01     3.9219   1.1893   100.9329
 58      0.0192     7.3548E-03    8.1588E-03    1.015200E+08  0.05000  1.700E-03    0   0.7096   age116_m72            0.0000     3.9636E-01     2.9580   0.9186   103.9466
 59      8.4641     7.4495E+00    7.7246E+00    2.861200E+08  0.05000  7.384E-04    0   0.6633   age125_m72            0.0000     6.1361E-01     3.7196   0.4164   107.6494
 60     28.8720     4.9132E+01    4.8942E+01    5.088000E+08  0.05000  3.819E-04    0   0.6372   age130_m72            0.0000     7.2443E-01     4.3469  -0.0332   107.1156
 61      6.4196     2.4892E+01    2.3776E+01    9.047900E+08  0.05000  1.676E-04    0   0.6110   age135_m72            0.0000     1.0487E+00     5.6606  -0.6570   101.7176
 62      0.0000     0.0000E+00    0.0000E+00    1.434000E+09  0.05000  8.837E-05    0   0.5874   age139_m72            0.0000     1.2686E+00     6.3958  -1.0000    96.1286
 63      0.0000     0.0000E+00    0.0000E+00    2.500000E+09  0.05000  4.233E-05    0   0.5598   age150_m72            0.0000     2.5842E+00     9.3597  -1.0000    82.0094
 64      0.0000     0.0000E+00    0.0000E+00    6.250000E+09  0.05000  1.435E-05    0   0.5249   age166_m72            0.0000     5.7583E+00    14.7416  -1.0000    64.9886
 65      0.0000     0.0000E+00    0.0000E+00    1.300000E+10  0.05000  6.513E-06    0   0.5036   age193_m72            0.0000     8.3666E+00    18.1176  -1.0000    57.2023
 66      0.0000     0.0000E+00    0.0000E+00    1.800000E+10  0.05000  4.527E-06    0   0.4945   age213_m72            0.0000     9.9721E+00    19.9261  -1.0000    52.7416


## Synthesis Results - Average & Chains ##

# j      x_j: min, <> & last-chain-values for 1 ...  7 chains
  1      0.0000      0.2442      1.2140      0.1451      0.0000      0.0000      0.0000      0.2635      0.0117
  2      0.6062      0.6888      1.2781      0.9560      0.4914      1.6948      0.4175      0.7586      0.0000
  3      0.0000      0.4696      0.2855      0.0000      0.3188      0.0416      0.0000      0.0000      0.0000
  4      0.0000      0.5077      0.0000      1.8258      0.0000      0.0000      0.7618      2.0380      0.0000
  5      1.3853      1.2118      0.1338      1.9111      0.0000      2.9496      0.0000      0.0828      2.9001
  6      0.0000      0.5707      0.0000      0.4270      0.0965      0.1154      0.0000      0.7591      0.0000
  7      0.0000      2.2362      5.7445      4.1851      4.4390      0.0000      2.4154      2.9311      2.9586
  8     15.1430      8.0999     10.5155      8.4609      8.0912     11.0026      9.2200      8.9539     10.1955
  9      6.2346      1.0090      0.0000      0.0000      1.9862      3.3895      4.4413      0.0000      1.8119
 10      0.0000      1.2459      0.7209      0.1760      1.9495      0.0000      0.8562      1.6266      1.7251
 11      0.0000      0.6472      0.0000      0.0000      0.0000      0.2711      0.0000      0.0000      0.0000
 12      0.0000      1.0989      0.0000      0.0000      0.0000      0.0000      0.0000      0.0000      0.1826
 13      3.2346      4.1344      5.4668      4.2939      4.2632      4.4403      3.4233      4.7302      4.9566
 14      0.0000      0.4173      0.4709      0.0243      0.0000      0.0000      0.6595      0.8486      0.3014
 15      0.0000      0.0107      0.0000      0.0000      0.0000      0.0000      0.0000      0.0000      0.0000
 16      0.0000      0.0313      0.0000      0.0000      0.0000      0.0000      0.0000      0.0000      0.0000
 17      0.0000      0.0214      0.0000      0.0000      0.0000      0.0000      0.2779      0.0000      0.0000
 18      0.0000      0.1943      0.0000      0.3048      0.0000      0.0000      0.0000      0.3775      1.1608
 19      0.6143      0.4058      0.0000      0.4287      0.0000      0.6709      0.0000      0.9394      0.3145
 20      0.0000      0.2781      0.0658      1.5338      0.5013      0.0000      0.0000      0.0000      2.2339
 21      0.0000      4.7048      1.6533      3.8762      4.2244      7.1795      5.3692      4.3217      4.8789
 22      0.0029      0.9782      0.6332      0.2658      0.0000      1.3104      1.5524      1.0008      1.0948
 23      0.0000      0.2543      0.0000      0.0000      3.3786      0.0000      0.0749      0.0000      0.5980
 24     10.5610      3.8145      5.5050      4.1110      1.8299      3.1348      4.2580      4.8596      2.2047
 25      3.5918      2.1379      2.7872      0.2774      1.3530      1.6304      2.0891      4.3565      3.0308
 26      3.6320      2.9566      4.0608      4.1518      1.9641      4.5099      3.7187      2.7427      2.6582
 27      0.0000      1.5846      0.9144      1.1433      0.8021      0.0000      0.0000      0.0000      0.0000
 28      0.0000      0.3194      0.0000      0.0000      0.0000      0.0000      0.1852      0.0000      0.6504
 29      0.0000      0.0377      0.0000      0.1867      0.0000      0.0000      0.0000      0.0028      0.0000
 30      0.0000      0.0495      0.0000      0.0000      0.0000      0.0000      0.0000      0.0000      0.0000
 31      0.0000      0.0160      0.0850      0.0000      0.0000      0.0000      0.0000      0.0000      0.0000
 32      0.0000      0.0262      0.0000      0.0000      0.0000      0.0000      0.0000      0.0000      0.0000
 33      0.0000      0.0420      0.0000      0.0000      0.0000      0.0000      0.0000      0.0000      0.0000
 34      0.0000      0.0012      0.0000      0.0000      0.0000      0.0000      0.0000      0.0000      0.0000
 35      0.0000      0.2233      0.0000      0.0000      0.8968      0.0000      0.1759      0.3949      0.0516
 36      0.0000      0.3365      0.0000      0.0000      1.9452      0.0000      0.0000      0.0000      0.1619
 37      0.0000      0.3369      0.0000      0.0000      0.0000      0.0000      0.0000      0.1207      0.0000
 38     12.5548     10.3672      9.0742     12.5474      8.1305     12.3827     11.1846     10.3617     10.8308
 39      0.0000      0.5348      0.8587      0.4196      0.0756      0.0000      0.2118      0.7572      0.0000
 40      0.0000      0.6463      0.0000      0.5352      2.5374      0.0000      0.3800      0.0000      1.2202
 41      3.4857      4.3071      4.5870      0.0572      6.7998      4.4074      6.9311      3.7830      2.0949
 42      0.0000      0.8986      1.2992      0.1207      1.6578      0.2335      0.0000      0.0000      0.0000
 43      0.1411      5.0833      2.7898      1.7866      6.0413      5.9896      4.4078      4.2010      5.4922
 44      0.0000      2.4539      0.7621      0.7142      0.0000      0.0000      0.0000      1.9869      1.1453
 45      0.0000      0.4245      0.0000      0.0000      1.0627      0.4769      1.0810      0.0000      0.0000
 46      0.0000      0.0792      0.4213      0.0000      0.0000      0.0000      0.0000      0.0000      0.0000
