###################################################################
## OUTPUT of StarlightChains_v04.for    [Cid@UFSC - 01/Apr/2007] ##
###################################################################

## Some input info
2003bp.txt                               [arq_obs]
Base.CB07.vall.4m                        [arq_base]
Masks.EmLines.NEW.gm                     [arq_masks]
StCv04.C11.config                        [arq_config]
   66                                    [N_base]
    0                                    [N_YAV_components = # of components with extra extinction!]
    0                                    [i_FitPowerLaw (1/0 = Yes/No)]
-9.99                                    [alpha_PowerLaw]
CCM                                      [red_law_option]
 1.458241                                [q_norm = A(l_norm)/A(V)]

## (Re)Sampling Parameters
 3741.00                                 [l_ini (A)]
 7218.00                                 [l_fin (A)]
    1.00                                 [dl    (A)]     (OBS: dl_cushion =    50.00 A)

## Normalization info
 4020.00                                 [l_norm (A) - for base]
 4010.00                                 [llow_norm (A) - window for f_obs]
 4060.00                                 [lupp_norm (A) - window for f_obs]
8.382310E-17                             [fobs_norm (in input units)]

## S/N
 3691.00                                 [llow_SN (A) - window for S/N]
 7268.00                                 [lupp_SN (A) - window for S/N]
   6.060                                 [S/N in S/N window]
   7.893                                 [S/N in norm. window]
  13.381                                 [S/N_err in S/N window]
  17.428                                 [S/N_err in norm. window]
  1.0000                                 [fscale_chi2]

## etc...
    -2007271                             [idum_orig]
  2384                                   [NOl_eff]
  2384                                   [Nl_eff]
     0    NSIGMA                         [Ntot_cliped & clip_method]
  2027830                                [Nglobal_steps]
   7                                     [N_chains]
  37                                     [NEX0s_base = N_base in EX0s-fits]
 0   0   1       37   2.0   3.245E+01    [Clip-Bug, RC-Crash & Burn-In warning-flags, n_censored_weights, wei_nsig_threshold & wei_limit]
    15     15.744     15.250      0.494  [idt_all, wdt_TotTime, wdt_UsrTime & wdt_SysTime (sec)]

## Synthesis Results - Best model ##

 3.99818E-01                             [chi2/Nl_eff]
     3.81310                             [adev (%)]

   104.54417                             [sum-of-x (%)]
 9.22402E-17                             [Flux_tot (units of input spectrum!)]
 8.78700E-13                             [Mini_tot (???)]
 4.64632E-13                             [Mcor_tot (???)]

 147.41                                  [v0_min  (km/s)]
 187.14                                  [vd_min  (km/s)]
 0.0382                                  [AV_min  (mag)]
 0.0000                                  [YAV_min (mag)]

# j     x_j(%)      Mini_j(%)     Mcor_j(%)     age_j(yr)     Z_j      (L/M)_j    YAV?  Mstars   component_j        a/Fe...       SSP_chi2r SSP_adev(%)   SSP_AV   SSP_x(%)
  1      0.0000     0.0000E+00    0.0000E+00    1.000000E+06  0.00400  1.094E-02    0   1.0000   age020_m42            0.0000     1.3268E+00     6.1491   2.3332    92.5152
  2      3.4870     8.7379E-03    1.6523E-02    3.160000E+06  0.00400  4.007E-02    0   0.9999   age045_m42            0.0000     7.6986E-01     4.8616   1.6269    97.5248
  3      0.0000     0.0000E+00    0.0000E+00    5.010000E+06  0.00400  2.539E-02    0   0.9488   age055_m42            0.0000     9.5523E-01     5.2863   1.9386    95.6960
  4      6.2305     2.3878E-02    4.1635E-02    6.610000E+06  0.00400  2.620E-02    0   0.9220   age061_m42            0.0000     7.4865E-01     4.6926   1.5552    97.5947
  5      1.2645     9.6046E-03    1.6097E-02    1.000000E+07  0.00400  1.322E-02    0   0.8862   age070_m42            0.0000     7.5962E-01     4.4819   1.2785    98.9926
  6      0.0000     0.0000E+00    0.0000E+00    1.445000E+07  0.00400  7.883E-03    0   0.8571   age078_m42            0.0000     8.9860E-01     4.8124   1.6001    96.9050
  7      0.0353     6.7444E-04    1.0426E-03    2.512000E+07  0.00400  5.251E-03    0   0.8174   age090_m42            0.0000     7.6349E-01     4.4725   1.1509    99.2823
  8      0.0080     2.2094E-04    3.2804E-04    4.000000E+07  0.00400  3.649E-03    0   0.7851   age104_m42            0.0000     6.7296E-01     4.3055   0.9245   100.0462
  9      0.0000     0.0000E+00    0.0000E+00    5.500000E+07  0.00400  3.098E-03    0   0.7629   age110_m42            0.0000     6.8990E-01     4.3767   1.0803   100.0735
 10      3.4251     1.5436E-01    2.1039E-01    1.015200E+08  0.00400  2.228E-03    0   0.7207   age116_m42            0.0000     7.4618E-01     4.5962   1.1026   100.2281
 11     10.6018     9.7396E-01    1.2245E+00    2.861200E+08  0.00400  1.093E-03    0   0.6648   age125_m42            0.0000     7.2258E-01     4.6269   0.5406   102.6644
 12      5.3735     8.1787E-01    9.8450E-01    5.088000E+08  0.00400  6.597E-04    0   0.6365   age130_m42            0.0000     8.3406E-01     4.8758   0.5312   103.6321
 13      0.0000     0.0000E+00    0.0000E+00    1.434000E+09  0.00400  2.132E-04    0   0.5798   age139_m42            0.0000     7.8194E-01     4.9020  -0.4448   105.8051
 14      3.7947     6.4636E+00    6.5728E+00    4.250000E+09  0.00400  5.895E-05    0   0.5377   age158_m42            0.0000     9.9399E-01     5.1993  -0.9051   103.1876
 15      2.5303     7.2385E+00    7.1348E+00    7.500000E+09  0.00400  3.510E-05    0   0.5212   age171_m42            0.0000     1.4607E+00     5.9485  -1.0000   100.2121
 16      0.0000     0.0000E+00    0.0000E+00    1.300000E+10  0.00400  2.005E-05    0   0.5034   age193_m42            0.0000     2.6780E+00     8.0829  -1.0000    95.2438
 17      2.8058     1.8474E+01    1.7354E+01    1.800000E+10  0.00400  1.525E-05    0   0.4967   age213_m42            0.0000     2.7983E+00     8.3528  -1.0000    94.1414
 18      2.7501     2.2305E-02    4.2182E-02    1.000000E+06  0.00800  1.238E-02    0   1.0000   age020_m52            0.0000     1.3342E+00     6.1608   2.3296    92.6997
 19      3.9838     1.3013E-02    2.4526E-02    3.160000E+06  0.00800  3.074E-02    0   0.9966   age045_m52            0.0000     1.2953E+00     6.0877   2.2542    93.4554
 20      0.0404     1.5219E-04    2.7179E-04    5.010000E+06  0.00800  2.668E-02    0   0.9443   age055_m52            0.0000     1.0418E+00     5.4657   2.0185    94.9839
 21     20.2510     9.5197E-02    1.6522E-01    6.610000E+06  0.00800  2.136E-02    0   0.9177   age061_m52            0.0000     6.0502E-01     4.4256   0.7678   100.7481
 22      0.0000     0.0000E+00    0.0000E+00    1.000000E+07  0.00800  1.215E-02    0   0.8827   age070_m52            0.0000     8.7346E-01     4.7728   1.4575    98.7186
 23      0.0000     0.0000E+00    0.0000E+00    1.445000E+07  0.00800  8.717E-03    0   0.8552   age078_m52            0.0000     8.4866E-01     4.6856   1.5671    98.0914
 24      0.0031     5.5064E-05    8.4996E-05    2.512000E+07  0.00800  5.592E-03    0   0.8162   age090_m52            0.0000     7.5460E-01     4.4608   1.2173   100.2503
 25      0.0000     0.0000E+00    0.0000E+00    4.000000E+07  0.00800  3.896E-03    0   0.7841   age104_m52            0.0000     6.8395E-01     4.3352   1.1323   100.8993
 26      0.0000     0.0000E+00    0.0000E+00    1.015200E+08  0.00800  2.148E-03    0   0.7226   age116_m52            0.0000     6.4928E-01     4.3843   1.0707   100.8964
 27      2.5804     2.6105E-01    3.2994E-01    2.861200E+08  0.00800  9.925E-04    0   0.6683   age125_m52            0.0000     8.3521E-01     4.8784   0.5967   104.4821
 28      0.0000     0.0000E+00    0.0000E+00    9.047900E+08  0.00800  3.141E-04    0   0.6138   age135_m52            0.0000     1.1417E+00     5.4801  -0.2035   108.8816
 29      0.0000     0.0000E+00    0.0000E+00    1.434000E+09  0.00800  1.719E-04    0   0.5853   age139_m52            0.0000     9.8085E-01     5.2356  -0.7941   107.4066
 30      0.0000     0.0000E+00    0.0000E+00    2.500000E+09  0.00800  7.872E-05    0   0.5600   age150_m52            0.0000     1.5025E+00     6.1060  -1.0000   103.4725
 31      2.5073     5.8062E+00    5.9580E+00    4.250000E+09  0.00800  4.336E-05    0   0.5426   age158_m52            0.0000     1.6598E+00     6.2374  -1.0000   102.1709
 32      0.0000     0.0000E+00    0.0000E+00    6.250000E+09  0.00800  3.159E-05    0   0.5319   age166_m52            0.0000     3.3250E+00     8.9504  -1.0000    96.5420
 33      0.0000     0.0000E+00    0.0000E+00    1.300000E+10  0.00800  1.361E-05    0   0.5073   age193_m52            0.0000     1.1015E+01    16.7913  -1.0000    81.7660
 34      2.3407     2.3774E+01    2.2436E+01    1.800000E+10  0.00800  9.886E-06    0   0.4990   age213_m52            0.0000     1.3963E+01    18.6479  -1.0000    78.1598
 35      0.0000     0.0000E+00    0.0000E+00    1.000000E+06  0.02000  1.544E-02    0   1.0000   age020_m62            0.0000     1.3585E+00     6.2046   2.3245    92.9728
 36      0.0000     0.0000E+00    0.0000E+00    3.160000E+06  0.02000  3.762E-02    0   0.9858   age045_m62            0.0000     1.3548E+00     6.2172   2.2632    93.8413
 37      1.9927     6.0705E-03    1.0725E-02    5.010000E+06  0.02000  3.296E-02    0   0.9342   age055_m62            0.0000     8.7980E-01     5.0859   1.9002    96.7761
 38      0.0000     0.0000E+00    0.0000E+00    8.710000E+06  0.02000  1.154E-02    0   0.8861   age067_m62            0.0000     1.7069E+00     6.9178   0.9104   100.5751
 39      0.0000     0.0000E+00    0.0000E+00    1.445000E+07  0.02000  7.663E-03    0   0.8472   age078_m62            0.0000     9.4582E-01     5.1449   1.1054   100.6191
 40      0.0000     0.0000E+00    0.0000E+00    2.512000E+07  0.02000  4.532E-03    0   0.8099   age090_m62            0.0000     1.0040E+00     5.2312   1.1016   100.0632
 41      0.0111     4.0907E-04    5.8756E-04    5.500000E+07  0.02000  2.733E-03    0   0.7595   age110_m62            0.0000     6.8669E-01     4.3188   1.1117   100.3986
 42      0.0000     0.0000E+00    0.0000E+00    1.609000E+08  0.02000  1.369E-03    0   0.6985   age120_m62            0.0000     7.8065E-01     4.6576   0.9573   102.8765
 43      0.0000     0.0000E+00    0.0000E+00    2.861200E+08  0.02000  9.013E-04    0   0.6714   age125_m62            0.0000     1.0243E+00     5.1611   0.7102   105.5848
 44      0.0000     0.0000E+00    0.0000E+00    5.088000E+08  0.02000  5.028E-04    0   0.6449   age130_m62            0.0000     1.3172E+00     5.7052   0.3318   108.5529
 45      0.0019     7.7047E-04    9.0034E-04    9.047900E+08  0.02000  2.428E-04    0   0.6179   age135_m62            0.0000     1.2117E+00     5.6659  -0.2664   108.6827
 46      0.4431     3.5224E-01    3.9355E-01    1.434000E+09  0.02000  1.263E-04    0   0.5908   age139_m62            0.0000     1.3745E+00     5.8172  -0.7206   107.7451
 47      2.5776     4.3244E+00    4.6395E+00    2.500000E+09  0.02000  5.985E-05    0   0.5673   age150_m62            0.0000     2.1025E+00     6.8981  -1.0000   104.3712
 48      2.6125     8.0197E+00    8.2931E+00    4.250000E+09  0.02000  3.271E-05    0   0.5468   age158_m62            0.0000     5.1645E+00    11.1881  -1.0000    94.7295
 49      0.0000     0.0000E+00    0.0000E+00    1.000000E+10  0.02000  1.360E-05    0   0.5167   age181_m62            0.0000     1.1896E+01    17.0571  -1.0000    83.6097
 50      0.5681     8.0076E+00    7.5915E+00    1.800000E+10  0.02000  7.124E-06    0   0.5013   age213_m62            0.0000     1.7452E+01    20.2823  -1.0000    76.5132
 51      2.0979     8.1270E-03    1.5367E-02    1.000000E+06  0.05000  2.592E-02    0   0.9998   age020_m72            0.0000     1.4531E+00     6.3420   2.3163    93.0174
 52      0.0000     0.0000E+00    0.0000E+00    3.160000E+06  0.05000  4.845E-02    0   0.9577   age045_m72            0.0000     1.1636E+00     5.8328   2.1514    94.7631
 53      0.0000     0.0000E+00    0.0000E+00    5.010000E+06  0.05000  3.072E-02    0   0.9147   age055_m72            0.0000     1.0653E+00     5.2930   1.6864    97.6490
 54      0.0000     0.0000E+00    0.0000E+00    6.610000E+06  0.05000  1.455E-02    0   0.8877   age061_m72            0.0000     2.7626E+00     9.0235   0.9679   100.9407
 55      0.0000     0.0000E+00    0.0000E+00    1.000000E+07  0.05000  9.074E-03    0   0.8524   age070_m72            0.0000     1.2561E+00     5.7759   1.8782    97.2449
 56      0.0000     0.0000E+00    0.0000E+00    2.512000E+07  0.05000  4.250E-03    0   0.7902   age090_m72            0.0000     9.8389E-01     5.0114   1.5817    98.4155
 57      0.0000     0.0000E+00    0.0000E+00    4.000000E+07  0.05000  3.087E-03    0   0.7618   age104_m72            0.0000     9.6291E-01     5.0028   1.3575    99.6516
 58      0.0000     0.0000E+00    0.0000E+00    1.015200E+08  0.05000  1.700E-03    0   0.7096   age116_m72            0.0000     8.0278E-01     4.6917   1.1018   102.2383
 59      0.0000     0.0000E+00    0.0000E+00    2.861200E+08  0.05000  7.384E-04    0   0.6633   age125_m72            0.0000     1.1616E+00     5.4003   0.5773   107.0614
 60     11.4064     2.9990E+00    3.6140E+00    5.088000E+08  0.05000  3.819E-04    0   0.6372   age130_m72            0.0000     1.2281E+00     5.7838   0.0753   109.4392
 61      6.3442     3.8009E+00    4.3920E+00    9.047900E+08  0.05000  1.676E-04    0   0.6110   age135_m72            0.0000     1.7527E+00     6.6630  -0.6412   109.0392
 62      0.0000     0.0000E+00    0.0000E+00    1.434000E+09  0.05000  8.837E-05    0   0.5874   age139_m72            0.0000     2.3597E+00     7.1727  -1.0000   105.8164
 63      2.2085     5.2387E+00    5.5461E+00    2.500000E+09  0.05000  4.233E-05    0   0.5598   age150_m72            0.0000     5.5278E+00    11.4726  -1.0000    95.5905
 64      0.1203     8.4172E-01    8.3556E-01    6.250000E+09  0.05000  1.435E-05    0   0.5249   age166_m72            0.0000     1.4165E+01    18.5419  -1.0000    80.2912
 65      0.1468     2.2627E+00    2.1550E+00    1.300000E+10  0.05000  6.513E-06    0   0.5036   age193_m72            0.0000     2.2220E+01    22.4853  -1.0000    72.3784
 66      0.0000     0.0000E+00    0.0000E+00    1.800000E+10  0.05000  4.527E-06    0   0.4945   age213_m72            0.0000     2.7405E+01    24.4281  -1.0000    67.3657


## Synthesis Results - Average & Chains ##

# j      x_j: min, <> & last-chain-values for 1 ...  7 chains
  1      0.0000      0.3417      0.0000      0.0000      0.0000      1.4537      0.0000      0.0000      0.0000
  2      3.4870      0.7605      2.5059      0.0000      0.4313      0.0000      0.2446      0.0621      1.4593
  3      0.0000      0.5793      0.2008      0.5818      2.3295      0.4852      1.0087      0.3936      0.0000
  4      6.2305      2.2805      5.8792      4.2702      2.6152      2.6864      2.4955      1.2013      3.0026
  5      1.2645      2.8052      1.3652      0.0000      3.4868      0.0000      3.6474      0.4261      2.8023
  6      0.0000      0.6908      0.3488      0.4321      0.3897      2.4436      4.3448      0.0000      0.6822
  7      0.0353      1.1250      2.0883      2.1249      1.3163      0.1410      2.0484      1.7241      0.9957
  8      0.0080      0.8186      0.7008      0.6222      0.0000      2.0547      0.0000      1.4529      0.0000
  9      0.0000      1.0564      0.0000      0.0000      1.4406      0.1361      0.0609      1.7292      0.0807
 10      3.4251      1.2312      4.4265      0.0310      3.0923      4.1872      1.0035      1.4211      0.6870
 11     10.6018      2.6361      8.3407      4.3679      0.0000      2.5310      3.6521      1.8803      7.1577
 12      5.3735      3.5430      1.9520      5.7043      5.0175      5.3168      4.3099     11.9112      2.2919
 13      0.0000      2.8845      0.0000      3.6913      4.7232      0.1601      8.5151      3.3481      2.6741
 14      3.7947      1.7845      1.2285      1.6804      1.8721      2.0010      1.5278      1.9471      1.7416
 15      2.5303      0.4196      1.0259      0.0000      0.7534      0.1351      0.4442      0.0000      0.4992
 16      0.0000      0.2916      0.0195      0.4876      0.0000      0.8252      0.7511      0.0000      0.3783
 17      2.8058      0.5361      2.2489      0.0000      1.4515      0.3800      0.0000      0.9410      2.0824
 18      2.7501      1.3621      2.3165      1.0263      3.2968      1.8490      0.2185      1.8669      1.5357
 19      3.9838      3.3816      2.8471      5.5270      3.4244      2.6044      3.1507      4.7628      2.3363
 20      0.0404      0.3715      1.3825      0.9643      0.0000      0.0000      0.0000      0.4060      0.0000
 21     20.2510     17.7918     11.3035     19.3276     20.1353     23.1001     19.8844     18.7810     19.3557
 22      0.0000      0.8798      0.0000      0.6698      1.5808      0.1693      0.0000      0.0000      3.0079
 23      0.0000      3.3406      0.4076      2.6251      0.0000      3.1183      0.0819      2.6199      3.9430
 24      0.0031      0.6122      3.8170      1.3394      1.9215      0.0000      0.4860      0.0000      0.0618
 25      0.0000      0.6975      0.0000      0.0661      0.0000      0.8007      0.0703      0.2910      0.0000
 26      0.0000      0.7394      0.0000      0.5657      0.0000      0.4243      0.1162      3.1970      1.2674
 27      2.5804      1.8991      2.1353      2.5592      1.5314      0.3559      1.6495      0.7630      2.0868
 28      0.0000      2.0204      0.0000      0.6366      1.3762      1.7229      2.1022      1.0569      1.6920
 29      0.0000      0.5060      0.1534      0.4086      0.0000      0.5690      0.0000      0.8122      0.0000
 30      0.0000      0.1850      0.0000      0.0000      0.1713      0.0000      0.0000      0.0000      0.0638
 31      2.5073      0.5102      1.5439      0.0000      0.9265      0.0000      0.0000      1.0197      1.4493
 32      0.0000      0.3045      0.0000      0.4558      0.0910      1.2213      0.3495      0.0000      0.1170
 33      0.0000      0.1233      0.0000      0.0656      0.0000      0.2136      0.0000      0.0000      0.5299
 34      2.3407      0.7122      2.2137      0.2814      0.8790      1.1603      0.9008      0.7834      0.0000
 35      0.0000      1.0298      0.0000      1.8391      0.7397      0.0000      4.1579      0.9312      0.9048
 36      0.0000      0.4248      0.0000      0.0000      0.1540      0.0000      0.0000      0.7142      0.0000
 37      1.9927      0.3900      1.2310      0.5591      0.3272      2.0389      0.0000      0.5524      0.0000
 38      0.0000      0.7728      0.0000      0.0000      1.3672      0.0000      1.6055      0.0000      0.0000
 39      0.0000      0.8461      0.5177      0.0000      0.0000      0.0000      0.1591      0.8231      1.4451
 40      0.0000      0.4724      0.0000      0.0000      0.0800      0.7462      0.0000      0.0073      0.0000
 41      0.0111      0.6313      0.9151      0.0000      0.0000      0.0000      1.5694      0.0000      0.0000
 42      0.0000      0.8795      0.0000      0.9628      0.7380      3.9506      0.2510      1.0587      5.6070
 43      0.0000      1.1552      0.0000      1.2067      3.5978      0.0000      0.0000      0.0021      0.5294
 44      0.0000      0.9724      0.0428      0.0000      0.0000      0.0000      0.0000      0.0000      0.9023
 45      0.0019      5.0369      7.1253      3.0365      2.9888      3.4095      4.0950      4.6395      0.0000
 46      0.4431      4.6432      4.4804      3.5282      4.6276      3.3433      4.5639      4.7740      4.4017
