###################################################################
## OUTPUT of StarlightChains_v04.for    [Cid@UFSC - 01/Apr/2007] ##
###################################################################

## Some input info
2004fd.txt                               [arq_obs]
Base.CB07.vall.4m                        [arq_base]
Masks.EmLines.NEW.gm                     [arq_masks]
StCv04.C11.config                        [arq_config]
   66                                    [N_base]
    0                                    [N_YAV_components = # of components with extra extinction!]
    0                                    [i_FitPowerLaw (1/0 = Yes/No)]
-9.99                                    [alpha_PowerLaw]
CCM                                      [red_law_option]
 1.458241                                [q_norm = A(l_norm)/A(V)]

## (Re)Sampling Parameters
 3741.00                                 [l_ini (A)]
 7218.00                                 [l_fin (A)]
    1.00                                 [dl    (A)]     (OBS: dl_cushion =    50.00 A)

## Normalization info
 4020.00                                 [l_norm (A) - for base]
 4010.00                                 [llow_norm (A) - window for f_obs]
 4060.00                                 [lupp_norm (A) - window for f_obs]
5.233238E-16                             [fobs_norm (in input units)]

## S/N
 3691.00                                 [llow_SN (A) - window for S/N]
 7268.00                                 [lupp_SN (A) - window for S/N]
   4.005                                 [S/N in S/N window]
   2.702                                 [S/N in norm. window]
  38.291                                 [S/N_err in S/N window]
  25.835                                 [S/N_err in norm. window]
  1.0000                                 [fscale_chi2]

## etc...
    -2007291                             [idum_orig]
  2385                                   [NOl_eff]
  2337                                   [Nl_eff]
    48    NSIGMA                         [Ntot_cliped & clip_method]
  1721090                                [Nglobal_steps]
   7                                     [N_chains]
  20                                     [NEX0s_base = N_base in EX0s-fits]
 0   0   1       13   2.0   5.544E+01    [Clip-Bug, RC-Crash & Burn-In warning-flags, n_censored_weights, wei_nsig_threshold & wei_limit]
    15     14.381     13.887      0.494  [idt_all, wdt_TotTime, wdt_UsrTime & wdt_SysTime (sec)]

## Synthesis Results - Best model ##

 1.21515E+00                             [chi2/Nl_eff]
     2.01342                             [adev (%)]

   108.93240                             [sum-of-x (%)]
 4.80045E-16                             [Flux_tot (units of input spectrum!)]
 6.50396E-11                             [Mini_tot (???)]
 3.24837E-11                             [Mcor_tot (???)]

 -50.16                                  [v0_min  (km/s)]
 342.19                                  [vd_min  (km/s)]
-0.1280                                  [AV_min  (mag)]
 0.0000                                  [YAV_min (mag)]

# j     x_j(%)      Mini_j(%)     Mcor_j(%)     age_j(yr)     Z_j      (L/M)_j    YAV?  Mstars   component_j        a/Fe...       SSP_chi2r SSP_adev(%)   SSP_AV   SSP_x(%)
  1      0.0000     0.0000E+00    0.0000E+00    1.000000E+06  0.00400  1.094E-02    0   1.0000   age020_m42            0.0000     1.8178E+01     9.7239   4.0000    96.5737
  2      0.0000     0.0000E+00    0.0000E+00    3.160000E+06  0.00400  4.007E-02    0   0.9999   age045_m42            0.0000     1.7435E+01     9.0352   3.3075   101.7952
  3      0.0000     0.0000E+00    0.0000E+00    5.010000E+06  0.00400  2.539E-02    0   0.9488   age055_m42            0.0000     1.7698E+01     9.3400   3.6172    99.7270
  4      0.0000     0.0000E+00    0.0000E+00    6.610000E+06  0.00400  2.620E-02    0   0.9220   age061_m42            0.0000     1.7465E+01     9.1138   3.2285   102.3230
  5      0.0000     0.0000E+00    0.0000E+00    1.000000E+07  0.00400  1.322E-02    0   0.8862   age070_m42            0.0000     2.0014E+01    10.5852   2.9069   106.5963
  6      0.0000     0.0000E+00    0.0000E+00    1.445000E+07  0.00400  7.883E-03    0   0.8571   age078_m42            0.0000     1.9901E+01    10.5699   3.2372   103.7172
  7      0.0000     0.0000E+00    0.0000E+00    2.512000E+07  0.00400  5.251E-03    0   0.8174   age090_m42            0.0000     2.0911E+01    10.8543   2.7708   107.5117
  8      0.0000     0.0000E+00    0.0000E+00    4.000000E+07  0.00400  3.649E-03    0   0.7851   age104_m42            0.0000     2.0104E+01    10.5376   2.5470   108.2270
  9      0.0000     0.0000E+00    0.0000E+00    5.500000E+07  0.00400  3.098E-03    0   0.7629   age110_m42            0.0000     1.8779E+01     9.7547   2.7214   107.1709
 10      0.0000     0.0000E+00    0.0000E+00    1.015200E+08  0.00400  2.228E-03    0   0.7207   age116_m42            0.0000     1.7921E+01     9.2090   2.7553   106.6857
 11      0.0000     0.0000E+00    0.0000E+00    2.861200E+08  0.00400  1.093E-03    0   0.6648   age125_m42            0.0000     1.8216E+01     9.7202   2.1811   110.5140
 12      0.0000     0.0000E+00    0.0000E+00    5.088000E+08  0.00400  6.597E-04    0   0.6365   age130_m42            0.0000     1.6045E+01     8.8146   2.1884   110.4549
 13      0.0000     0.0000E+00    0.0000E+00    1.434000E+09  0.00400  2.132E-04    0   0.5798   age139_m42            0.0000     1.1156E+01     7.2337   1.2071   113.0068
 14      0.0000     0.0000E+00    0.0000E+00    4.250000E+09  0.00400  5.895E-05    0   0.5377   age158_m42            0.0000     6.8015E+00     5.7001   0.7774   108.0568
 15      0.0127     2.4438E-03    2.5503E-03    7.500000E+09  0.00400  3.510E-05    0   0.5212   age171_m42            0.0000     5.3550E+00     5.0147   0.5993   106.9537
 16      5.9248     2.0022E+00    2.0180E+00    1.300000E+10  0.00400  2.005E-05    0   0.5034   age193_m42            0.0000     4.2850E+00     4.4413   0.4440   106.0159
 17      9.9503     4.4209E+00    4.3966E+00    1.800000E+10  0.00400  1.525E-05    0   0.4967   age213_m42            0.0000     4.3787E+00     4.5622   0.4164   105.7285
 18      0.0000     0.0000E+00    0.0000E+00    1.000000E+06  0.00800  1.238E-02    0   1.0000   age020_m52            0.0000     1.8125E+01     9.6920   4.0000    96.6049
 19      0.0000     0.0000E+00    0.0000E+00    3.160000E+06  0.00800  3.074E-02    0   0.9966   age045_m52            0.0000     1.7932E+01     9.5332   3.9365    96.8774
 20      0.0000     0.0000E+00    0.0000E+00    5.010000E+06  0.00800  2.668E-02    0   0.9443   age055_m52            0.0000     1.7615E+01     9.4043   3.6949    99.0340
 21      0.0000     0.0000E+00    0.0000E+00    6.610000E+06  0.00800  2.136E-02    0   0.9177   age061_m52            0.0000     1.7116E+01    10.0535   2.3962   108.2586
 22      0.0000     0.0000E+00    0.0000E+00    1.000000E+07  0.00800  1.215E-02    0   0.8827   age070_m52            0.0000     2.0875E+01    11.1444   3.0776   106.8916
 23      0.1701     1.3220E-04    2.2637E-04    1.445000E+07  0.00800  8.717E-03    0   0.8552   age078_m52            0.0000     1.9628E+01    10.5193   3.2011   105.2334
 24      0.0000     0.0000E+00    0.0000E+00    2.512000E+07  0.00800  5.592E-03    0   0.8162   age090_m52            0.0000     2.0664E+01    10.8928   2.8338   108.8995
 25      0.0000     0.0000E+00    0.0000E+00    4.000000E+07  0.00800  3.896E-03    0   0.7841   age104_m52            0.0000     1.9740E+01    10.4587   2.7584   109.1777
 26      0.0000     0.0000E+00    0.0000E+00    1.015200E+08  0.00800  2.148E-03    0   0.7226   age116_m52            0.0000     1.8021E+01     9.5574   2.7146   108.0426
 27      0.0000     0.0000E+00    0.0000E+00    2.861200E+08  0.00800  9.925E-04    0   0.6683   age125_m52            0.0000     1.5804E+01     8.7794   2.2505   111.6239
 28      0.0000     0.0000E+00    0.0000E+00    9.047900E+08  0.00800  3.141E-04    0   0.6138   age135_m52            0.0000     1.0562E+01     6.9778   1.4694   115.3969
 29      3.1087     1.2253E-01    1.4360E-01    1.434000E+09  0.00800  1.719E-04    0   0.5853   age139_m52            0.0000     7.4434E+00     6.1322   0.8819   113.4722
 30      0.0000     0.0000E+00    0.0000E+00    2.500000E+09  0.00800  7.872E-05    0   0.5600   age150_m52            0.0000     4.6072E+00     4.5976   0.6289   109.5592
 31      0.0000     0.0000E+00    0.0000E+00    4.250000E+09  0.00800  4.336E-05    0   0.5426   age158_m52            0.0000     4.5493E+00     4.5162   0.6131   108.5541
 32      0.0023     4.8477E-04    5.1627E-04    6.250000E+09  0.00800  3.159E-05    0   0.5319   age166_m52            0.0000     3.3169E+00     3.6177   0.4225   108.0392
 33      0.0000     0.0000E+00    0.0000E+00    1.300000E+10  0.00800  1.361E-05    0   0.5073   age193_m52            0.0000     2.0753E+00     2.6393  -0.0354   106.8682
 34      0.0000     0.0000E+00    0.0000E+00    1.800000E+10  0.00800  9.886E-06    0   0.4990   age213_m52            0.0000     1.7129E+00     2.3720  -0.1282   105.6822
 35      0.0000     0.0000E+00    0.0000E+00    1.000000E+06  0.02000  1.544E-02    0   1.0000   age020_m62            0.0000     1.8134E+01     9.6887   4.0000    96.6601
 36      0.5380     9.6897E-05    1.9125E-04    3.160000E+06  0.02000  3.762E-02    0   0.9858   age045_m62            0.0000     1.8029E+01     9.6100   3.9503    97.0275
 37      0.1999     4.1094E-05    7.6865E-05    5.010000E+06  0.02000  3.296E-02    0   0.9342   age055_m62            0.0000     1.7132E+01     9.0061   3.5839   100.6622
 38      0.9453     5.5503E-04    9.8471E-04    8.710000E+06  0.02000  1.154E-02    0   0.8861   age067_m62            0.0000     3.2333E+01    15.0764   2.4538   114.2243
 39      0.0000     0.0000E+00    0.0000E+00    1.445000E+07  0.02000  7.663E-03    0   0.8472   age078_m62            0.0000     2.2971E+01    12.2301   2.7036   110.6327
 40      0.0000     0.0000E+00    0.0000E+00    2.512000E+07  0.02000  4.532E-03    0   0.8099   age090_m62            0.0000     2.3944E+01    12.4480   2.6954   110.4390
 41      0.0000     0.0000E+00    0.0000E+00    5.500000E+07  0.02000  2.733E-03    0   0.7595   age110_m62            0.0000     1.9187E+01    10.3938   2.7370   108.5832
 42      0.0000     0.0000E+00    0.0000E+00    1.609000E+08  0.02000  1.369E-03    0   0.6985   age120_m62            0.0000     1.7438E+01     9.2517   2.6009   110.2815
 43      0.0000     0.0000E+00    0.0000E+00    2.861200E+08  0.02000  9.013E-04    0   0.6714   age125_m62            0.0000     1.6299E+01     8.8064   2.3606   112.8848
 44      0.0000     0.0000E+00    0.0000E+00    5.088000E+08  0.02000  5.028E-04    0   0.6449   age130_m62            0.0000     1.2988E+01     7.6543   2.0089   114.5344
 45      0.0000     0.0000E+00    0.0000E+00    9.047900E+08  0.02000  2.428E-04    0   0.6179   age135_m62            0.0000     8.1852E+00     5.9417   1.4251   113.8176
 46      0.0000     0.0000E+00    0.0000E+00    1.434000E+09  0.02000  1.263E-04    0   0.5908   age139_m62            0.0000     5.7376E+00     4.9814   0.9761   112.3859
 47      0.0000     0.0000E+00    0.0000E+00    2.500000E+09  0.02000  5.985E-05    0   0.5673   age150_m62            0.0000     3.6608E+00     3.7779   0.6230   110.2342
 48      0.7346     1.5217E-01    1.6660E-01    4.250000E+09  0.02000  3.271E-05    0   0.5468   age158_m62            0.0000     2.2318E+00     2.7140   0.3316   108.6576
 49      0.0219     1.0891E-02    1.1268E-02    1.000000E+10  0.02000  1.360E-05    0   0.5167   age181_m62            0.0000     1.5857E+00     2.4775   0.0029   107.4035
 50      0.0000     0.0000E+00    0.0000E+00    1.800000E+10  0.02000  7.124E-06    0   0.5013   age213_m62            0.0000     1.8220E+00     3.0557  -0.1867   105.7058
 51      0.5714     1.4937E-04    2.9900E-04    1.000000E+06  0.05000  2.592E-02    0   0.9998   age020_m72            0.0000     1.8292E+01     9.7611   3.9941    96.5701
 52      0.4451     6.2247E-05    1.1936E-04    3.160000E+06  0.05000  4.845E-02    0   0.9577   age045_m72            0.0000     1.7560E+01     9.2890   3.8397    98.0448
 53      0.9322     2.0561E-04    3.7657E-04    5.010000E+06  0.05000  3.072E-02    0   0.9147   age055_m72            0.0000     1.9884E+01    11.2447   3.3281   104.6948
 54      3.6700     1.7090E-03    3.0376E-03    6.610000E+06  0.05000  1.455E-02    0   0.8877   age061_m72            0.0000     4.2965E+01    17.7155   2.5204   115.7486
 55      0.4752     3.5483E-04    6.0559E-04    1.000000E+07  0.05000  9.074E-03    0   0.8524   age070_m72            0.0000     2.0814E+01    11.6679   3.5469   103.4209
 56      1.0756     1.7147E-03    2.7130E-03    2.512000E+07  0.05000  4.250E-03    0   0.7902   age090_m72            0.0000     2.0934E+01    11.3644   3.2262   105.9164
 57      0.0000     0.0000E+00    0.0000E+00    4.000000E+07  0.05000  3.087E-03    0   0.7618   age104_m72            0.0000     2.1911E+01    11.5495   2.9907   108.0580
 58      0.0000     0.0000E+00    0.0000E+00    1.015200E+08  0.05000  1.700E-03    0   0.7096   age116_m72            0.0000     1.8908E+01     9.9066   2.7384   110.2067
 59      0.0000     0.0000E+00    0.0000E+00    2.861200E+08  0.05000  7.384E-04    0   0.6633   age125_m72            0.0000     1.4279E+01     8.2008   2.2395   113.8667
 60      0.0000     0.0000E+00    0.0000E+00    5.088000E+08  0.05000  3.819E-04    0   0.6372   age130_m72            0.0000     9.8653E+00     6.5182   1.7581   115.0363
 61      0.0000     0.0000E+00    0.0000E+00    9.047900E+08  0.05000  1.676E-04    0   0.6110   age135_m72            0.0000     5.1267E+00     4.4232   1.0778   112.2650
 62      0.0000     0.0000E+00    0.0000E+00    1.434000E+09  0.05000  8.837E-05    0   0.5874   age139_m72            0.0000     3.2894E+00     3.5579   0.6242   111.7651
 63      6.2386     9.9858E-01    1.1193E+00    2.500000E+09  0.05000  4.233E-05    0   0.5598   age150_m72            0.0000     1.9944E+00     2.5211   0.3376   109.2956
 64      0.0000     0.0000E+00    0.0000E+00    6.250000E+09  0.05000  1.435E-05    0   0.5249   age166_m72            0.0000     1.6090E+00     2.5660  -0.0885   106.6999
 65     40.1973     4.1818E+01    4.2166E+01    1.300000E+10  0.05000  6.513E-06    0   0.5036   age193_m72            0.0000     2.1831E+00     3.5212  -0.3439   106.6787
 66     33.7187     5.0467E+01    4.9967E+01    1.800000E+10  0.05000  4.527E-06    0   0.4945   age213_m72            0.0000     2.9953E+00     4.3085  -0.4872   105.7148


## Synthesis Results - Average & Chains ##

# j      x_j: min, <> & last-chain-values for 1 ...  7 chains
  1      0.0000      0.0643      0.0000      0.0000      0.0000      0.0000      0.0329      0.0000      0.0631
  2      0.0000      0.0713      0.0000      0.0000      0.0000      0.0000      0.0654      0.0000      0.0000
  3      0.0000      0.0291      0.0000      0.0000      0.0000      0.0384      0.0000      0.0000      0.0000
  4      0.0000      0.0461      0.0000      0.0000      0.0000      0.0000      0.3679      0.0000      0.0000
  5      0.0000      0.0630      0.0000      0.0163      0.0000      0.0000      0.0000      0.0000      0.0000
  6      0.0000      0.3114      0.4023      0.3233      0.1352      0.0375      0.3840      0.4604      0.5203
  7      0.0000      0.0485      0.0000      0.0000      0.0000      0.0000      0.0000      0.1392      0.0000
  8      0.0000      0.0592      0.0000      0.2269      0.0000      0.0294      0.1711      0.0000      0.0000
  9      0.0000      0.0334      0.0812      0.1185      0.1844      0.0000      0.0000      0.0000      0.0000
 10      0.0000      0.0264      0.0000      0.0012      0.0000      0.0000      0.0876      0.0000      0.0000
 11      0.0000      0.0570      0.0000      0.0000      0.0000      0.0000      0.0000      0.0000      0.0000
 12      0.0000      0.0696      0.1575      0.1444      0.0000      0.0313      0.0000      0.0000      0.0000
 13      0.0000      0.1395      0.1461      0.0000      0.0831      0.0000      0.2775      0.5045      0.0000
 14      0.0000      0.0954      0.0000      0.0000      0.0000      0.2531      0.5291      0.2696      0.0890
 15      0.0127      0.4188      0.8082      0.0000      0.0000      0.4177      0.4666      0.8157      0.2852
 16      5.9248      1.8861      2.0619      2.0406      2.9251      1.7777      2.4017      1.5739      2.0940
 17      9.9503      6.1017      6.7941      6.0843      6.0452      6.6704      5.9688      5.9965      6.2925
 18      0.0000      0.1251      0.0000      0.0000      0.0000      0.1794      0.0000      0.1149      0.1903
 19      0.0000      0.0724      0.2505      0.0000      0.0000      0.0000      0.1393      0.0000      0.0000
 20      0.0000      0.0411      0.0000      0.1078      0.0653      0.0000      0.4448      0.0000      0.0000
 21      0.0000      0.1370      0.0000      0.0000      0.3982      0.1505      0.0123      0.0000      0.0000
 22      0.0000      0.0602      0.2362      0.3678      0.0000      0.0000      0.0000      0.1079      0.0000
 23      0.1701      0.0750      0.4215      0.0000      0.1152      0.3045      0.0000      0.0000      0.0186
 24      0.0000      0.0747      0.0000      0.2502      0.0000      0.0000      0.0000      0.0000      0.0000
 25      0.0000      0.0439      0.0315      0.1902      0.0000      0.0000      0.0000      0.0000      0.0000
 26      0.0000      0.0500      0.0000      0.0706      0.1765      0.0000      0.0000      0.2144      0.6552
 27      0.0000      0.0322      0.0280      0.0000      0.0000      0.0714      0.0000      0.0000      0.0000
 28      0.0000      0.0527      0.0498      0.0000      0.2739      0.0000      0.0000      0.0000      0.0000
 29      3.1087      1.8914      1.8232      2.5017      2.0601      1.9445      1.5814      2.1307      1.3591
 30      0.0000      0.2449      0.1830      0.4525      0.1677      0.0000      0.0000      0.1630      0.0083
 31      0.0000      0.1977      0.0000      0.6815      0.0000      0.0508      0.0097      0.0000      0.0000
 32      0.0023      0.4054      0.5132      0.0000      0.0000      0.3025      0.0000      0.6164      0.9157
 33      0.0000      0.2018      0.0000      0.0260      0.0000      0.0000      0.1477      0.0000      0.0000
 34      0.0000      0.3202      0.4693      0.5811      0.0000      0.0878      0.0000      0.9885      0.2154
 35      0.0000      0.2793      0.3628      0.0000      0.3959      0.2738      0.7425      0.4821      0.0408
 36      0.5380      0.1946      0.4806      0.0000      0.0000      0.6086      0.1032      0.4849      0.3279
 37      0.1999      0.3805      0.3916      0.0000      0.5144      0.6459      0.0521      0.3701      0.0000
 38      0.9453      0.4167      0.2511      0.4076      0.3924      0.4460      0.4204      0.4650      0.3694
 39      0.0000      0.0670      0.0000      0.2646      0.3051      0.0411      0.0000      0.0132      0.1642
 40      0.0000      0.1695      0.1834      0.0000      0.2683      0.1641      0.1657      0.5893      0.2921
 41      0.0000      0.0357      0.0000      0.0000      0.2025      0.1658      0.0000      0.0000      0.0000
 42      0.0000      0.0764      0.0000      0.0000      0.0984      0.0000      0.0000      0.0513      0.0664
 43      0.0000      0.0734      0.0000      0.0000      0.0000      0.0000      0.0454      0.0000      0.1461
 44      0.0000      0.0778      0.0000      0.2939      0.1526      0.0000      0.2944      0.0000      0.0000
 45      0.0000      0.0800      0.0000      0.6809      0.0000      0.0000      0.0000      0.0687      0.0409
 46      0.0000      0.1198      0.4214      0.0780      0.0607      0.0000      0.0000      0.0000      0.3710
