###################################################################
## OUTPUT of StarlightChains_v04.for    [Cid@UFSC - 01/Apr/2007] ##
###################################################################

## Some input info
2004G.txt                                [arq_obs]
Base.CB07.vall.4m                        [arq_base]
Masks.EmLines.NEW.gm                     [arq_masks]
StCv04.C11.config                        [arq_config]
   66                                    [N_base]
    0                                    [N_YAV_components = # of components with extra extinction!]
    0                                    [i_FitPowerLaw (1/0 = Yes/No)]
-9.99                                    [alpha_PowerLaw]
CCM                                      [red_law_option]
 1.458241                                [q_norm = A(l_norm)/A(V)]

## (Re)Sampling Parameters
 3741.00                                 [l_ini (A)]
 7218.00                                 [l_fin (A)]
    1.00                                 [dl    (A)]     (OBS: dl_cushion =    50.00 A)

## Normalization info
 4020.00                                 [l_norm (A) - for base]
 4010.00                                 [llow_norm (A) - window for f_obs]
 4060.00                                 [lupp_norm (A) - window for f_obs]
2.687428E-13                             [fobs_norm (in input units)]

## S/N
 3691.00                                 [llow_SN (A) - window for S/N]
 7268.00                                 [lupp_SN (A) - window for S/N]
   5.861                                 [S/N in S/N window]
   7.931                                 [S/N in norm. window]
  10.000                                 [S/N_err in S/N window]
  13.530                                 [S/N_err in norm. window]
  1.0000                                 [fscale_chi2]

## etc...
    -2007292                             [idum_orig]
  2385                                   [NOl_eff]
  2342                                   [Nl_eff]
    43    NSIGMA                         [Ntot_cliped & clip_method]
  1173620                                [Nglobal_steps]
   7                                     [N_chains]
  19                                     [NEX0s_base = N_base in EX0s-fits]
 0   0   1       68   2.0   1.896E+01    [Clip-Bug, RC-Crash & Burn-In warning-flags, n_censored_weights, wei_nsig_threshold & wei_limit]
    12     12.338     11.847      0.491  [idt_all, wdt_TotTime, wdt_UsrTime & wdt_SysTime (sec)]

## Synthesis Results - Best model ##

 9.59860E-01                             [chi2/Nl_eff]
     7.70290                             [adev (%)]

    95.06495                             [sum-of-x (%)]
 3.85182E-13                             [Flux_tot (units of input spectrum!)]
 2.99962E-09                             [Mini_tot (???)]
 1.56947E-09                             [Mcor_tot (???)]

  60.01                                  [v0_min  (km/s)]
 246.12                                  [vd_min  (km/s)]
 0.3057                                  [AV_min  (mag)]
 0.0000                                  [YAV_min (mag)]

# j     x_j(%)      Mini_j(%)     Mcor_j(%)     age_j(yr)     Z_j      (L/M)_j    YAV?  Mstars   component_j        a/Fe...       SSP_chi2r SSP_adev(%)   SSP_AV   SSP_x(%)
  1      0.0000     0.0000E+00    0.0000E+00    1.000000E+06  0.00400  1.094E-02    0   1.0000   age020_m42            0.0000     1.5942E+00     9.8355   2.6068    77.8672
  2      0.0000     0.0000E+00    0.0000E+00    3.160000E+06  0.00400  4.007E-02    0   0.9999   age045_m42            0.0000     1.2532E+00     8.8450   1.8316    85.1955
  3      0.0000     0.0000E+00    0.0000E+00    5.010000E+06  0.00400  2.539E-02    0   0.9488   age055_m42            0.0000     1.3571E+00     9.1922   2.1706    82.3603
  4      0.0000     0.0000E+00    0.0000E+00    6.610000E+06  0.00400  2.620E-02    0   0.9220   age061_m42            0.0000     1.2145E+00     8.7009   1.7525    85.6099
  5      0.0000     0.0000E+00    0.0000E+00    1.000000E+07  0.00400  1.322E-02    0   0.8862   age070_m42            0.0000     1.1266E+00     8.3171   1.4826    87.0029
  6      0.0000     0.0000E+00    0.0000E+00    1.445000E+07  0.00400  7.883E-03    0   0.8571   age078_m42            0.0000     1.2170E+00     8.6277   1.8220    84.2864
  7      0.0000     0.0000E+00    0.0000E+00    2.512000E+07  0.00400  5.251E-03    0   0.8174   age090_m42            0.0000     1.1001E+00     8.2081   1.3511    87.5740
  8      0.0000     0.0000E+00    0.0000E+00    4.000000E+07  0.00400  3.649E-03    0   0.7851   age104_m42            0.0000     1.0645E+00     8.0856   1.1145    88.6963
  9      0.0000     0.0000E+00    0.0000E+00    5.500000E+07  0.00400  3.098E-03    0   0.7629   age110_m42            0.0000     1.0844E+00     8.1749   1.2551    89.2136
 10      0.0000     0.0000E+00    0.0000E+00    1.015200E+08  0.00400  2.228E-03    0   0.7207   age116_m42            0.0000     1.1165E+00     8.2809   1.2647    89.8203
 11      0.0000     0.0000E+00    0.0000E+00    2.861200E+08  0.00400  1.093E-03    0   0.6648   age125_m42            0.0000     1.0404E+00     7.9613   0.6860    93.0353
 12      0.0000     0.0000E+00    0.0000E+00    5.088000E+08  0.00400  6.597E-04    0   0.6365   age130_m42            0.0000     1.1343E+00     8.3078   0.6631    94.3524
 13     14.5597     9.2246E+00    1.0222E+01    1.434000E+09  0.00400  2.132E-04    0   0.5798   age139_m42            0.0000     1.1441E+00     8.4266  -0.3150    96.5841
 14      0.0000     0.0000E+00    0.0000E+00    4.250000E+09  0.00400  5.895E-05    0   0.5377   age158_m42            0.0000     1.3343E+00     9.1127  -0.7384    92.1144
 15      0.0000     0.0000E+00    0.0000E+00    7.500000E+09  0.00400  3.510E-05    0   0.5212   age171_m42            0.0000     1.4914E+00     9.5910  -0.9245    91.4176
 16      0.0000     0.0000E+00    0.0000E+00    1.300000E+10  0.00400  2.005E-05    0   0.5034   age193_m42            0.0000     1.6814E+00    10.0837  -1.0000    88.0104
 17      0.0000     0.0000E+00    0.0000E+00    1.800000E+10  0.00400  1.525E-05    0   0.4967   age213_m42            0.0000     1.6674E+00    10.0212  -1.0000    86.8800
 18      0.1016     1.1082E-03    2.1180E-03    1.000000E+06  0.00800  1.238E-02    0   1.0000   age020_m52            0.0000     1.5958E+00     9.8426   2.6031    78.0178
 19      0.0000     0.0000E+00    0.0000E+00    3.160000E+06  0.00800  3.074E-02    0   0.9966   age045_m52            0.0000     1.5592E+00     9.7678   2.5210    78.9157
 20      0.0000     0.0000E+00    0.0000E+00    5.010000E+06  0.00800  2.668E-02    0   0.9443   age055_m52            0.0000     1.3958E+00     9.3176   2.2601    81.3540
 21      0.0000     0.0000E+00    0.0000E+00    6.610000E+06  0.00800  2.136E-02    0   0.9177   age061_m52            0.0000     1.1580E+00     8.4454   0.9911    87.6772
 22      0.0000     0.0000E+00    0.0000E+00    1.000000E+07  0.00800  1.215E-02    0   0.8827   age070_m52            0.0000     1.1604E+00     8.4074   1.6732    86.3649
 23      0.0000     0.0000E+00    0.0000E+00    1.445000E+07  0.00800  8.717E-03    0   0.8552   age078_m52            0.0000     1.1783E+00     8.4968   1.7833    85.6328
 24      0.0000     0.0000E+00    0.0000E+00    2.512000E+07  0.00800  5.592E-03    0   0.8162   age090_m52            0.0000     1.0800E+00     8.1274   1.4132    88.7039
 25      0.0000     0.0000E+00    0.0000E+00    4.000000E+07  0.00800  3.896E-03    0   0.7841   age104_m52            0.0000     1.0469E+00     8.0158   1.3141    89.8743
 26      5.8322     3.6676E-01    5.0651E-01    1.015200E+08  0.00800  2.148E-03    0   0.7226   age116_m52            0.0000     1.0548E+00     8.0626   1.2365    90.3934
 27      0.0008     1.1141E-04    1.4230E-04    2.861200E+08  0.00800  9.925E-04    0   0.6683   age125_m52            0.0000     1.1316E+00     8.2761   0.7272    95.2629
 28     15.0473     6.4710E+00    7.5912E+00    9.047900E+08  0.00800  3.141E-04    0   0.6138   age135_m52            0.0000     1.2861E+00     8.8358  -0.0838    99.8652
 29      2.9259     2.2992E+00    2.5719E+00    1.434000E+09  0.00800  1.719E-04    0   0.5853   age139_m52            0.0000     1.2699E+00     8.8729  -0.6508    97.2820
 30      0.0000     0.0000E+00    0.0000E+00    2.500000E+09  0.00800  7.872E-05    0   0.5600   age150_m52            0.0000     1.5376E+00     9.7649  -0.9163    94.4728
 31      0.0000     0.0000E+00    0.0000E+00    4.250000E+09  0.00800  4.336E-05    0   0.5426   age158_m52            0.0000     1.5791E+00     9.8535  -0.9280    93.4288
 32      0.0000     0.0000E+00    0.0000E+00    6.250000E+09  0.00800  3.159E-05    0   0.5319   age166_m52            0.0000     1.8780E+00    10.5942  -1.0000    89.1276
 33      0.0000     0.0000E+00    0.0000E+00    1.300000E+10  0.00800  1.361E-05    0   0.5073   age193_m52            0.0000     3.4114E+00    13.5382  -1.0000    73.4664
 34      5.7580     7.8674E+01    7.5031E+01    1.800000E+10  0.00800  9.886E-06    0   0.4990   age213_m52            0.0000     4.1184E+00    14.6998  -1.0000    69.8048
 35      0.0100     8.7077E-05    1.6642E-04    1.000000E+06  0.02000  1.544E-02    0   1.0000   age020_m62            0.0000     1.6059E+00     9.8746   2.6009    78.1435
 36      0.0000     0.0000E+00    0.0000E+00    3.160000E+06  0.02000  3.762E-02    0   0.9858   age045_m62            0.0000     1.6002E+00     9.8880   2.5360    78.9634
 37      0.0000     0.0000E+00    0.0000E+00    5.010000E+06  0.02000  3.296E-02    0   0.9342   age055_m62            0.0000     1.3159E+00     9.0819   2.1176    83.8768
 38      8.1467     9.5358E-02    1.6149E-01    8.710000E+06  0.02000  1.154E-02    0   0.8861   age067_m62            0.0000     1.5121E+00     9.3826   1.1605    87.3038
 39      0.0000     0.0000E+00    0.0000E+00    1.445000E+07  0.02000  7.663E-03    0   0.8472   age078_m62            0.0000     1.1835E+00     8.4249   1.3288    88.0267
 40      0.0000     0.0000E+00    0.0000E+00    2.512000E+07  0.02000  4.532E-03    0   0.8099   age090_m62            0.0000     1.1670E+00     8.3855   1.3164    87.9903
 41      0.0000     0.0000E+00    0.0000E+00    5.500000E+07  0.02000  2.733E-03    0   0.7595   age110_m62            0.0000     1.0596E+00     8.0688   1.2994    89.1214
 42      0.0000     0.0000E+00    0.0000E+00    1.609000E+08  0.02000  1.369E-03    0   0.6985   age120_m62            0.0000     1.1000E+00     8.1817   1.1044    93.0160
 43      0.0000     0.0000E+00    0.0000E+00    2.861200E+08  0.02000  9.013E-04    0   0.6714   age125_m62            0.0000     1.2136E+00     8.5449   0.8350    96.5338
 44      0.0000     0.0000E+00    0.0000E+00    5.088000E+08  0.02000  5.028E-04    0   0.6449   age130_m62            0.0000     1.3907E+00     9.1548   0.4426    99.7660
 45      0.0000     0.0000E+00    0.0000E+00    9.047900E+08  0.02000  2.428E-04    0   0.6179   age135_m62            0.0000     1.3897E+00     9.2382  -0.1370    98.9243
 46      0.0000     0.0000E+00    0.0000E+00    1.434000E+09  0.02000  1.263E-04    0   0.5908   age139_m62            0.0000     1.4802E+00     9.5386  -0.5719    97.0661
 47      0.0000     0.0000E+00    0.0000E+00    2.500000E+09  0.02000  5.985E-05    0   0.5673   age150_m62            0.0000     1.7675E+00    10.4278  -0.9354    95.6051
 48      0.0000     0.0000E+00    0.0000E+00    4.250000E+09  0.02000  3.271E-05    0   0.5468   age158_m62            0.0000     2.3745E+00    11.7732  -1.0000    86.7132
 49      0.0000     0.0000E+00    0.0000E+00    1.000000E+10  0.02000  1.360E-05    0   0.5167   age181_m62            0.0000     3.8520E+00    14.2712  -1.0000    75.0207
 50      0.0000     0.0000E+00    0.0000E+00    1.800000E+10  0.02000  7.124E-06    0   0.5013   age213_m62            0.0000     5.0911E+00    16.1095  -1.0000    67.9935
 51      0.0000     0.0000E+00    0.0000E+00    1.000000E+06  0.05000  2.592E-02    0   0.9998   age020_m72            0.0000     1.6405E+00     9.9456   2.5963    78.0137
 52      0.0000     0.0000E+00    0.0000E+00    3.160000E+06  0.05000  4.845E-02    0   0.9577   age045_m72            0.0000     1.4852E+00     9.6132   2.4013    80.6803
 53      0.0000     0.0000E+00    0.0000E+00    5.010000E+06  0.05000  3.072E-02    0   0.9147   age055_m72            0.0000     1.2971E+00     8.8339   1.9262    84.2480
 54      7.4605     6.9261E-02    1.1751E-01    6.610000E+06  0.05000  1.455E-02    0   0.8877   age061_m72            0.0000     1.9311E+00    10.8242   1.2277    87.4985
 55      0.0000     0.0000E+00    0.0000E+00    1.000000E+07  0.05000  9.074E-03    0   0.8524   age070_m72            0.0000     1.3709E+00     9.1365   2.1167    83.9031
 56      0.0000     0.0000E+00    0.0000E+00    2.512000E+07  0.05000  4.250E-03    0   0.7902   age090_m72            0.0000     1.1718E+00     8.4547   1.7869    86.5574
 57      0.0000     0.0000E+00    0.0000E+00    4.000000E+07  0.05000  3.087E-03    0   0.7618   age104_m72            0.0000     1.1176E+00     8.2580   1.5476    88.4943
 58     35.2221     2.7986E+00    3.7955E+00    1.015200E+08  0.05000  1.700E-03    0   0.7096   age116_m72            0.0000     1.0630E+00     8.0155   1.2537    92.3691
 59      0.0000     0.0000E+00    0.0000E+00    2.861200E+08  0.05000  7.384E-04    0   0.6633   age125_m72            0.0000     1.3054E+00     8.8272   0.6942    98.2503
 60      0.0000     0.0000E+00    0.0000E+00    5.088000E+08  0.05000  3.819E-04    0   0.6372   age130_m72            0.0000     1.3988E+00     9.2713   0.1961   100.0901
 61      0.0000     0.0000E+00    0.0000E+00    9.047900E+08  0.05000  1.676E-04    0   0.6110   age135_m72            0.0000     1.6866E+00    10.2275  -0.4915    97.9518
 62      0.0000     0.0000E+00    0.0000E+00    1.434000E+09  0.05000  8.837E-05    0   0.5874   age139_m72            0.0000     1.8424E+00    10.5947  -0.9412    97.2428
 63      0.0000     0.0000E+00    0.0000E+00    2.500000E+09  0.05000  4.233E-05    0   0.5598   age150_m72            0.0000     2.5127E+00    12.0758  -1.0000    87.4470
 64      0.0000     0.0000E+00    0.0000E+00    6.250000E+09  0.05000  1.435E-05    0   0.5249   age166_m72            0.0000     4.3218E+00    15.0724  -1.0000    71.7176
 65      0.0000     0.0000E+00    0.0000E+00    1.300000E+10  0.05000  6.513E-06    0   0.5036   age193_m72            0.0000     6.0770E+00    17.5169  -1.0000    63.9717
 66      0.0000     0.0000E+00    0.0000E+00    1.800000E+10  0.05000  4.527E-06    0   0.4945   age213_m72            0.0000     7.1762E+00    18.9538  -1.0000    59.3141


## Synthesis Results - Average & Chains ##

# j      x_j: min, <> & last-chain-values for 1 ...  7 chains
  1      0.0000      0.2551      0.0000      0.4759      0.0000      0.0000      0.0000      0.0000      0.0000
  2      0.0000      0.4932      0.0000      0.0000      0.0000      0.0000      2.1177      0.0000      0.0000
  3      0.0000      0.2265      1.7478      0.0000      0.0000      0.0000      0.0856      0.1082      0.0000
  4      0.0000      0.4194      0.7587      0.0000      0.0000      0.0000      0.0000      0.0000      0.0000
  5      0.0000      0.6005      0.4666      0.2443      0.0000      1.3561      0.0000      0.0000      0.0000
  6      0.0000      0.3258      0.0000      0.0000      0.0000      0.0000      0.0000      0.0000      0.0000
  7      0.0000      0.8736      0.5582      0.0000      0.0000      0.0000      0.1524      0.0000      0.0000
  8      0.0000      0.8066      2.5016      0.0000      0.0000      0.6505      0.4846      0.0000      0.0000
  9      0.0000      1.0831      1.1721      0.0000      0.0000      0.0000      0.0000      0.0000      1.5392
 10      0.0000      0.5107      0.0000      0.0000      0.0000      0.7020      1.1285      0.0000      0.0000
 11      0.0000      4.3887     10.0039      1.7511      3.5297      9.0366      7.0269      7.2665      8.1939
 12      0.0000      1.6483      0.1794      2.6606      0.0000      0.0000      0.8760      0.0000      2.1983
 13     14.5597      9.3405      9.7124     10.6534     16.4014      9.9778      9.3117      8.5325      8.5781
 14      0.0000      1.0830      0.0000      0.8788      0.0000      1.3388      0.0000      0.9223      0.9023
 15      0.0000      0.2977      0.0000      0.0000      0.0000      0.0000      0.0000      0.3504      0.0000
 16      0.0000      0.2216      1.0795      0.0000      0.0000      1.4233      0.0000      0.0000      0.0000
 17      0.0000      0.1936      0.1446      0.0000      0.0000      0.0000      1.7758      0.0000      0.0000
 18      0.1016      0.5469      0.0000      1.1156      0.4806      0.0000      0.0000      0.0000      0.3390
 19      0.0000      0.1815      0.0000      0.0000      0.0000      0.0000      0.0000      0.1130      0.0000
 20      0.0000      0.2378      0.0000      0.0000      0.0000      0.0000      0.3545      0.0000      0.0000
 21      0.0000      0.5984      0.3401      0.0000      0.0000      0.0327      0.0000      0.0000      0.0000
 22      0.0000      1.2055      0.0000      1.8009      2.1118      0.2627      1.1264      0.0000      1.9712
 23      0.0000      0.9035      0.0000      0.0000      0.0000      0.0000      0.0000      0.1813      1.8587
 24      0.0000      1.6774      2.7209      0.0217      2.2303      4.5952      1.6630      0.0000      1.7599
 25      0.0000      2.0012      0.8810      1.1564      0.0000      0.0000      1.7611      1.6705      0.0000
 26      5.8322      2.8591      3.6724      2.8696      6.5067      8.6993      1.4397      1.5809      4.8686
 27      0.0008      2.1759      0.0000      2.4520      2.3137      1.5024      5.8268      0.0000      2.8187
 28     15.0473     12.4984     16.0644     13.1302     13.5399      9.3667     19.2143     13.7043     13.3845
 29      2.9259      2.6686      2.8808      2.7897      3.4948      3.1243      0.0000      4.6584      3.0680
 30      0.0000      0.2416      0.0000      0.0000      0.0000      1.8246      0.0000      0.0000      0.0000
 31      0.0000      0.7704      0.0000      1.9072      0.0000      1.0061      0.0000      1.6555      1.4939
 32      0.0000      0.1202      0.0000      0.0000      0.0000      0.0000      0.0000      0.0000      0.0000
 33      0.0000      0.1756      0.0000      0.9575      0.3707      0.0000      0.1133      0.0000      0.6419
 34      5.7580      1.5754      1.9798      1.2247      1.2975      1.5637      2.6890      1.5765      1.2630
 35      0.0100      0.3286      0.0130      1.5547      1.2503      0.0000      0.0000      3.2827      0.0000
 36      0.0000      0.1187      0.0000      0.0000      0.0000      0.0000      0.0000      0.0000      0.0000
 37      0.0000      0.4766      0.0295      2.3130      0.0061      0.0000      0.1363      0.0781      0.0000
 38      8.1467      6.3822      5.9524      6.6473      9.6838      7.0892      6.4133      7.3771     10.8556
 39      0.0000      1.3120      0.0000      0.4972      0.0000      0.7674      3.4840      0.2589      0.0000
 40      0.0000      0.9123      3.4016      1.9818      1.1567      0.0000      0.0807      0.0000      0.3913
 41      0.0000      0.8468      0.0000      0.0000      0.0000      0.0000      0.0000      0.0000      0.0000
 42      0.0000      2.8138      6.8392      2.5610      0.2644      0.8814      0.0000     10.9316      0.0000
 43      0.0000      3.0298      1.2387      5.2332      0.0000      5.5308      1.2010      1.5104      3.2235
 44      0.0000      1.4687      0.0000      1.7300      0.7969      1.7877      0.8986      2.6575      0.8691
 45      0.0000      0.8618      0.8052      1.2590      0.0000      0.0000      0.0000      0.0000      0.0000
 46      0.0000      0.2389      0.0000      0.0000      0.0014      0.0000      0.0000      0.0000      0.9719
