###################################################################
## OUTPUT of StarlightChains_v04.for    [Cid@UFSC - 01/Apr/2007] ##
###################################################################

## Some input info
2004ed.txt                               [arq_obs]
Base.CB07.vall.4m                        [arq_base]
Masks.EmLines.NEW.gm                     [arq_masks]
StCv04.C11.config                        [arq_config]
   66                                    [N_base]
    0                                    [N_YAV_components = # of components with extra extinction!]
    0                                    [i_FitPowerLaw (1/0 = Yes/No)]
-9.99                                    [alpha_PowerLaw]
CCM                                      [red_law_option]
 1.458241                                [q_norm = A(l_norm)/A(V)]

## (Re)Sampling Parameters
 3741.00                                 [l_ini (A)]
 7218.00                                 [l_fin (A)]
    1.00                                 [dl    (A)]     (OBS: dl_cushion =    50.00 A)

## Normalization info
 4020.00                                 [l_norm (A) - for base]
 4010.00                                 [llow_norm (A) - window for f_obs]
 4060.00                                 [lupp_norm (A) - window for f_obs]
1.570947E-16                             [fobs_norm (in input units)]

## S/N
 3691.00                                 [llow_SN (A) - window for S/N]
 7268.00                                 [lupp_SN (A) - window for S/N]
  10.692                                 [S/N in S/N window]
  12.739                                 [S/N in norm. window]
  21.756                                 [S/N_err in S/N window]
  25.922                                 [S/N_err in norm. window]
  1.0000                                 [fscale_chi2]

## etc...
    -2007289                             [idum_orig]
  2371                                   [NOl_eff]
  2369                                   [Nl_eff]
     2    NSIGMA                         [Ntot_cliped & clip_method]
  2221590                                [Nglobal_steps]
   7                                     [N_chains]
  33                                     [NEX0s_base = N_base in EX0s-fits]
 0   0   1        4   2.0   7.034E+01    [Clip-Bug, RC-Crash & Burn-In warning-flags, n_censored_weights, wei_nsig_threshold & wei_limit]
    21     20.565     20.072      0.494  [idt_all, wdt_TotTime, wdt_UsrTime & wdt_SysTime (sec)]

## Synthesis Results - Best model ##

 5.87180E-01                             [chi2/Nl_eff]
     2.71670                             [adev (%)]

    97.78680                             [sum-of-x (%)]
 3.95773E-16                             [Flux_tot (units of input spectrum!)]
 2.41834E-12                             [Mini_tot (???)]
 1.30493E-12                             [Mcor_tot (???)]

  23.45                                  [v0_min  (km/s)]
 159.13                                  [vd_min  (km/s)]
 0.7046                                  [AV_min  (mag)]
 0.0000                                  [YAV_min (mag)]

# j     x_j(%)      Mini_j(%)     Mcor_j(%)     age_j(yr)     Z_j      (L/M)_j    YAV?  Mstars   component_j        a/Fe...       SSP_chi2r SSP_adev(%)   SSP_AV   SSP_x(%)
  1      0.0000     0.0000E+00    0.0000E+00    1.000000E+06  0.00400  1.094E-02    0   1.0000   age020_m42            0.0000     2.4522E+00     6.0751   3.0097    76.5111
  2      0.0000     0.0000E+00    0.0000E+00    3.160000E+06  0.00400  4.007E-02    0   0.9999   age045_m42            0.0000     1.9325E+00     5.1983   2.2514    83.2033
  3      0.0000     0.0000E+00    0.0000E+00    5.010000E+06  0.00400  2.539E-02    0   0.9488   age055_m42            0.0000     2.0271E+00     5.3417   2.5771    80.8785
  4      0.0000     0.0000E+00    0.0000E+00    6.610000E+06  0.00400  2.620E-02    0   0.9220   age061_m42            0.0000     1.7258E+00     4.8945   2.1596    84.1432
  5      3.6244     4.5883E-02    7.5355E-02    1.000000E+07  0.00400  1.322E-02    0   0.8862   age070_m42            0.0000     9.7947E-01     3.4433   1.7717    90.4304
  6      0.9735     2.0667E-02    3.2828E-02    1.445000E+07  0.00400  7.883E-03    0   0.8571   age078_m42            0.0000     1.1832E+00     3.8647   2.1204    87.1930
  7      3.5909     1.1445E-01    1.7337E-01    2.512000E+07  0.00400  5.251E-03    0   0.8174   age090_m42            0.0000     8.7528E-01     3.2114   1.6201    91.8943
  8      8.3739     3.8406E-01    5.5880E-01    4.000000E+07  0.00400  3.649E-03    0   0.7851   age104_m42            0.0000     8.3529E-01     3.1378   1.3982    92.4394
  9      3.2484     1.7548E-01    2.4810E-01    5.500000E+07  0.00400  3.098E-03    0   0.7629   age110_m42            0.0000     1.0386E+00     3.6176   1.5927    90.6775
 10      1.8802     1.4124E-01    1.8864E-01    1.015200E+08  0.00400  2.228E-03    0   0.7207   age116_m42            0.0000     1.2121E+00     4.0493   1.6379    89.8000
 11      0.0000     0.0000E+00    0.0000E+00    2.861200E+08  0.00400  1.093E-03    0   0.6648   age125_m42            0.0000     1.1371E+00     3.7100   1.0208    94.8807
 12      0.0000     0.0000E+00    0.0000E+00    5.088000E+08  0.00400  6.597E-04    0   0.6365   age130_m42            0.0000     1.3000E+00     4.2674   1.0566    93.5925
 13      9.0553     7.1083E+00    7.6378E+00    1.434000E+09  0.00400  2.132E-04    0   0.5798   age139_m42            0.0000     1.1325E+00     4.3483   0.1114    94.2173
 14      0.0000     0.0000E+00    0.0000E+00    4.250000E+09  0.00400  5.895E-05    0   0.5377   age158_m42            0.0000     1.5822E+00     5.5145  -0.2374    86.6802
 15      1.8101     8.6305E+00    8.3363E+00    7.500000E+09  0.00400  3.510E-05    0   0.5212   age171_m42            0.0000     1.8449E+00     6.0558  -0.3932    84.8551
 16      0.0000     0.0000E+00    0.0000E+00    1.300000E+10  0.00400  2.005E-05    0   0.5034   age193_m42            0.0000     2.1460E+00     6.5745  -0.5293    83.3095
 17      0.0000     0.0000E+00    0.0000E+00    1.800000E+10  0.00400  1.525E-05    0   0.4967   age213_m42            0.0000     2.1019E+00     6.4750  -0.5580    83.1486
 18      2.1687     2.9318E-02    5.4332E-02    1.000000E+06  0.00800  1.238E-02    0   1.0000   age020_m52            0.0000     2.4503E+00     6.0749   3.0060    76.6578
 19      0.0007     3.6691E-06    6.7766E-06    3.160000E+06  0.00800  3.074E-02    0   0.9966   age045_m52            0.0000     2.4190E+00     6.0081   2.9306    77.2915
 20      0.0000     0.0000E+00    0.0000E+00    5.010000E+06  0.00800  2.668E-02    0   0.9443   age055_m52            0.0000     2.0153E+00     5.3745   2.6593    80.1361
 21      0.0000     0.0000E+00    0.0000E+00    6.610000E+06  0.00800  2.136E-02    0   0.9177   age061_m52            0.0000     9.5977E-01     3.6351   1.2918    90.5281
 22      1.0112     1.3929E-02    2.2786E-02    1.000000E+07  0.00800  1.215E-02    0   0.8827   age070_m52            0.0000     9.4398E-01     3.3927   1.9284    91.2370
 23      0.0000     0.0000E+00    0.0000E+00    1.445000E+07  0.00800  8.717E-03    0   0.8552   age078_m52            0.0000     1.0525E+00     3.6595   2.0783    88.7286
 24      7.2941     2.1830E-01    3.3020E-01    2.512000E+07  0.00800  5.592E-03    0   0.8162   age090_m52            0.0000     7.7850E-01     3.0506   1.6754    93.4119
 25      0.8575     3.6835E-02    5.3525E-02    4.000000E+07  0.00800  3.896E-03    0   0.7841   age104_m52            0.0000     8.1739E-01     3.1042   1.6018    93.5648
 26      0.0000     0.0000E+00    0.0000E+00    1.015200E+08  0.00800  2.148E-03    0   0.7226   age116_m52            0.0000     1.0212E+00     3.6476   1.5823    91.5554
 27      0.0000     0.0000E+00    0.0000E+00    2.861200E+08  0.00800  9.925E-04    0   0.6683   age125_m52            0.0000     1.1650E+00     4.0756   1.1159    94.6761
 28      0.0000     0.0000E+00    0.0000E+00    9.047900E+08  0.00800  3.141E-04    0   0.6138   age135_m52            0.0000     1.4507E+00     5.0063   0.3803    95.8025
 29      0.0000     0.0000E+00    0.0000E+00    1.434000E+09  0.00800  1.719E-04    0   0.5853   age139_m52            0.0000     1.5804E+00     5.2616  -0.1799    92.9987
 30      0.0000     0.0000E+00    0.0000E+00    2.500000E+09  0.00800  7.872E-05    0   0.5600   age150_m52            0.0000     2.0277E+00     6.3701  -0.3647    86.9381
 31      0.0000     0.0000E+00    0.0000E+00    4.250000E+09  0.00800  4.336E-05    0   0.5426   age158_m52            0.0000     2.0385E+00     6.4268  -0.3734    85.8475
 32      0.0000     0.0000E+00    0.0000E+00    6.250000E+09  0.00800  3.159E-05    0   0.5319   age166_m52            0.0000     2.5134E+00     7.2161  -0.5341    84.2302
 33      0.7558     9.2935E+00    8.7372E+00    1.300000E+10  0.00800  1.361E-05    0   0.5073   age193_m52            0.0000     3.2494E+00     8.2685  -0.9493    81.6437
 34      0.0000     0.0000E+00    0.0000E+00    1.800000E+10  0.00800  9.886E-06    0   0.4990   age213_m52            0.0000     3.8597E+00     9.1020  -1.0000    79.1240
 35      0.0003     3.2049E-06    5.9395E-06    1.000000E+06  0.02000  1.544E-02    0   1.0000   age020_m62            0.0000     2.4708E+00     6.1056   3.0031    76.7951
 36      0.0000     0.0000E+00    0.0000E+00    3.160000E+06  0.02000  3.762E-02    0   0.9858   age045_m62            0.0000     2.4789E+00     6.1016   2.9453    77.3559
 37      0.0000     0.0000E+00    0.0000E+00    5.010000E+06  0.02000  3.296E-02    0   0.9342   age055_m62            0.0000     1.9882E+00     5.3788   2.5433    81.6602
 38     23.9203     3.4690E-01    5.6967E-01    8.710000E+06  0.02000  1.154E-02    0   0.8861   age067_m62            0.0000     1.8534E+00     4.7745   1.2077   101.9791
 39      0.0000     0.0000E+00    0.0000E+00    1.445000E+07  0.02000  7.663E-03    0   0.8472   age078_m62            0.0000     1.0006E+00     3.3938   1.5168    96.0755
 40      0.0000     0.0000E+00    0.0000E+00    2.512000E+07  0.02000  4.532E-03    0   0.8099   age090_m62            0.0000     1.0904E+00     3.4806   1.4931    96.6144
 41      0.6984     4.2769E-02    6.0198E-02    5.500000E+07  0.02000  2.733E-03    0   0.7595   age110_m62            0.0000     7.8541E-01     3.1261   1.5868    92.7730
 42      1.0065     1.2305E-01    1.5928E-01    1.609000E+08  0.02000  1.369E-03    0   0.6985   age120_m62            0.0000     1.0323E+00     3.7802   1.4634    93.6891
 43      1.1189     2.0776E-01    2.5851E-01    2.861200E+08  0.02000  9.013E-04    0   0.6714   age125_m62            0.0000     1.2015E+00     4.1783   1.2291    95.6633
 44      0.0008     2.6721E-04    3.1936E-04    5.088000E+08  0.02000  5.028E-04    0   0.6449   age130_m62            0.0000     1.6261E+00     5.1914   0.9203    95.1048
 45      0.0000     0.0000E+00    0.0000E+00    9.047900E+08  0.02000  2.428E-04    0   0.6179   age135_m62            0.0000     1.6465E+00     5.6212   0.3805    92.5397
 46      0.0000     0.0000E+00    0.0000E+00    1.434000E+09  0.02000  1.263E-04    0   0.5908   age139_m62            0.0000     1.8214E+00     6.0547  -0.0346    89.9175
 47      0.0000     0.0000E+00    0.0000E+00    2.500000E+09  0.02000  5.985E-05    0   0.5673   age150_m62            0.0000     2.4552E+00     7.1766  -0.3344    85.9827
 48      0.0000     0.0000E+00    0.0000E+00    4.250000E+09  0.02000  3.271E-05    0   0.5468   age158_m62            0.0000     3.3307E+00     8.4167  -0.5735    82.6847
 49      3.9431     4.8522E+01    4.6463E+01    1.000000E+10  0.02000  1.360E-05    0   0.5167   age181_m62            0.0000     4.4047E+00     9.7355  -0.8541    79.8559
 50      0.0000     0.0000E+00    0.0000E+00    1.800000E+10  0.02000  7.124E-06    0   0.5013   age213_m62            0.0000     5.3114E+00    10.7535  -1.0000    76.9481
 51      0.0000     0.0000E+00    0.0000E+00    1.000000E+06  0.05000  2.592E-02    0   0.9998   age020_m72            0.0000     2.5046E+00     6.1664   2.9936    76.8367
 52      0.0000     0.0000E+00    0.0000E+00    3.160000E+06  0.05000  4.845E-02    0   0.9577   age045_m72            0.0000     2.3667E+00     5.8952   2.8279    78.4405
 53      0.0000     0.0000E+00    0.0000E+00    5.010000E+06  0.05000  3.072E-02    0   0.9147   age055_m72            0.0000     1.5656E+00     4.2970   2.1907    88.6950
 54      0.0000     0.0000E+00    0.0000E+00    6.610000E+06  0.05000  1.455E-02    0   0.8877   age061_m72            0.0000     6.7044E+00     7.7689   1.1981   106.6362
 55      0.0000     0.0000E+00    0.0000E+00    1.000000E+07  0.05000  9.074E-03    0   0.8524   age070_m72            0.0000     2.8317E+00     5.1030   2.3821    88.4734
 56      0.0000     0.0000E+00    0.0000E+00    2.512000E+07  0.05000  4.250E-03    0   0.7902   age090_m72            0.0000     1.8130E+00     4.1109   2.0495    91.3625
 57      0.0000     0.0000E+00    0.0000E+00    4.000000E+07  0.05000  3.087E-03    0   0.7618   age104_m72            0.0000     1.8209E+00     3.9641   1.7946    94.1367
 58      0.0000     0.0000E+00    0.0000E+00    1.015200E+08  0.05000  1.700E-03    0   0.7096   age116_m72            0.0000     9.9715E-01     3.5350   1.5767    94.6655
 59      3.1093     7.0472E-01    8.6628E-01    2.861200E+08  0.05000  7.384E-04    0   0.6633   age125_m72            0.0000     1.3480E+00     4.6024   1.1300    95.4999
 60     13.4858     5.9098E+00    6.9788E+00    5.088000E+08  0.05000  3.819E-04    0   0.6372   age130_m72            0.0000     1.6279E+00     5.4906   0.7071    93.8800
 61      4.7262     4.7194E+00    5.3438E+00    9.047900E+08  0.05000  1.676E-04    0   0.6110   age135_m72            0.0000     2.4177E+00     7.1495   0.1130    87.9240
 62      0.0000     0.0000E+00    0.0000E+00    1.434000E+09  0.05000  8.837E-05    0   0.5874   age139_m72            0.0000     2.6373E+00     7.4230  -0.3289    86.9993
 63      0.0000     0.0000E+00    0.0000E+00    2.500000E+09  0.05000  4.233E-05    0   0.5598   age150_m72            0.0000     3.6589E+00     8.8355  -0.5537    82.6174
 64      1.1327     1.3210E+01    1.2851E+01    6.250000E+09  0.05000  1.435E-05    0   0.5249   age166_m72            0.0000     4.8622E+00    10.1977  -0.9273    78.6583
 65      0.0000     0.0000E+00    0.0000E+00    1.300000E+10  0.05000  6.513E-06    0   0.5036   age193_m72            0.0000     6.3450E+00    11.8921  -1.0000    71.9629
 66      0.0000     0.0000E+00    0.0000E+00    1.800000E+10  0.05000  4.527E-06    0   0.4945   age213_m72            0.0000     7.7509E+00    13.2019  -1.0000    66.4695


## Synthesis Results - Average & Chains ##

# j      x_j: min, <> & last-chain-values for 1 ...  7 chains
  1      0.0000      0.0849      0.0000      0.0000      0.0000      0.3793      0.0000      0.1765      0.0000
  2      0.0000      0.1857      0.0000      0.1511      0.0000      0.5097      0.0000      0.0000      0.0258
  3      0.0000      1.1897      1.0356      1.1546      1.3356      1.5653      0.9258      1.2407      0.5763
  4      0.0000      1.8485      1.9050      2.0037      1.7219      1.0849      1.2350      1.3194      2.0839
  5      3.6244      3.3304      2.9100      3.7635      3.0302      3.3221      3.4110      3.0988      3.5196
  6      0.9735      0.7336      1.1654      0.9619      0.9776      1.3408      0.9669      0.7548      0.7853
  7      3.5909      1.2597      0.8741      1.5951      0.9821      0.7874      1.8764      1.5753      1.2745
  8      8.3739      4.7341      5.8584      5.9197      5.0538      5.3894      4.6784      5.7730      4.5496
  9      3.2484      2.3790      2.8159      2.5008      2.1764      2.5128      2.0014      2.0241      3.5389
 10      1.8802      1.1858      1.5694      1.1069      1.4512      0.8726      1.4353      1.4369      0.7066
 11      0.0000      0.3957      0.0000      0.3294      0.0000      0.0000      0.2070      0.0000      0.3195
 12      0.0000      0.2341      0.5070      0.0175      0.1041      0.0000      0.0000      0.0243      0.1970
 13      9.0553     10.0088      9.9117     10.0599     10.3257     11.0051      9.9675     10.2228     10.7248
 14      0.0000      0.1320      0.0054      0.0000      0.0761      0.0000      0.0000      0.0000      0.1208
 15      1.8101      2.8997      2.7044      2.6699      2.5834      3.0326      2.7589      3.2063      2.8832
 16      0.0000      0.0302      0.0000      0.0000      0.0000      0.0000      0.2810      0.0000      0.0000
 17      0.0000      1.4129      1.3957      1.2855      1.4515      1.4555      1.5253      1.3817      1.3938
 18      2.1687      3.5756      4.0518      3.5144      3.4886      3.8053      3.6231      4.0888      3.5872
 19      0.0007      1.2672      1.3487      0.9202      0.9341      1.0600      1.5464      1.0664      1.4175
 20      0.0000      0.1795      0.0000      0.0000      0.1488      0.0000      0.1851      0.9644      0.7304
 21      0.0000      0.6385      0.1680      0.7083      0.4050      0.0683      0.3531      0.0000      0.2725
 22      1.0112      2.0026      1.9408      1.4727      2.2729      2.4098      1.9037      1.9613      1.9914
 23      0.0000      0.2509      0.0000      0.1822      0.2164      0.3043      0.0000      0.9299      0.0000
 24      7.2941      5.6629      7.3772      5.7309      5.9433      5.8209      6.1133      6.9354      6.2083
 25      0.8575      0.8101      1.0120      0.6451      0.9359      2.0223      0.7988      1.2585      0.0000
 26      0.0000      0.3755      0.1775      0.0000      0.3221      1.0972      0.1368      0.0870      0.0244
 27      0.0000      0.3860      0.0000      0.1078      0.9233      0.0000      0.0000      0.5250      0.0000
 28      0.0000      0.1695      0.0000      0.1563      0.0000      0.0000      0.0000      0.0000      0.0000
 29      0.0000      0.0441      0.0000      0.0000      0.0000      0.0000      0.0000      0.0000      0.0000
 30      0.0000      0.0493      0.0000      0.0000      0.0000      0.0000      0.0000      0.0000      0.0000
 31      0.0000      0.0223      0.0000      0.0000      0.0000      0.0000      0.0000      0.0000      0.0000
 32      0.0000      0.0326      0.0000      0.0075      0.0211      0.0000      0.0000      0.0000      0.0000
 33      0.7558      0.6382      0.5795      0.8838      0.6225      0.6758      0.6340      0.6699      0.5719
 34      0.0000      0.0155      0.0196      0.0000      0.0000      0.1222      0.0000      0.0000      0.0000
 35      0.0003      0.6706      0.8106      0.9469      0.5809      0.4515      0.4567      0.0000      0.6510
 36      0.0000      0.0870      0.0000      0.0000      0.0370      0.1997      0.0000      0.0175      0.0000
 37      0.0000      0.1910      0.0000      0.2319      0.0000      0.5000      0.3917      0.4139      0.0000
 38     23.9203     15.7030     16.3198     16.1706     15.6572     15.9193     17.4086     15.9856     16.1054
 39      0.0000      0.3937      0.4024      0.0170      1.2047      0.0000      0.0000      0.3051      0.9250
 40      0.0000      1.5061      1.3261      1.8920      1.7300      0.5854      1.1827      0.9147      1.6225
 41      0.6984      1.6166      1.6146      2.1242      2.2975      1.2397      1.9514      1.7297      1.5905
 42      1.0065      1.1318      1.0970      0.0755      0.0842      1.3782      1.2832      0.8859      0.0000
 43      1.1189      1.0108      0.6454      0.5776      0.7174      1.1783      1.0921      0.2084      0.5197
 44      0.0008      0.5739      0.7008      0.0000      0.4549      1.3440      0.5122      0.0920      0.0000
 45      0.0000      0.1833      0.0027      0.0000      0.0171      0.0396      0.0000      0.4516      0.0000
 46      0.0000      0.4650      0.3599      0.5589      0.0000      0.0000      0.0000      0.0000      0.0000
