###################################################################
## OUTPUT of StarlightChains_v04.for    [Cid@UFSC - 01/Apr/2007] ##
###################################################################

## Some input info
2004bs.txt                               [arq_obs]
Base.CB07.vall.4m                        [arq_base]
Masks.EmLines.NEW.gm                     [arq_masks]
StCv04.C11.config                        [arq_config]
   66                                    [N_base]
    0                                    [N_YAV_components = # of components with extra extinction!]
    0                                    [i_FitPowerLaw (1/0 = Yes/No)]
-9.99                                    [alpha_PowerLaw]
CCM                                      [red_law_option]
 1.458241                                [q_norm = A(l_norm)/A(V)]

## (Re)Sampling Parameters
 3741.00                                 [l_ini (A)]
 7218.00                                 [l_fin (A)]
    1.00                                 [dl    (A)]     (OBS: dl_cushion =    50.00 A)

## Normalization info
 4020.00                                 [l_norm (A) - for base]
 4010.00                                 [llow_norm (A) - window for f_obs]
 4060.00                                 [lupp_norm (A) - window for f_obs]
4.644708E-16                             [fobs_norm (in input units)]

## S/N
 3691.00                                 [llow_SN (A) - window for S/N]
 7268.00                                 [lupp_SN (A) - window for S/N]
   5.507                                 [S/N in S/N window]
   7.994                                 [S/N in norm. window]
  25.312                                 [S/N_err in S/N window]
  36.743                                 [S/N_err in norm. window]
  1.0000                                 [fscale_chi2]

## etc...
    -2007286                             [idum_orig]
  2383                                   [NOl_eff]
  2377                                   [Nl_eff]
     6    NSIGMA                         [Ntot_cliped & clip_method]
  1528450                                [Nglobal_steps]
   7                                     [N_chains]
  16                                     [NEX0s_base = N_base in EX0s-fits]
 0   0   1       10   2.0   1.304E+02    [Clip-Bug, RC-Crash & Burn-In warning-flags, n_censored_weights, wei_nsig_threshold & wei_limit]
    17     17.579     17.083      0.497  [idt_all, wdt_TotTime, wdt_UsrTime & wdt_SysTime (sec)]

## Synthesis Results - Best model ##

 5.04433E-01                             [chi2/Nl_eff]
     2.05709                             [adev (%)]

    93.10744                             [sum-of-x (%)]
 9.01104E-16                             [Flux_tot (units of input spectrum!)]
 1.31281E-12                             [Mini_tot (???)]
 7.80129E-13                             [Mcor_tot (???)]

 -35.07                                  [v0_min  (km/s)]
 150.92                                  [vd_min  (km/s)]
 0.5466                                  [AV_min  (mag)]
 0.0000                                  [YAV_min (mag)]

# j     x_j(%)      Mini_j(%)     Mcor_j(%)     age_j(yr)     Z_j      (L/M)_j    YAV?  Mstars   component_j        a/Fe...       SSP_chi2r SSP_adev(%)   SSP_AV   SSP_x(%)
  1      0.0000     0.0000E+00    0.0000E+00    1.000000E+06  0.00400  1.094E-02    0   1.0000   age020_m42            0.0000     3.4968E+00     5.3931   2.4323    76.6426
  2      0.0000     0.0000E+00    0.0000E+00    3.160000E+06  0.00400  4.007E-02    0   0.9999   age045_m42            0.0000     2.4261E+00     4.5123   1.7000    82.2842
  3      0.0000     0.0000E+00    0.0000E+00    5.010000E+06  0.00400  2.539E-02    0   0.9488   age055_m42            0.0000     2.6779E+00     4.6431   2.0162    80.3631
  4      0.0000     0.0000E+00    0.0000E+00    6.610000E+06  0.00400  2.620E-02    0   0.9220   age061_m42            0.0000     2.0873E+00     4.2361   1.6128    83.0377
  5      0.0000     0.0000E+00    0.0000E+00    1.000000E+07  0.00400  1.322E-02    0   0.8862   age070_m42            0.0000     9.6882E-01     2.6563   1.2342    88.9038
  6      0.0000     0.0000E+00    0.0000E+00    1.445000E+07  0.00400  7.883E-03    0   0.8571   age078_m42            0.0000     1.2976E+00     3.1119   1.5758    86.0170
  7      5.1786     7.2705E-01    1.0001E+00    2.512000E+07  0.00400  5.251E-03    0   0.8174   age090_m42            0.0000     8.4651E-01     2.4715   1.0852    90.2417
  8      4.5563     9.2050E-01    1.2161E+00    4.000000E+07  0.00400  3.649E-03    0   0.7851   age104_m42            0.0000     7.6605E-01     2.3653   0.8664    90.6190
  9      1.5061     3.5839E-01    4.6011E-01    5.500000E+07  0.00400  3.098E-03    0   0.7629   age110_m42            0.0000     1.0258E+00     2.9963   1.0634    88.7580
 10      0.4386     1.4513E-01    1.7601E-01    1.015200E+08  0.00400  2.228E-03    0   0.7207   age116_m42            0.0000     1.2512E+00     3.5007   1.1094    87.8378
 11      0.0000     0.0000E+00    0.0000E+00    2.861200E+08  0.00400  1.093E-03    0   0.6648   age125_m42            0.0000     1.2195E+00     3.1736   0.5036    92.2811
 12      0.0000     0.0000E+00    0.0000E+00    5.088000E+08  0.00400  6.597E-04    0   0.6365   age130_m42            0.0000     1.3274E+00     3.7135   0.5380    91.0466
 13      0.0000     0.0000E+00    0.0000E+00    1.434000E+09  0.00400  2.132E-04    0   0.5798   age139_m42            0.0000     1.2211E+00     3.9415  -0.4090    91.6402
 14      0.0000     0.0000E+00    0.0000E+00    4.250000E+09  0.00400  5.895E-05    0   0.5377   age158_m42            0.0000     1.9283E+00     4.9887  -0.7737    84.9073
 15      0.0000     0.0000E+00    0.0000E+00    7.500000E+09  0.00400  3.510E-05    0   0.5212   age171_m42            0.0000     2.4432E+00     5.5571  -0.9297    83.1072
 16      0.0000     0.0000E+00    0.0000E+00    1.300000E+10  0.00400  2.005E-05    0   0.5034   age193_m42            0.0000     3.1826E+00     6.4171  -1.0000    79.1274
 17      0.0000     0.0000E+00    0.0000E+00    1.800000E+10  0.00400  1.525E-05    0   0.4967   age213_m42            0.0000     3.2862E+00     6.5583  -1.0000    77.9196
 18      0.0000     0.0000E+00    0.0000E+00    1.000000E+06  0.00800  1.238E-02    0   1.0000   age020_m52            0.0000     3.4853E+00     5.3873   2.4287    76.7888
 19      0.0000     0.0000E+00    0.0000E+00    3.160000E+06  0.00800  3.074E-02    0   0.9966   age045_m52            0.0000     3.3925E+00     5.2983   2.3541    77.3800
 20      0.0000     0.0000E+00    0.0000E+00    5.010000E+06  0.00800  2.668E-02    0   0.9443   age055_m52            0.0000     2.6513E+00     4.6456   2.0947    79.7678
 21     32.2825     1.1142E+00    1.7206E+00    6.610000E+06  0.00800  2.136E-02    0   0.9177   age061_m52            0.0000     7.7994E-01     2.6218   0.7478    89.2474
 22      0.0000     0.0000E+00    0.0000E+00    1.000000E+07  0.00800  1.215E-02    0   0.8827   age070_m52            0.0000     9.7515E-01     2.7251   1.3889    89.7895
 23      2.5793     2.1814E-01    3.1393E-01    1.445000E+07  0.00800  8.717E-03    0   0.8552   age078_m52            0.0000     1.1032E+00     2.8992   1.5357    87.4374
 24      1.2091     1.5940E-01    2.1894E-01    2.512000E+07  0.00800  5.592E-03    0   0.8162   age090_m52            0.0000     7.8113E-01     2.4007   1.1428    91.6054
 25      0.0000     0.0000E+00    0.0000E+00    4.000000E+07  0.00800  3.896E-03    0   0.7841   age104_m52            0.0000     7.9836E-01     2.4613   1.0747    91.4904
 26      0.0000     0.0000E+00    0.0000E+00    1.015200E+08  0.00800  2.148E-03    0   0.7226   age116_m52            0.0000     9.5619E-01     2.9830   1.0552    89.5007
 27      0.0000     0.0000E+00    0.0000E+00    2.861200E+08  0.00800  9.925E-04    0   0.6683   age125_m52            0.0000     1.1001E+00     3.5203   0.5987    92.0376
 28      0.0000     0.0000E+00    0.0000E+00    9.047900E+08  0.00800  3.141E-04    0   0.6138   age135_m52            0.0000     1.5425E+00     4.6297  -0.1330    92.8377
 29      0.0000     0.0000E+00    0.0000E+00    1.434000E+09  0.00800  1.719E-04    0   0.5853   age139_m52            0.0000     2.0688E+00     4.9831  -0.7013    90.3931
 30      0.0000     0.0000E+00    0.0000E+00    2.500000E+09  0.00800  7.872E-05    0   0.5600   age150_m52            0.0000     2.7539E+00     5.9800  -0.8931    84.7766
 31      0.0000     0.0000E+00    0.0000E+00    4.250000E+09  0.00800  4.336E-05    0   0.5426   age158_m52            0.0000     2.7672E+00     6.0015  -0.9029    83.7680
 32      0.0000     0.0000E+00    0.0000E+00    6.250000E+09  0.00800  3.159E-05    0   0.5319   age166_m52            0.0000     3.7750E+00     7.1444  -1.0000    79.7679
 33      0.0000     0.0000E+00    0.0000E+00    1.300000E+10  0.00800  1.361E-05    0   0.5073   age193_m52            0.0000     1.2001E+01    12.3019  -1.0000    63.4446
 34      0.0000     0.0000E+00    0.0000E+00    1.800000E+10  0.00800  9.886E-06    0   0.4990   age213_m52            0.0000     1.4758E+01    13.5917  -1.0000    59.9724
 35      0.0000     0.0000E+00    0.0000E+00    1.000000E+06  0.02000  1.544E-02    0   1.0000   age020_m62            0.0000     3.5182E+00     5.4096   2.4250    76.9528
 36      0.0000     0.0000E+00    0.0000E+00    3.160000E+06  0.02000  3.762E-02    0   0.9858   age045_m62            0.0000     3.5186E+00     5.4005   2.3674    77.4985
 37      0.0000     0.0000E+00    0.0000E+00    5.010000E+06  0.02000  3.296E-02    0   0.9342   age055_m62            0.0000     2.5732E+00     4.6878   1.9851    81.0192
 38     19.8584     1.2686E+00    1.8917E+00    8.710000E+06  0.02000  1.154E-02    0   0.8861   age067_m62            0.0000     2.9224E+00     4.9394   0.6636   100.7521
 39      0.0000     0.0000E+00    0.0000E+00    1.445000E+07  0.02000  7.663E-03    0   0.8472   age078_m62            0.0000     1.2122E+00     2.9829   0.9807    94.4102
 40      0.0000     0.0000E+00    0.0000E+00    2.512000E+07  0.02000  4.532E-03    0   0.8099   age090_m62            0.0000     1.4719E+00     3.1540   0.9604    94.7760
 41      0.0003     8.3456E-05    1.0667E-04    5.500000E+07  0.02000  2.733E-03    0   0.7595   age110_m62            0.0000     7.5212E-01     2.4228   1.0569    90.8339
 42      0.0000     0.0000E+00    0.0000E+00    1.609000E+08  0.02000  1.369E-03    0   0.6985   age120_m62            0.0000     9.7458E-01     3.2076   0.9428    91.2766
 43      1.6439     1.3446E+00    1.5192E+00    2.861200E+08  0.02000  9.013E-04    0   0.6714   age125_m62            0.0000     1.1376E+00     3.6418   0.7144    92.8950
 44      0.0000     5.3123E-05    5.7652E-05    5.088000E+08  0.02000  5.028E-04    0   0.6449   age130_m62            0.0000     1.6342E+00     4.7052   0.4068    92.2317
 45      0.0000     0.0000E+00    0.0000E+00    9.047900E+08  0.02000  2.428E-04    0   0.6179   age135_m62            0.0000     1.8110E+00     5.1667  -0.1365    89.8176
 46      0.0000     0.0000E+00    0.0000E+00    1.434000E+09  0.02000  1.263E-04    0   0.5908   age139_m62            0.0000     2.3301E+00     5.6709  -0.5568    87.4573
 47      0.0000     0.0000E+00    0.0000E+00    2.500000E+09  0.02000  5.985E-05    0   0.5673   age150_m62            0.0000     3.5117E+00     6.8266  -0.8618    83.7907
 48      0.0000     0.0000E+00    0.0000E+00    4.250000E+09  0.02000  3.271E-05    0   0.5468   age158_m62            0.0000     5.5095E+00     8.6367  -1.0000    76.8433
 49      0.0000     0.0000E+00    0.0000E+00    1.000000E+10  0.02000  1.360E-05    0   0.5167   age181_m62            0.0000     1.1485E+01    12.1426  -1.0000    64.9381
 50      0.0000     0.0000E+00    0.0000E+00    1.800000E+10  0.02000  7.124E-06    0   0.5013   age213_m62            0.0000     1.6876E+01    14.5981  -1.0000    58.2911
 51      0.7993     2.2734E-02    3.8249E-02    1.000000E+06  0.05000  2.592E-02    0   0.9998   age020_m72            0.0000     3.5747E+00     5.4633   2.4131    77.0862
 52      0.0000     0.0000E+00    0.0000E+00    3.160000E+06  0.05000  4.845E-02    0   0.9577   age045_m72            0.0000     3.3048E+00     5.1799   2.2564    78.3288
 53      0.0000     0.0000E+00    0.0000E+00    5.010000E+06  0.05000  3.072E-02    0   0.9147   age055_m72            0.0000     1.9535E+00     3.7117   1.6453    87.4955
 54      0.0000     0.0000E+00    0.0000E+00    6.610000E+06  0.05000  1.455E-02    0   0.8877   age061_m72            0.0000     1.0935E+01     7.8925   0.6552   105.2578
 55      0.0000     0.0000E+00    0.0000E+00    1.000000E+07  0.05000  9.074E-03    0   0.8524   age070_m72            0.0000     4.1113E+00     4.6194   1.8426    87.0008
 56      0.0000     0.0000E+00    0.0000E+00    2.512000E+07  0.05000  4.250E-03    0   0.7902   age090_m72            0.0000     2.5020E+00     3.5919   1.5174    89.5278
 57      0.0000     0.0000E+00    0.0000E+00    4.000000E+07  0.05000  3.087E-03    0   0.7618   age104_m72            0.0000     2.6480E+00     3.5399   1.2675    91.9992
 58      0.0000     0.0000E+00    0.0000E+00    1.015200E+08  0.05000  1.700E-03    0   0.7096   age116_m72            0.0000     1.0859E+00     3.0673   1.0555    92.2529
 59      0.2073     2.0700E-01    2.3105E-01    2.861200E+08  0.05000  7.384E-04    0   0.6633   age125_m72            0.0000     1.3243E+00     4.1173   0.6179    92.5705
 60     19.7505     3.8126E+01    4.0882E+01    5.088000E+08  0.05000  3.819E-04    0   0.6372   age130_m72            0.0000     1.7490E+00     5.0778   0.1919    91.0642
 61      2.2080     9.7121E+00    9.9860E+00    9.047900E+08  0.05000  1.676E-04    0   0.6110   age135_m72            0.0000     3.2553E+00     6.7845  -0.4112    85.5813
 62      0.0000     0.0000E+00    0.0000E+00    1.434000E+09  0.05000  8.837E-05    0   0.5874   age139_m72            0.0000     3.9477E+00     7.2031  -0.8548    84.6900
 63      0.0000     0.0000E+00    0.0000E+00    2.500000E+09  0.05000  4.233E-05    0   0.5598   age150_m72            0.0000     5.9952E+00     9.0008  -1.0000    77.4638
 64      0.8891     4.5676E+01    4.0346E+01    6.250000E+09  0.05000  1.435E-05    0   0.5249   age166_m72            0.0000     1.4160E+01    13.3570  -1.0000    61.7193
 65      0.0000     0.0000E+00    0.0000E+00    1.300000E+10  0.05000  6.513E-06    0   0.5036   age193_m72            0.0000     2.2583E+01    16.6169  -1.0000    54.4648
 66      0.0000     0.0000E+00    0.0000E+00    1.800000E+10  0.05000  4.527E-06    0   0.4945   age213_m72            0.0000     2.8322E+01    18.4337  -1.0000    50.2771


## Synthesis Results - Average & Chains ##

# j      x_j: min, <> & last-chain-values for 1 ...  7 chains
  1      0.0000      0.1831      0.7583      0.0281      0.2899      0.0000      0.4443      0.0000      0.0000
  2      0.0000      0.1696      0.0000      0.8955      0.6446      0.0000      0.0000      0.2394      0.0000
  3      0.0000      0.0974      0.0000      0.0000      0.2747      0.1563      0.0771      0.0000      0.0000
  4      0.0000      0.1343      0.0000      0.0000      0.0000      0.0000      0.3050      0.0000      0.6019
  5      0.0000      0.2105      0.0000      0.0000      0.3039      0.0000      0.0000      0.1871      0.6239
  6      0.0000      0.1442      0.0000      0.0000      0.0478      0.0000      0.5693      0.5134      0.2632
  7      5.1786      1.6397      1.4767      1.3286      2.0845      1.5987      2.0695      1.4807      1.8229
  8      4.5563      2.5387      3.9274      3.1038      1.0442      3.1065      4.0204      0.7099      2.3517
  9      1.5061      1.4078      0.2919      2.5277      0.9072      1.2655      1.3447      1.0607      1.6859
 10      0.4386      1.0159      0.0808      0.8243      0.8793      1.4760      1.3174      2.1114      0.5929
 11      0.0000      0.2186      0.0298      0.0000      0.0000      0.0000      0.0000      0.0000      0.0000
 12      0.0000      0.2380      0.0000      0.1110      0.0000      0.0000      0.1117      0.0000      0.0000
 13      0.0000      0.0772      0.2211      0.0000      0.0000      0.0000      0.0000      0.0000      0.0000
 14      0.0000      0.0326      0.0000      0.0603      0.0000      0.0000      0.0000      0.1024      0.0000
 15      0.0000      0.0177      0.0000      0.0000      0.0000      0.0000      0.0000      0.0000      0.0000
 16      0.0000      0.0045      0.0000      0.0062      0.0000      0.0000      0.0560      0.0000      0.0000
 17      0.0000      0.0031      0.0000      0.0000      0.0000      0.0000      0.0000      0.0000      0.0000
 18      0.0000      0.1503      0.7549      0.6925      0.0000      0.0000      0.0000      0.0000      0.0000
 19      0.0000      0.1550      0.0415      0.4497      0.0000      0.0000      0.0000      0.6184      0.0000
 20      0.0000      0.0991      0.0000      0.0000      0.0705      0.0000      0.2727      0.6179      0.0000
 21     32.2825     34.6517     36.6646     35.6329     38.6276     35.9017     33.8532     34.4815     35.9769
 22      0.0000      0.4055      0.4727      0.0000      0.1153      0.0648      0.4553      0.9329      0.1265
 23      2.5793      1.6383      0.8191      1.2986      1.6634      1.6064      1.6116      2.0957      2.1458
 24      1.2091      0.2701      0.0000      0.7600      0.1262      1.2560      0.0000      0.0000      0.0000
 25      0.0000      0.4770      0.8562      0.4964      0.4872      0.0000      0.2868      0.0000      0.2817
 26      0.0000      0.3522      0.0000      0.5322      0.0000      0.1189      0.0000      0.0000      0.1181
 27      0.0000      0.5582      0.0000      0.0000      0.4762      0.0000      0.0000      0.1451      0.0025
 28      0.0000      0.1257      0.0000      0.0418      0.0632      0.0406      0.0000      0.0000      0.0000
 29      0.0000      0.0136      0.0000      0.0000      0.0000      0.0000      0.0000      0.0000      0.0552
 30      0.0000      0.0059      0.0000      0.0000      0.0000      0.0000      0.0000      0.0000      0.0000
 31      0.0000      0.4385      0.4848      0.4475      0.3540      0.4959      0.4210      0.4838      0.4539
 32      0.0000      0.0074      0.0000      0.0000      0.0000      0.0000      0.0000      0.0000      0.0000
 33      0.0000      0.0195      0.1144      0.0000      0.0000      0.0000      0.1819      0.0000      0.0000
 34      0.0000      0.0021      0.0000      0.0000      0.0000      0.0000      0.0000      0.0000      0.0000
 35      0.0000      0.2052      0.0000      0.0000      0.4007      0.2862      1.1293      0.0000      0.1419
 36      0.0000      0.0907      0.0000      0.0000      0.0000      0.2132      0.0000      0.1888      0.0000
 37      0.0000      0.0808      0.0367      0.0000      0.0000      0.0620      0.0000      0.0000      0.0000
 38     19.8584     18.9940     19.8047     19.1248     19.6251     19.5161     19.1669     20.1966     18.8251
 39      0.0000      0.1568      0.1433      0.0875      0.0000      0.0000      0.0000      0.0000      0.0000
 40      0.0000      0.1761      0.0000      0.0959      0.0000      0.0000      0.0000      0.2187      0.0000
 41      0.0003      0.3316      0.0000      0.1400      0.0455      0.8740      0.0000      0.0000      1.6331
 42      0.0000      0.7456      1.8529      0.6621      0.4784      0.0000      0.1402      0.7740      0.2986
 43      1.6439      1.8227      1.6014      0.4059      0.6294      2.2788      2.1302      2.2912      2.0053
 44      0.0000      0.7423      0.0000      0.0000      0.0000      0.6141      0.0557      0.0140      0.0000
 45      0.0000      0.0675      0.0000      0.0000      0.0000      0.0000      0.0000      0.0000      0.0000
 46      0.0000      0.0339      0.0000      0.0000      0.0000      0.0000      0.0333      0.0000      0.0000
