###################################################################
## OUTPUT of StarlightChains_v04.for    [Cid@UFSC - 01/Apr/2007] ##
###################################################################

## Some input info
2004eu.txt                               [arq_obs]
Base.CB07.vall.4m                        [arq_base]
Masks.EmLines.NEW.gm                     [arq_masks]
StCv04.C11.config                        [arq_config]
   66                                    [N_base]
    0                                    [N_YAV_components = # of components with extra extinction!]
    0                                    [i_FitPowerLaw (1/0 = Yes/No)]
-9.99                                    [alpha_PowerLaw]
CCM                                      [red_law_option]
 1.458241                                [q_norm = A(l_norm)/A(V)]

## (Re)Sampling Parameters
 3741.00                                 [l_ini (A)]
 7218.00                                 [l_fin (A)]
    1.00                                 [dl    (A)]     (OBS: dl_cushion =    50.00 A)

## Normalization info
 4020.00                                 [l_norm (A) - for base]
 4010.00                                 [llow_norm (A) - window for f_obs]
 4060.00                                 [lupp_norm (A) - window for f_obs]
9.206236E-17                             [fobs_norm (in input units)]

## S/N
 3691.00                                 [llow_SN (A) - window for S/N]
 7268.00                                 [lupp_SN (A) - window for S/N]
   4.685                                 [S/N in S/N window]
   6.413                                 [S/N in norm. window]
  10.418                                 [S/N_err in S/N window]
  14.258                                 [S/N_err in norm. window]
  1.0000                                 [fscale_chi2]

## etc...
    -2007290                             [idum_orig]
  2383                                   [NOl_eff]
  2364                                   [Nl_eff]
    19    NSIGMA                         [Ntot_cliped & clip_method]
   979860                                [Nglobal_steps]
   7                                     [N_chains]
  15                                     [NEX0s_base = N_base in EX0s-fits]
 0   0   1        2   2.0   3.154E+01    [Clip-Bug, RC-Crash & Burn-In warning-flags, n_censored_weights, wei_nsig_threshold & wei_limit]
    14     13.880     13.388      0.493  [idt_all, wdt_TotTime, wdt_UsrTime & wdt_SysTime (sec)]

## Synthesis Results - Best model ##

 6.81897E-01                             [chi2/Nl_eff]
     6.23404                             [adev (%)]

   104.70842                             [sum-of-x (%)]
 2.03335E-16                             [Flux_tot (units of input spectrum!)]
 2.27282E-13                             [Mini_tot (???)]
 1.45709E-13                             [Mcor_tot (???)]

  13.70                                  [v0_min  (km/s)]
 193.45                                  [vd_min  (km/s)]
 0.5557                                  [AV_min  (mag)]
 0.0000                                  [YAV_min (mag)]

# j     x_j(%)      Mini_j(%)     Mcor_j(%)     age_j(yr)     Z_j      (L/M)_j    YAV?  Mstars   component_j        a/Fe...       SSP_chi2r SSP_adev(%)   SSP_AV   SSP_x(%)
  1      0.0000     0.0000E+00    0.0000E+00    1.000000E+06  0.00400  1.094E-02    0   1.0000   age020_m42            0.0000     8.5739E-01     6.5646   2.2240    89.0198
  2      3.9397     8.4006E-02    1.3102E-01    3.160000E+06  0.00400  4.007E-02    0   0.9999   age045_m42            0.0000     7.5839E-01     6.4518   1.4485    97.6384
  3      0.0000     0.0000E+00    0.0000E+00    5.010000E+06  0.00400  2.539E-02    0   0.9488   age055_m42            0.0000     7.6586E-01     6.3423   1.7869    94.3247
  4      0.0000     0.0000E+00    0.0000E+00    6.610000E+06  0.00400  2.620E-02    0   0.9220   age061_m42            0.0000     7.5369E-01     6.4466   1.3689    98.1742
  5      1.6739     1.0819E-01    1.4955E-01    1.000000E+07  0.00400  1.322E-02    0   0.8862   age070_m42            0.0000     7.2282E-01     6.3375   1.0806   100.6282
  6      0.0313     3.3966E-03    4.5410E-03    1.445000E+07  0.00400  7.883E-03    0   0.8571   age078_m42            0.0000     7.3729E-01     6.3092   1.4214    97.3914
  7      1.6714     2.7196E-01    3.4675E-01    2.512000E+07  0.00400  5.251E-03    0   0.8174   age090_m42            0.0000     7.3523E-01     6.4133   0.9446   101.5081
  8      0.0000     0.0000E+00    0.0000E+00    4.000000E+07  0.00400  3.649E-03    0   0.7851   age104_m42            0.0000     7.2878E-01     6.4320   0.7102   102.7212
  9      0.0000     0.0000E+00    0.0000E+00    5.500000E+07  0.00400  3.098E-03    0   0.7629   age110_m42            0.0000     7.4796E-01     6.5356   0.8578   103.0494
 10      0.0000     0.0000E+00    0.0000E+00    1.015200E+08  0.00400  2.228E-03    0   0.7207   age116_m42            0.0000     8.0017E-01     6.7157   0.8737   103.4811
 11      0.0000     0.0000E+00    0.0000E+00    2.861200E+08  0.00400  1.093E-03    0   0.6648   age125_m42            0.0000     8.9025E-01     7.0481   0.2943   107.3218
 12      0.0000     0.0000E+00    0.0000E+00    5.088000E+08  0.00400  6.597E-04    0   0.6365   age130_m42            0.0000     9.6474E-01     7.2297   0.2796   108.4401
 13      0.0000     0.0000E+00    0.0000E+00    1.434000E+09  0.00400  2.132E-04    0   0.5798   age139_m42            0.0000     9.4920E-01     7.2873  -0.6970   110.8087
 14      0.0000     0.0000E+00    0.0000E+00    4.250000E+09  0.00400  5.895E-05    0   0.5377   age158_m42            0.0000     1.0318E+00     7.1317  -1.0000   100.2540
 15      0.0000     0.0000E+00    0.0000E+00    7.500000E+09  0.00400  3.510E-05    0   0.5212   age171_m42            0.0000     1.4252E+00     7.8249  -1.0000    91.7586
 16      0.0000     0.0000E+00    0.0000E+00    1.300000E+10  0.00400  2.005E-05    0   0.5034   age193_m42            0.0000     1.9647E+00     9.0470  -1.0000    84.7631
 17      0.0000     0.0000E+00    0.0000E+00    1.800000E+10  0.00400  1.525E-05    0   0.4967   age213_m42            0.0000     2.0237E+00     9.2086  -1.0000    83.4855
 18      5.5028     3.7978E-01    5.9239E-01    1.000000E+06  0.00800  1.238E-02    0   1.0000   age020_m52            0.0000     8.5574E-01     6.5656   2.2203    89.1920
 19      5.1886     1.4421E-01    2.2419E-01    3.160000E+06  0.00800  3.074E-02    0   0.9966   age045_m52            0.0000     8.3711E-01     6.5161   2.1382    90.2195
 20      3.5359     1.1323E-01    1.6679E-01    5.010000E+06  0.00800  2.668E-02    0   0.9443   age055_m52            0.0000     7.6871E-01     6.3423   1.8750    93.1938
 21     30.0189     1.2008E+00    1.7188E+00    6.610000E+06  0.00800  2.136E-02    0   0.9177   age061_m52            0.0000     7.0688E-01     6.1931   0.5928   101.1072
 22      0.0000     0.0000E+00    0.0000E+00    1.000000E+07  0.00800  1.215E-02    0   0.8827   age070_m52            0.0000     7.5278E-01     6.4032   1.2652   100.1569
 23      0.0000     0.0000E+00    0.0000E+00    1.445000E+07  0.00800  8.717E-03    0   0.8552   age078_m52            0.0000     7.2359E-01     6.2912   1.3813    99.0065
 24      0.0000     0.0000E+00    0.0000E+00    2.512000E+07  0.00800  5.592E-03    0   0.8162   age090_m52            0.0000     7.3713E-01     6.4459   1.0035   102.9776
 25      0.0000     0.0000E+00    0.0000E+00    4.000000E+07  0.00800  3.896E-03    0   0.7841   age104_m52            0.0000     7.4178E-01     6.5268   0.9090   104.1989
 26      0.0000     0.0000E+00    0.0000E+00    1.015200E+08  0.00800  2.148E-03    0   0.7226   age116_m52            0.0000     7.6884E-01     6.6271   0.8418   104.3171
 27      0.0000     0.0000E+00    0.0000E+00    2.861200E+08  0.00800  9.925E-04    0   0.6683   age125_m52            0.0000     9.5544E-01     7.2002   0.3413   109.6064
 28      0.0000     0.0000E+00    0.0000E+00    9.047900E+08  0.00800  3.141E-04    0   0.6138   age135_m52            0.0000     1.1137E+00     7.8613  -0.4645   114.6685
 29      0.0000     0.0000E+00    0.0000E+00    1.434000E+09  0.00800  1.719E-04    0   0.5853   age139_m52            0.0000     1.0366E+00     7.5025  -1.0000   110.0923
 30      0.0000     0.0000E+00    0.0000E+00    2.500000E+09  0.00800  7.872E-05    0   0.5600   age150_m52            0.0000     1.4835E+00     7.9979  -1.0000    95.2730
 31      0.0000     0.0000E+00    0.0000E+00    4.250000E+09  0.00800  4.336E-05    0   0.5426   age158_m52            0.0000     1.5271E+00     8.0709  -1.0000    93.7242
 32      0.0000     0.0000E+00    0.0000E+00    6.250000E+09  0.00800  3.159E-05    0   0.5319   age166_m52            0.0000     2.2743E+00     9.6081  -1.0000    85.5850
 33      0.0000     0.0000E+00    0.0000E+00    1.300000E+10  0.00800  1.361E-05    0   0.5073   age193_m52            0.0000     4.6111E+00    14.6195  -1.0000    68.2176
 34      0.0000     0.0000E+00    0.0000E+00    1.800000E+10  0.00800  9.886E-06    0   0.4990   age213_m52            0.0000     5.3360E+00    15.8392  -1.0000    64.4785
 35      4.0056     2.2166E-01    3.4575E-01    1.000000E+06  0.02000  1.544E-02    0   1.0000   age020_m62            0.0000     8.5896E-01     6.5771   2.2172    89.3564
 36      4.9533     1.1250E-01    1.7298E-01    3.160000E+06  0.02000  3.762E-02    0   0.9858   age045_m62            0.0000     8.5213E-01     6.5487   2.1545    90.2209
 37      0.0000     0.0000E+00    0.0000E+00    5.010000E+06  0.02000  3.296E-02    0   0.9342   age055_m62            0.0000     7.5948E-01     6.3971   1.7376    95.9444
 38      0.4288     3.1745E-02    4.3877E-02    8.710000E+06  0.02000  1.154E-02    0   0.8861   age067_m62            0.0000     1.3099E+00     8.1255   0.7226   102.6460
 39      0.0000     0.0000E+00    0.0000E+00    1.445000E+07  0.02000  7.663E-03    0   0.8472   age078_m62            0.0000     8.6492E-01     6.7960   0.9104   102.5876
 40      0.0000     0.0000E+00    0.0000E+00    2.512000E+07  0.02000  4.532E-03    0   0.8099   age090_m62            0.0000     9.0092E-01     6.9478   0.8966   102.6562
 41      0.0000     0.0000E+00    0.0000E+00    5.500000E+07  0.02000  2.733E-03    0   0.7595   age110_m62            0.0000     7.3920E-01     6.4619   0.8957   103.2105
 42      0.0000     0.0000E+00    0.0000E+00    1.609000E+08  0.02000  1.369E-03    0   0.6985   age120_m62            0.0000     8.6637E-01     6.9145   0.7125   107.2718
 43      0.0000     0.0000E+00    0.0000E+00    2.861200E+08  0.02000  9.013E-04    0   0.6714   age125_m62            0.0000     1.0279E+00     7.3628   0.4469   111.1831
 44      0.0000     0.0000E+00    0.0000E+00    5.088000E+08  0.02000  5.028E-04    0   0.6449   age130_m62            0.0000     1.1929E+00     7.9433   0.0646   114.4644
 45      0.0000     0.0000E+00    0.0000E+00    9.047900E+08  0.02000  2.428E-04    0   0.6179   age135_m62            0.0000     1.1292E+00     7.9188  -0.5101   113.2057
 46      0.0000     0.0000E+00    0.0000E+00    1.434000E+09  0.02000  1.263E-04    0   0.5908   age139_m62            0.0000     1.1508E+00     7.9214  -0.9400   110.7594
 47      0.0000     0.0000E+00    0.0000E+00    2.500000E+09  0.02000  5.985E-05    0   0.5673   age150_m62            0.0000     1.6893E+00     8.4229  -1.0000    95.6475
 48      0.0000     0.0000E+00    0.0000E+00    4.250000E+09  0.02000  3.271E-05    0   0.5468   age158_m62            0.0000     2.8929E+00    10.7771  -1.0000    82.5843
 49      0.0000     0.0000E+00    0.0000E+00    1.000000E+10  0.02000  1.360E-05    0   0.5167   age181_m62            0.0000     4.8287E+00    14.3910  -1.0000    69.8495
 50      0.0000     0.0000E+00    0.0000E+00    1.800000E+10  0.02000  7.124E-06    0   0.5013   age213_m62            0.0000     6.1745E+00    16.7308  -1.0000    62.6666
 51      4.7584     1.5685E-01    2.4461E-01    1.000000E+06  0.05000  2.592E-02    0   0.9998   age020_m72            0.0000     8.7746E-01     6.6245   2.2135    89.1587
 52      0.0000     0.0000E+00    0.0000E+00    3.160000E+06  0.05000  4.845E-02    0   0.9577   age045_m72            0.0000     8.0851E-01     6.4676   2.0221    92.1441
 53      0.0000     0.0000E+00    0.0000E+00    5.010000E+06  0.05000  3.072E-02    0   0.9147   age055_m72            0.0000     8.4445E-01     6.6287   1.5224    97.5280
 54      0.0000     0.0000E+00    0.0000E+00    6.610000E+06  0.05000  1.455E-02    0   0.8877   age061_m72            0.0000     2.1615E+00    10.2463   0.7839   103.4374
 55      0.0000     0.0000E+00    0.0000E+00    1.000000E+07  0.05000  9.074E-03    0   0.8524   age070_m72            0.0000     9.9979E-01     7.1973   1.7170    97.0937
 56      0.0000     0.0000E+00    0.0000E+00    2.512000E+07  0.05000  4.250E-03    0   0.7902   age090_m72            0.0000     8.8321E-01     6.9604   1.3821   100.4071
 57      0.0000     0.0000E+00    0.0000E+00    4.000000E+07  0.05000  3.087E-03    0   0.7618   age104_m72            0.0000     9.2502E-01     7.1443   1.1396   102.8138
 58      0.0000     0.0000E+00    0.0000E+00    1.015200E+08  0.05000  1.700E-03    0   0.7096   age116_m72            0.0000     8.5507E-01     6.8948   0.8559   106.8095
 59      0.0000     0.0000E+00    0.0000E+00    2.861200E+08  0.05000  7.384E-04    0   0.6633   age125_m72            0.0000     1.1201E+00     7.6785   0.3084   113.1005
 60     35.5326     7.9496E+01    7.9013E+01    5.088000E+08  0.05000  3.819E-04    0   0.6372   age130_m72            0.0000     1.1450E+00     7.9671  -0.1836   114.8813
 61      3.4673     1.7676E+01    1.6846E+01    9.047900E+08  0.05000  1.676E-04    0   0.6110   age135_m72            0.0000     1.3299E+00     8.4811  -0.8517   111.4118
 62      0.0000     0.0000E+00    0.0000E+00    1.434000E+09  0.05000  8.837E-05    0   0.5874   age139_m72            0.0000     1.7893E+00     8.6289  -1.0000    97.0389
 63      0.0000     0.0000E+00    0.0000E+00    2.500000E+09  0.05000  4.233E-05    0   0.5598   age150_m72            0.0000     3.0093E+00    10.9278  -1.0000    83.2881
 64      0.0000     0.0000E+00    0.0000E+00    6.250000E+09  0.05000  1.435E-05    0   0.5249   age166_m72            0.0000     5.4026E+00    15.4756  -1.0000    66.3866
 65      0.0000     0.0000E+00    0.0000E+00    1.300000E+10  0.05000  6.513E-06    0   0.5036   age193_m72            0.0000     7.2406E+00    18.6662  -1.0000    58.5196
 66      0.0000     0.0000E+00    0.0000E+00    1.800000E+10  0.05000  4.527E-06    0   0.4945   age213_m72            0.0000     8.3331E+00    20.4646  -1.0000    53.9723


## Synthesis Results - Average & Chains ##

# j      x_j: min, <> & last-chain-values for 1 ...  7 chains
  1      0.0000      0.9182      1.7730      2.9705      0.0000      0.0000      2.6867      1.5064      0.0000
  2      3.9397      1.4136      3.6011      0.0000      4.0744      0.6582      1.5391      4.4088      6.0534
  3      0.0000      0.4676      0.7739      1.4900      0.0000      0.1243      0.7232      1.2924      0.0000
  4      0.0000      0.6826      0.0000      0.4448      0.0000      0.0000      2.0502      0.0000      0.0000
  5      1.6739      1.0873      2.1778      0.0000      0.0000      1.0144      0.0000      1.2898      2.1616
  6      0.0313      0.6553      2.7253      0.0000      1.4021      0.0000      2.0987      0.0000      2.1705
  7      1.6714      1.0744      0.7068      1.4744      0.2327      0.0111      3.1655      0.1684      1.2164
  8      0.0000      2.6719      0.0000      0.0000      0.0000      0.0000      0.0000      0.0000      0.0000
  9      0.0000      0.7726      0.0000      0.2744      2.3729      0.0000      0.0000      0.2842      0.2943
 10      0.0000      0.7157      0.0000      0.0000      0.9818      0.0000      0.0000      1.5996      0.0000
 11      0.0000      0.4810      0.0000      0.0509      0.0000      0.8706      0.0000      0.3688      0.0000
 12      0.0000      0.6286      0.0000      0.0000      0.0000      0.8180      0.0000      0.0000      0.0000
 13      0.0000      0.1748      0.0000      0.0000      0.0000      0.0000      0.0000      0.0000      0.0000
 14      0.0000      0.0261      0.0000      0.0522      0.0000      0.0000      0.0000      0.0000      0.4627
 15      0.0000      0.0369      0.4856      0.0000      0.0000      0.0000      0.0000      0.0000      0.0000
 16      0.0000      0.0097      0.0000      0.0000      0.0000      0.0000      0.0000      0.0000      0.0000
 17      0.0000      0.0233      0.0000      0.0000      0.0000      0.0000      0.0000      0.0000      0.0000
 18      5.5028      3.6835      4.1596      3.6303      4.3646      4.7470      3.8423      5.9218      3.8476
 19      5.1886      0.7748      1.5338      2.2526      0.0000      4.8038      0.0000      0.0000      1.3522
 20      3.5359      0.8329      0.5237      3.9453      2.4757      0.5496      1.5034      0.0000      3.7113
 21     30.0189     43.2828     43.4936     41.5131     40.1516     39.3235     44.0252     38.6811     43.9106
 22      0.0000      0.6889      0.0000      0.0000      0.0000      0.0000      1.2166      0.3145      0.0000
 23      0.0000      0.4729      0.9514      1.0479      0.7888      5.2726      0.0000      0.0000      0.0000
 24      0.0000      2.2294      3.7500      3.7530      3.7905      0.5534      0.0000      2.0700      0.3247
 25      0.0000      0.6649      0.0000      0.0000      0.0000      0.0000      0.0000      0.0000      0.0000
 26      0.0000      0.8326      0.0000      0.0000      0.0000      0.0000      2.1620      0.0000      0.0000
 27      0.0000      0.9085      0.0000      0.5054      0.0000      0.7642      0.0000      0.5909      0.6636
 28      0.0000      0.1490      0.0000      0.0000      0.0000      0.0000      0.0000      0.0000      0.0000
 29      0.0000      0.0776      0.8273      0.0000      0.0000      0.0000      0.0000      0.0000      0.0000
 30      0.0000      0.0324      0.0000      0.0000      0.0000      0.0000      0.0000      0.0000      0.0000
 31      0.0000      0.0081      0.0000      0.0000      0.0000      0.0000      0.0000      0.0000      0.0000
 32      0.0000      0.0220      0.0000      0.0000      0.0000      0.0000      0.0000      0.0000      0.0000
 33      0.0000      0.0143      0.0000      0.0000      0.0000      0.0000      0.0000      0.2379      0.0000
 34      0.0000      0.0119      0.0000      0.0000      0.1258      0.0000      0.0000      0.0000      0.1874
 35      4.0056      0.8319      4.6061      1.7702      1.8380      1.4707      0.0000      2.6211      1.4508
 36      4.9533      0.8632      0.0693      1.1463      1.9677      3.4526      0.0000      2.5218      2.4512
 37      0.0000      0.6444      0.0000      0.4709      0.0000      0.0000      2.3230      0.0000      0.0000
 38      0.4288      1.6142      0.0000      2.8850      3.6311      0.3791      1.0692      0.4774      1.2565
 39      0.0000      0.9358      0.0000      0.1663      0.0000      4.7173      0.3472      1.4319      0.0000
 40      0.0000      0.7513      0.0000      0.0000      0.0000      0.0000      2.3263      0.0000      0.0000
 41      0.0000      1.2232      0.7688      0.0000      0.0000      0.0000      0.0000      0.0000      0.0000
 42      0.0000      0.8306      1.2050      0.0000      0.0000      0.2649      0.0000      0.1373      0.0000
 43      0.0000      0.8285      0.9827      0.0000      0.0000      0.0000      0.0000      0.0000      0.0000
 44      0.0000      0.9880      0.0000      0.0000      0.0000      0.4725      0.5338      0.0000      0.0000
 45      0.0000      1.7243      2.2813      2.5529      3.0549      2.9581      1.9279      3.0320      0.0000
 46      0.0000      0.0435      0.0000      0.0000      0.0000      0.0000      0.0000      0.0000      0.0000
