###################################################################
## OUTPUT of StarlightChains_v04.for    [Cid@UFSC - 01/Apr/2007] ##
###################################################################

## Some input info
2004ci.txt                               [arq_obs]
Base.CB07.vall.4m                        [arq_base]
Masks.EmLines.NEW.gm                     [arq_masks]
StCv04.C11.config                        [arq_config]
   66                                    [N_base]
    0                                    [N_YAV_components = # of components with extra extinction!]
    0                                    [i_FitPowerLaw (1/0 = Yes/No)]
-9.99                                    [alpha_PowerLaw]
CCM                                      [red_law_option]
 1.458241                                [q_norm = A(l_norm)/A(V)]

## (Re)Sampling Parameters
 3741.00                                 [l_ini (A)]
 7218.00                                 [l_fin (A)]
    1.00                                 [dl    (A)]     (OBS: dl_cushion =    50.00 A)

## Normalization info
 4020.00                                 [l_norm (A) - for base]
 4010.00                                 [llow_norm (A) - window for f_obs]
 4060.00                                 [lupp_norm (A) - window for f_obs]
1.829985E-16                             [fobs_norm (in input units)]

## S/N
 3691.00                                 [llow_SN (A) - window for S/N]
 7268.00                                 [lupp_SN (A) - window for S/N]
  11.020                                 [S/N in S/N window]
  12.229                                 [S/N in norm. window]
  20.807                                 [S/N_err in S/N window]
  23.090                                 [S/N_err in norm. window]
  1.0000                                 [fscale_chi2]

## etc...
    -2007287                             [idum_orig]
  2384                                   [NOl_eff]
  2384                                   [Nl_eff]
     0    NSIGMA                         [Ntot_cliped & clip_method]
  1888320                                [Nglobal_steps]
   7                                     [N_chains]
  33                                     [NEX0s_base = N_base in EX0s-fits]
 0   0   1        4   2.0   3.570E+01    [Clip-Bug, RC-Crash & Burn-In warning-flags, n_censored_weights, wei_nsig_threshold & wei_limit]
    18     17.452     16.956      0.496  [idt_all, wdt_TotTime, wdt_UsrTime & wdt_SysTime (sec)]

## Synthesis Results - Best model ##

 3.35647E-01                             [chi2/Nl_eff]
     2.17378                             [adev (%)]

   105.60596                             [sum-of-x (%)]
 4.50507E-16                             [Flux_tot (units of input spectrum!)]
 2.30719E-12                             [Mini_tot (???)]
 1.28286E-12                             [Mcor_tot (???)]

  33.55                                  [v0_min  (km/s)]
 162.19                                  [vd_min  (km/s)]
 0.6302                                  [AV_min  (mag)]
 0.0000                                  [YAV_min (mag)]

# j     x_j(%)      Mini_j(%)     Mcor_j(%)     age_j(yr)     Z_j      (L/M)_j    YAV?  Mstars   component_j        a/Fe...       SSP_chi2r SSP_adev(%)   SSP_AV   SSP_x(%)
  1      0.0000     0.0000E+00    0.0000E+00    1.000000E+06  0.00400  1.094E-02    0   1.0000   age020_m42            0.0000     1.7146E+00     4.9243   2.7909    91.7540
  2      0.0000     0.0000E+00    0.0000E+00    3.160000E+06  0.00400  4.007E-02    0   0.9999   age045_m42            0.0000     1.0978E+00     3.7251   2.0952    96.7255
  3      0.0111     8.1111E-05    1.3841E-04    5.010000E+06  0.00400  2.539E-02    0   0.9488   age055_m42            0.0000     1.2955E+00     4.0430   2.4013    94.9634
  4      0.0000     0.0000E+00    0.0000E+00    6.610000E+06  0.00400  2.620E-02    0   0.9220   age061_m42            0.0000     9.9978E-01     3.5582   2.0221    96.9498
  5      0.9352     1.3079E-02    2.0846E-02    1.000000E+07  0.00400  1.322E-02    0   0.8862   age070_m42            0.0000     7.3844E-01     2.9756   1.7243    99.8227
  6      0.0000     0.0000E+00    0.0000E+00    1.445000E+07  0.00400  7.883E-03    0   0.8571   age078_m42            0.0000     8.9813E-01     3.2752   2.0459    97.5349
  7      0.0002     6.9540E-06    1.0223E-05    2.512000E+07  0.00400  5.251E-03    0   0.8174   age090_m42            0.0000     7.3008E-01     2.9661   1.5941   100.3983
  8      0.0000     0.0000E+00    0.0000E+00    4.000000E+07  0.00400  3.649E-03    0   0.7851   age104_m42            0.0000     6.3918E-01     2.8284   1.3717   100.9959
  9      0.0439     2.6173E-03    3.5911E-03    5.500000E+07  0.00400  3.098E-03    0   0.7629   age110_m42            0.0000     6.7882E-01     2.9723   1.5380   100.3876
 10      0.0000     0.0000E+00    0.0000E+00    1.015200E+08  0.00400  2.228E-03    0   0.7207   age116_m42            0.0000     7.5163E-01     3.2172   1.5671   100.1551
 11      0.0000     0.0000E+00    0.0000E+00    2.861200E+08  0.00400  1.093E-03    0   0.6648   age125_m42            0.0000     7.0280E-01     3.2636   1.0025   103.0696
 12      0.0000     0.0000E+00    0.0000E+00    5.088000E+08  0.00400  6.597E-04    0   0.6365   age130_m42            0.0000     7.6397E-01     3.5282   1.0047   103.3010
 13      1.7752     1.5395E+00    1.6053E+00    1.434000E+09  0.00400  2.132E-04    0   0.5798   age139_m42            0.0000     6.4765E-01     3.2535   0.0410   104.9101
 14      0.0072     2.2726E-02    2.1977E-02    4.250000E+09  0.00400  5.895E-05    0   0.5377   age158_m42            0.0000     1.0325E+00     3.8390  -0.3999   100.8791
 15      2.0298     1.0692E+01    1.0023E+01    7.500000E+09  0.00400  3.510E-05    0   0.5212   age171_m42            0.0000     1.3748E+00     4.3360  -0.5814    99.9398
 16      0.0000     0.0000E+00    0.0000E+00    1.300000E+10  0.00400  2.005E-05    0   0.5034   age193_m42            0.0000     1.7553E+00     4.8266  -0.7410    99.1855
 17      0.0000     0.0000E+00    0.0000E+00    1.800000E+10  0.00400  1.525E-05    0   0.4967   age213_m42            0.0000     1.7006E+00     4.7377  -0.7659    98.8236
 18      1.6712     2.4960E-02    4.4890E-02    1.000000E+06  0.00800  1.238E-02    0   1.0000   age020_m52            0.0000     1.7216E+00     4.9401   2.7872    91.9324
 19      0.8275     4.9774E-03    8.9213E-03    3.160000E+06  0.00800  3.074E-02    0   0.9966   age045_m52            0.0000     1.6900E+00     4.8649   2.7118    92.6796
 20      0.0000     0.0000E+00    0.0000E+00    5.010000E+06  0.00800  2.668E-02    0   0.9443   age055_m52            0.0000     1.3412E+00     4.1627   2.4789    94.3291
 21     25.0940     2.1722E-01    3.5851E-01    6.610000E+06  0.00800  2.136E-02    0   0.9177   age061_m52            0.0000     5.4690E-01     2.7124   1.2187   101.2046
 22      1.1375     1.7311E-02    2.7481E-02    1.000000E+07  0.00800  1.215E-02    0   0.8827   age070_m52            0.0000     8.0473E-01     3.1468   1.8965    99.9653
 23      0.0000     0.0000E+00    0.0000E+00    1.445000E+07  0.00800  8.717E-03    0   0.8552   age078_m52            0.0000     8.1517E-01     3.1229   2.0125    98.8223
 24      0.5415     1.7906E-02    2.6284E-02    2.512000E+07  0.00800  5.592E-03    0   0.8162   age090_m52            0.0000     6.8836E-01     2.9311   1.6594   101.5272
 25      0.0002     1.1445E-05    1.6140E-05    4.000000E+07  0.00800  3.896E-03    0   0.7841   age104_m52            0.0000     6.3161E-01     2.8753   1.5817   101.8494
 26      0.0000     0.0000E+00    0.0000E+00    1.015200E+08  0.00800  2.148E-03    0   0.7226   age116_m52            0.0000     6.3359E-01     2.9807   1.5315   101.1322
 27      1.4171     2.6400E-01    3.1731E-01    2.861200E+08  0.00800  9.925E-04    0   0.6683   age125_m52            0.0000     6.9503E-01     3.3887   1.0696   104.2452
 28      6.1396     3.6141E+00    3.9896E+00    9.047900E+08  0.00800  3.141E-04    0   0.6138   age135_m52            0.0000     9.3491E-01     3.8933   0.2950   107.3704
 29      0.0000     0.0000E+00    0.0000E+00    1.434000E+09  0.00800  1.719E-04    0   0.5853   age139_m52            0.0000     9.4509E-01     3.8433  -0.2916   105.5150
 30      0.0000     0.0000E+00    0.0000E+00    2.500000E+09  0.00800  7.872E-05    0   0.5600   age150_m52            0.0000     1.4921E+00     4.6620  -0.5530   102.3243
 31      0.0000     0.0000E+00    0.0000E+00    4.250000E+09  0.00800  4.336E-05    0   0.5426   age158_m52            0.0000     1.6042E+00     4.7166  -0.5681   101.3647
 32      0.8856     5.1834E+00    4.9585E+00    6.250000E+09  0.00800  3.159E-05    0   0.5319   age166_m52            0.0000     2.1946E+00     5.5141  -0.7604   100.9247
 33      0.0000     0.0000E+00    0.0000E+00    1.300000E+10  0.00800  1.361E-05    0   0.5073   age193_m52            0.0000     3.9807E+00     7.2385  -1.0000    91.6747
 34      0.0000     0.0000E+00    0.0000E+00    1.800000E+10  0.00800  9.886E-06    0   0.4990   age213_m52            0.0000     5.5851E+00     8.5384  -1.0000    87.3025
 35      2.6017     3.1156E-02    5.6033E-02    1.000000E+06  0.02000  1.544E-02    0   1.0000   age020_m62            0.0000     1.7495E+00     4.9931   2.7813    92.2232
 36      1.8286     8.9872E-03    1.5934E-02    3.160000E+06  0.02000  3.762E-02    0   0.9858   age045_m62            0.0000     1.7557E+00     4.9842   2.7206    93.0325
 37      0.0000     0.0000E+00    0.0000E+00    5.010000E+06  0.02000  3.296E-02    0   0.9342   age055_m62            0.0000     1.2244E+00     3.9244   2.3665    95.9058
 38     15.4884     2.4816E-01    3.9547E-01    8.710000E+06  0.02000  1.154E-02    0   0.8861   age067_m62            0.0000     1.9039E+00     5.6627   1.3096   104.7808
 39      1.3846     3.3408E-02    5.0902E-02    1.445000E+07  0.02000  7.663E-03    0   0.8472   age078_m62            0.0000     8.8562E-01     3.5620   1.5343   102.7493
 40      0.0000     0.0000E+00    0.0000E+00    2.512000E+07  0.02000  4.532E-03    0   0.8099   age090_m62            0.0000     1.0004E+00     3.7526   1.5292   102.3671
 41      0.0000     0.0000E+00    0.0000E+00    5.500000E+07  0.02000  2.733E-03    0   0.7595   age110_m62            0.0000     6.2980E-01     2.8508   1.5603   101.3110
 42      0.0000     0.0000E+00    0.0000E+00    1.609000E+08  0.02000  1.369E-03    0   0.6985   age120_m62            0.0000     6.7594E-01     3.1315   1.4214   103.0176
 43      0.0000     0.0000E+00    0.0000E+00    2.861200E+08  0.02000  9.013E-04    0   0.6714   age125_m62            0.0000     7.9445E-01     3.5394   1.1825   105.3667
 44      0.0000     0.0000E+00    0.0000E+00    5.088000E+08  0.02000  5.028E-04    0   0.6449   age130_m62            0.0000     1.0468E+00     4.1281   0.8263   107.0920
 45      4.0024     3.0479E+00    3.3871E+00    9.047900E+08  0.02000  2.428E-04    0   0.6179   age135_m62            0.0000     1.1056E+00     4.1266   0.2447   106.2595
 46      0.0000     0.0000E+00    0.0000E+00    1.434000E+09  0.02000  1.263E-04    0   0.5908   age139_m62            0.0000     1.3771E+00     4.4522  -0.2013   104.7773
 47      1.5992     4.9406E+00    5.0407E+00    2.500000E+09  0.02000  5.985E-05    0   0.5673   age150_m62            0.0000     2.1103E+00     5.4811  -0.5592   102.9637
 48      3.7630     2.1271E+01    2.0918E+01    4.250000E+09  0.02000  3.271E-05    0   0.5468   age158_m62            0.0000     3.1532E+00     6.7873  -0.8495   101.4139
 49      1.5898     2.1614E+01    2.0085E+01    1.000000E+10  0.02000  1.360E-05    0   0.5167   age181_m62            0.0000     5.2008E+00     8.4443  -1.0000    93.4594
 50      0.0000     0.0000E+00    0.0000E+00    1.800000E+10  0.02000  7.124E-06    0   0.5013   age213_m62            0.0000     8.1282E+00    10.2551  -1.0000    85.1345
 51      0.5443     3.8827E-03    6.9815E-03    1.000000E+06  0.05000  2.592E-02    0   0.9998   age020_m72            0.0000     1.8327E+00     5.1438   2.7694    92.3818
 52      0.0000     0.0000E+00    0.0000E+00    3.160000E+06  0.05000  4.845E-02    0   0.9577   age045_m72            0.0000     1.6047E+00     4.6046   2.6141    93.8169
 53      0.0004     2.6689E-06    4.3905E-06    5.010000E+06  0.05000  3.072E-02    0   0.9147   age055_m72            0.0000     1.0671E+00     3.8668   2.1286    98.5626
 54      0.0000     0.0000E+00    0.0000E+00    6.610000E+06  0.05000  1.455E-02    0   0.8877   age061_m72            0.0000     3.8184E+00     8.1443   1.3607   106.1625
 55      0.0000     0.0000E+00    0.0000E+00    1.000000E+07  0.05000  9.074E-03    0   0.8524   age070_m72            0.0000     1.4913E+00     4.6520   2.3268    97.9750
 56      0.0000     0.0000E+00    0.0000E+00    2.512000E+07  0.05000  4.250E-03    0   0.7902   age090_m72            0.0000     1.0937E+00     3.8421   2.0281    99.4686
 57      0.0000     0.0000E+00    0.0000E+00    4.000000E+07  0.05000  3.087E-03    0   0.7618   age104_m72            0.0000     1.0916E+00     3.8946   1.8011   101.0549
 58      0.0000     0.0000E+00    0.0000E+00    1.015200E+08  0.05000  1.700E-03    0   0.7096   age116_m72            0.0000     7.3635E-01     3.2485   1.5580   102.8976
 59      1.9187     4.8044E-01    5.7312E-01    2.861200E+08  0.05000  7.384E-04    0   0.6633   age125_m72            0.0000     8.9039E-01     3.7829   1.0614   106.2328
 60     25.1048     1.2155E+01    1.3929E+01    5.088000E+08  0.05000  3.819E-04    0   0.6372   age130_m72            0.0000     1.0619E+00     4.1610   0.5809   107.3186
 61      2.3336     2.5744E+00    2.8289E+00    9.047900E+08  0.05000  1.676E-04    0   0.6110   age135_m72            0.0000     1.9200E+00     5.4464  -0.1051   104.9857
 62      0.0000     0.0000E+00    0.0000E+00    1.434000E+09  0.05000  8.837E-05    0   0.5874   age139_m72            0.0000     2.3786E+00     5.7943  -0.5558   104.2558
 63      0.0000     0.0000E+00    0.0000E+00    2.500000E+09  0.05000  4.233E-05    0   0.5598   age150_m72            0.0000     3.5587E+00     7.2256  -0.8464   102.0866
 64      0.9296     1.1977E+01    1.1307E+01    6.250000E+09  0.05000  1.435E-05    0   0.5249   age166_m72            0.0000     6.3232E+00     9.2118  -1.0000    89.5103
 65      0.0000     0.0000E+00    0.0000E+00    1.300000E+10  0.05000  6.513E-06    0   0.5036   age193_m72            0.0000     1.1129E+01    12.0034  -1.0000    80.3963
 66      0.0000     0.0000E+00    0.0000E+00    1.800000E+10  0.05000  4.527E-06    0   0.4945   age213_m72            0.0000     1.4698E+01    13.8414  -1.0000    74.8265


## Synthesis Results - Average & Chains ##

# j      x_j: min, <> & last-chain-values for 1 ...  7 chains
  1      0.0000      0.9793      1.8003      0.0000      0.9010      1.9460      2.9574      0.3474      1.1308
  2      0.0000      0.3277      0.0000      0.0000      0.0000      0.0000      0.0000      0.0000      0.0000
  3      0.0111      0.5373      0.0000      0.6340      1.4747      0.9175      0.4305      0.5194      0.9324
  4      0.0000      0.2705      0.0000      0.0000      0.0906      0.0000      0.0690      1.3303      0.4750
  5      0.9352      3.2595      3.5229      3.6151      3.2938      3.5271      3.3776      3.7196      4.2220
  6      0.0000      0.3550      1.1016      0.0000      1.0310      0.3257      0.5132      0.0000      0.3898
  7      0.0002      0.4376      0.0615      0.5277      0.0000      0.0000      0.2638      0.0000      0.3320
  8      0.0000      1.1545      0.7387      0.2552      0.4968      1.4116      0.0000      1.0836      0.0000
  9      0.0439      0.8579      0.5328      2.2199      0.2464      0.0000      0.9604      0.2167      1.6325
 10      0.0000      0.4480      0.0000      0.1380      0.0000      0.0000      0.1623      0.0000      1.3115
 11      0.0000      0.6750      0.0000      0.2641      1.5787      0.0000      0.0000      0.0000      0.0000
 12      0.0000      0.6207      0.0000      0.0000      0.0000      1.4430      0.0000      0.0000      0.0000
 13      1.7752      2.6007      2.4536      5.1448      2.9073      2.6829      0.0000      2.0518      1.9522
 14      0.0072      0.2321      0.0000      0.8307      0.1235      0.0000      0.0000      0.0000      0.0000
 15      2.0298      1.1322      1.2423      0.8517      0.7287      0.9478      1.1359      0.9872      1.3573
 16      0.0000      0.0955      0.0000      0.0257      0.0000      0.0000      0.1571      0.7940      0.3736
 17      0.0000      0.0785      0.0000      0.0000      0.0000      0.0000      0.0000      0.5132      0.0000
 18      1.6712      0.3111      1.0745      1.5944      0.0509      0.0000      0.7013      0.0000      0.0000
 19      0.8275      1.2737      1.9955      1.0100      1.4626      2.1030      2.1039      1.8299      1.6740
 20      0.0000      1.2510      1.6669      1.1222      1.2617      1.5991      0.9229      2.6083      0.5331
 21     25.0940     20.8830     20.5560     22.2962     23.2426     23.7403     19.7760     20.9460     20.6307
 22      1.1375      0.5645      0.0000      1.9568      0.0000      0.0000      0.0000      1.5598      0.0674
 23      0.0000      0.4533      0.0000      0.2703      1.7579      0.0000      1.4621      0.0000      0.0000
 24      0.5415      0.3952      1.4836      0.7886      0.3135      1.0735      0.8935      1.9412      0.0000
 25      0.0002      0.4720      0.1399      0.8076      1.5232      0.2269      0.0000      0.0000      0.4777
 26      0.0000      0.5326      1.8547      0.0000      0.1497      0.0000      0.0000      0.3306      0.0000
 27      1.4171      0.7764      0.0000      0.3872      2.0784      0.0000      0.8842      0.0000      0.0000
 28      6.1396      3.9302      4.1882      3.9573      4.5482      4.6931      2.3867      4.7808      3.8128
 29      0.0000      0.0956      0.0749      0.1798      0.0000      0.0000      0.0000      0.0000      0.3966
 30      0.0000      0.1485      0.0000      0.0000      0.0000      0.0000      0.0000      0.1504      0.0910
 31      0.0000      0.1040      0.0000      0.0000      0.0000      0.2790      0.0000      0.0000      0.0000
 32      0.8856      0.7597      0.3199      0.8438      0.7903      0.8710      1.6224      0.9398      1.2514
 33      0.0000      0.0603      0.0000      0.2484      0.0000      0.0000      0.2025      0.0000      0.0539
 34      0.0000      0.0317      0.0000      0.0088      0.0000      0.0000      0.0000      0.0000      0.0000
 35      2.6017      1.8328      2.5149      1.2967      2.8948      1.6549      2.2852      2.0567      1.8626
 36      1.8286      0.3474      0.0000      1.9964      0.5965      1.5565      0.0000      0.0000      1.8904
 37      0.0000      0.3514      0.0000      0.0000      0.0881      0.0000      0.0000      0.7615      0.1384
 38     15.4884      9.1453     10.2947      9.0547      9.8093     11.2289      7.6238      9.9285     11.7741
 39      1.3846      1.2849      1.4182      1.3136      0.0070      0.0385      1.9429      1.6732      2.2388
 40      0.0000      1.7431      0.5730      1.0162      1.2295      1.5765      0.0000      1.7222      2.3106
 41      0.0000      0.9333      0.0000      0.9920      0.0000      0.3304      0.8109      0.0000      0.1011
 42      0.0000      0.4812      0.4052      0.0000      0.0000      0.2013      0.0000      0.2113      0.0588
 43      0.0000      0.7345      1.0724      0.3071      1.2452      1.1717      1.1248      0.1695      0.0000
 44      0.0000      1.7997      1.2228      0.0000      1.0985      2.3007      3.3676      4.2744      4.0510
 45      4.0024      6.5798      7.1221      4.6810      3.9848      5.3773      4.9868      6.5713      5.5224
 46      0.0000      1.2883      1.2984      0.0000      2.6243      1.0219      1.8571      1.4182      1.7991
