###################################################################
## OUTPUT of StarlightChains_v04.for    [Cid@UFSC - 01/Apr/2007] ##
###################################################################

## Some input info
2004di.txt                               [arq_obs]
Base.CB07.vall.4m                        [arq_base]
Masks.EmLines.NEW.gm                     [arq_masks]
StCv04.C11.config                        [arq_config]
   66                                    [N_base]
    0                                    [N_YAV_components = # of components with extra extinction!]
    0                                    [i_FitPowerLaw (1/0 = Yes/No)]
-9.99                                    [alpha_PowerLaw]
CCM                                      [red_law_option]
 1.458241                                [q_norm = A(l_norm)/A(V)]

## (Re)Sampling Parameters
 3741.00                                 [l_ini (A)]
 7218.00                                 [l_fin (A)]
    1.00                                 [dl    (A)]     (OBS: dl_cushion =    50.00 A)

## Normalization info
 4020.00                                 [l_norm (A) - for base]
 4010.00                                 [llow_norm (A) - window for f_obs]
 4060.00                                 [lupp_norm (A) - window for f_obs]
1.376901E-17                             [fobs_norm (in input units)]

## S/N
 3691.00                                 [llow_SN (A) - window for S/N]
 7268.00                                 [lupp_SN (A) - window for S/N]
   5.209                                 [S/N in S/N window]
   4.685                                 [S/N in norm. window]
   0.000                                 [S/N_err in S/N window]
   0.000                                 [S/N_err in norm. window]
  1.0000                                 [fscale_chi2]

## etc...
    -2007288                             [idum_orig]
  2124                                   [NOl_eff]
  1992                                   [Nl_eff]
   132    NSIGMA                         [Ntot_cliped & clip_method]
  1277010                                [Nglobal_steps]
   7                                     [N_chains]
  18                                     [NEX0s_base = N_base in EX0s-fits]
 0   0   1        9   2.0   2.299E+01    [Clip-Bug, RC-Crash & Burn-In warning-flags, n_censored_weights, wei_nsig_threshold & wei_limit]
    11     11.557     11.063      0.493  [idt_all, wdt_TotTime, wdt_UsrTime & wdt_SysTime (sec)]

## Synthesis Results - Best model ##

 1.54279E+00                             [chi2/Nl_eff]
    11.35100                             [adev (%)]

   108.37333                             [sum-of-x (%)]
 1.24348E-17                             [Flux_tot (units of input spectrum!)]
 1.01833E-12                             [Mini_tot (???)]
 5.11581E-13                             [Mcor_tot (???)]

 -93.61                                  [v0_min  (km/s)]
 187.07                                  [vd_min  (km/s)]
-0.1358                                  [AV_min  (mag)]
 0.0000                                  [YAV_min (mag)]

# j     x_j(%)      Mini_j(%)     Mcor_j(%)     age_j(yr)     Z_j      (L/M)_j    YAV?  Mstars   component_j        a/Fe...       SSP_chi2r SSP_adev(%)   SSP_AV   SSP_x(%)
  1      9.9798     1.0279E-02    2.0460E-02    1.000000E+06  0.00400  1.094E-02    0   1.0000   age020_m42            0.0000     2.2953E+00    13.2933   3.3459    92.9426
  2      0.0000     0.0000E+00    0.0000E+00    3.160000E+06  0.00400  4.007E-02    0   0.9999   age045_m42            0.0000     2.2465E+00    13.0482   2.6393    98.1626
  3      0.0000     0.0000E+00    0.0000E+00    5.010000E+06  0.00400  2.539E-02    0   0.9488   age055_m42            0.0000     2.2515E+00    13.1277   2.9476    96.3768
  4      0.0000     0.0000E+00    0.0000E+00    6.610000E+06  0.00400  2.620E-02    0   0.9220   age061_m42            0.0000     2.2183E+00    13.0508   2.5565    98.7234
  5      0.0000     0.0000E+00    0.0000E+00    1.000000E+07  0.00400  1.322E-02    0   0.8862   age070_m42            0.0000     2.1374E+00    13.2196   2.2107   103.4703
  6      0.0000     0.0000E+00    0.0000E+00    1.445000E+07  0.00400  7.883E-03    0   0.8571   age078_m42            0.0000     2.1710E+00    13.2665   2.5419   100.7446
  7      0.0000     0.0000E+00    0.0000E+00    2.512000E+07  0.00400  5.251E-03    0   0.8174   age090_m42            0.0000     2.1369E+00    13.2848   2.0724   104.3564
  8      0.0000     0.0000E+00    0.0000E+00    4.000000E+07  0.00400  3.649E-03    0   0.7851   age104_m42            0.0000     2.1063E+00    13.1673   1.8522   104.8803
  9      0.0000     0.0000E+00    0.0000E+00    5.500000E+07  0.00400  3.098E-03    0   0.7629   age110_m42            0.0000     2.1384E+00    13.0758   2.0363   103.5220
 10      0.0000     0.0000E+00    0.0000E+00    1.015200E+08  0.00400  2.228E-03    0   0.7207   age116_m42            0.0000     2.1551E+00    13.0364   2.0760   102.8870
 11      0.0000     0.0000E+00    0.0000E+00    2.861200E+08  0.00400  1.093E-03    0   0.6648   age125_m42            0.0000     2.1631E+00    13.0357   1.4818   107.0978
 12      0.0000     0.0000E+00    0.0000E+00    5.088000E+08  0.00400  6.597E-04    0   0.6365   age130_m42            0.0000     2.1159E+00    12.7847   1.5041   106.5676
 13      0.0000     0.0000E+00    0.0000E+00    1.434000E+09  0.00400  2.132E-04    0   0.5798   age139_m42            0.0000     1.8105E+00    11.9130   0.5524   107.9660
 14      0.0000     0.0000E+00    0.0000E+00    4.250000E+09  0.00400  5.895E-05    0   0.5377   age158_m42            0.0000     1.7123E+00    11.3944   0.1473   102.5505
 15      0.0000     0.0000E+00    0.0000E+00    7.500000E+09  0.00400  3.510E-05    0   0.5212   age171_m42            0.0000     1.6975E+00    11.3177  -0.0261   101.3299
 16      0.0011     6.4318E-04    6.4450E-04    1.300000E+10  0.00400  2.005E-05    0   0.5034   age193_m42            0.0000     1.7058E+00    11.3220  -0.1811   100.4546
 17      0.0000     0.0000E+00    0.0000E+00    1.800000E+10  0.00400  1.525E-05    0   0.4967   age213_m42            0.0000     1.6923E+00    11.2925  -0.2065   100.1418
 18      7.2367     6.5863E-03    1.3110E-02    1.000000E+06  0.00800  1.238E-02    0   1.0000   age020_m52            0.0000     2.2976E+00    13.3077   3.3422    93.1265
 19      0.0000     0.0000E+00    0.0000E+00    3.160000E+06  0.00800  3.074E-02    0   0.9966   age045_m52            0.0000     2.2944E+00    13.2884   3.2705    93.7289
 20      0.0000     0.0000E+00    0.0000E+00    5.010000E+06  0.00800  2.668E-02    0   0.9443   age055_m52            0.0000     2.2380E+00    13.1599   3.0250    95.7535
 21      0.0000     0.0000E+00    0.0000E+00    6.610000E+06  0.00800  2.136E-02    0   0.9177   age061_m52            0.0000     1.9667E+00    12.7449   1.7124   104.7010
 22      0.0000     0.0000E+00    0.0000E+00    1.000000E+07  0.00800  1.215E-02    0   0.8827   age070_m52            0.0000     2.1492E+00    13.3439   2.3702   104.1409
 23      0.0000     0.0000E+00    0.0000E+00    1.445000E+07  0.00800  8.717E-03    0   0.8552   age078_m52            0.0000     2.1403E+00    13.2252   2.5063   102.1829
 24      0.0000     0.0000E+00    0.0000E+00    2.512000E+07  0.00800  5.592E-03    0   0.8162   age090_m52            0.0000     2.1154E+00    13.2714   2.1345   105.6717
 25      0.0000     0.0000E+00    0.0000E+00    4.000000E+07  0.00800  3.896E-03    0   0.7841   age104_m52            0.0000     2.1189E+00    13.1733   2.0605   105.8102
 26      0.0000     0.0000E+00    0.0000E+00    1.015200E+08  0.00800  2.148E-03    0   0.7226   age116_m52            0.0000     2.1227E+00    13.0073   2.0295   104.2771
 27      0.0000     0.0000E+00    0.0000E+00    2.861200E+08  0.00800  9.925E-04    0   0.6683   age125_m52            0.0000     2.0899E+00    12.8220   1.5671   107.5164
 28      0.0000     0.0000E+00    0.0000E+00    9.047900E+08  0.00800  3.141E-04    0   0.6138   age135_m52            0.0000     1.9152E+00    11.9729   0.8158   109.8517
 29      0.0000     0.0000E+00    0.0000E+00    1.434000E+09  0.00800  1.719E-04    0   0.5853   age139_m52            0.0000     1.7415E+00    11.4970   0.2334   108.1521
 30      0.0000     0.0000E+00    0.0000E+00    2.500000E+09  0.00800  7.872E-05    0   0.5600   age150_m52            0.0000     1.6959E+00    11.3179   0.0054   103.6172
 31      0.0000     0.0000E+00    0.0000E+00    4.250000E+09  0.00800  4.336E-05    0   0.5426   age158_m52            0.0000     1.7046E+00    11.3194  -0.0079   102.5703
 32      0.0000     0.0000E+00    0.0000E+00    6.250000E+09  0.00800  3.159E-05    0   0.5319   age166_m52            0.0000     1.7252E+00    11.3548  -0.1868   101.6719
 33      0.0000     0.0000E+00    0.0000E+00    1.300000E+10  0.00800  1.361E-05    0   0.5073   age193_m52            0.0000     1.7642E+00    11.4990  -0.6254    99.8654
 34      0.0000     0.0000E+00    0.0000E+00    1.800000E+10  0.00800  9.886E-06    0   0.4990   age213_m52            0.0000     1.8414E+00    11.7619  -0.7063    98.3440
 35      9.3269     6.8064E-03    1.3549E-02    1.000000E+06  0.02000  1.544E-02    0   1.0000   age020_m62            0.0000     2.3046E+00    13.3327   3.3386    93.3405
 36      2.7335     8.1870E-04    1.6065E-03    3.160000E+06  0.02000  3.762E-02    0   0.9858   age045_m62            0.0000     2.3137E+00    13.3472   3.2787    94.0985
 37      0.0000     0.0000E+00    0.0000E+00    5.010000E+06  0.02000  3.296E-02    0   0.9342   age055_m62            0.0000     2.2496E+00    13.1395   2.9156    97.1910
 38      0.0000     0.0000E+00    0.0000E+00    8.710000E+06  0.02000  1.154E-02    0   0.8861   age067_m62            0.0000     2.4086E+00    14.7055   1.7042   112.5153
 39      0.0000     0.0000E+00    0.0000E+00    1.445000E+07  0.02000  7.663E-03    0   0.8472   age078_m62            0.0000     2.1763E+00    13.5703   1.9815   108.1054
 40      0.0000     0.0000E+00    0.0000E+00    2.512000E+07  0.02000  4.532E-03    0   0.8099   age090_m62            0.0000     2.2245E+00    13.6957   1.9682   108.0473
 41      0.0000     0.0000E+00    0.0000E+00    5.500000E+07  0.02000  2.733E-03    0   0.7595   age110_m62            0.0000     2.0806E+00    13.1210   2.0413   105.2322
 42      0.0000     0.0000E+00    0.0000E+00    1.609000E+08  0.02000  1.369E-03    0   0.6985   age120_m62            0.0000     2.1119E+00    13.0334   1.9166   106.3684
 43      0.0000     0.0000E+00    0.0000E+00    2.861200E+08  0.02000  9.013E-04    0   0.6714   age125_m62            0.0000     2.0946E+00    12.9207   1.6864   108.4307
 44      0.0000     0.0000E+00    0.0000E+00    5.088000E+08  0.02000  5.028E-04    0   0.6449   age130_m62            0.0000     2.0580E+00    12.4785   1.3561   109.1169
 45      0.0000     0.0000E+00    0.0000E+00    9.047900E+08  0.02000  2.428E-04    0   0.6179   age135_m62            0.0000     1.8462E+00    11.7884   0.7879   107.9098
 46      0.0000     0.0000E+00    0.0000E+00    1.434000E+09  0.02000  1.263E-04    0   0.5908   age139_m62            0.0000     1.7316E+00    11.4833   0.3517   106.1788
 47      0.0000     0.0000E+00    0.0000E+00    2.500000E+09  0.02000  5.985E-05    0   0.5673   age150_m62            0.0000     1.7370E+00    11.4203   0.0172   103.5439
 48      0.0000     0.0000E+00    0.0000E+00    4.250000E+09  0.02000  3.271E-05    0   0.5468   age158_m62            0.0000     1.7838E+00    11.5417  -0.2509   101.2529
 49      4.0090     3.3214E+00    3.4162E+00    1.000000E+10  0.02000  1.360E-05    0   0.5167   age181_m62            0.0000     1.9035E+00    11.9864  -0.5585    99.2603
 50     18.9829     3.0024E+01    2.9960E+01    1.800000E+10  0.02000  7.124E-06    0   0.5013   age213_m62            0.0000     2.0469E+00    12.4834  -0.7330    97.1360
 51     15.8406     6.8860E-03    1.3704E-02    1.000000E+06  0.05000  2.592E-02    0   0.9998   age020_m72            0.0000     2.3153E+00    13.4072   3.3244    93.6171
 52      0.0000     0.0000E+00    0.0000E+00    3.160000E+06  0.05000  4.845E-02    0   0.9577   age045_m72            0.0000     2.3022E+00    13.2558   3.1734    94.8080
 53      0.0000     0.0000E+00    0.0000E+00    5.010000E+06  0.05000  3.072E-02    0   0.9147   age055_m72            0.0000     2.2704E+00    13.4582   2.6045   102.5946
 54      0.0000     0.0000E+00    0.0000E+00    6.610000E+06  0.05000  1.455E-02    0   0.8877   age061_m72            0.0000     3.5766E+00    16.7982   1.7000   116.1345
 55      0.0000     0.0000E+00    0.0000E+00    1.000000E+07  0.05000  9.074E-03    0   0.8524   age070_m72            0.0000     2.6846E+00    14.0082   2.7813   102.6117
 56      0.0000     0.0000E+00    0.0000E+00    2.512000E+07  0.05000  4.250E-03    0   0.7902   age090_m72            0.0000     2.4158E+00    13.6733   2.4885   104.0368
 57      0.0000     0.0000E+00    0.0000E+00    4.000000E+07  0.05000  3.087E-03    0   0.7618   age104_m72            0.0000     2.4242E+00    13.7670   2.2542   106.0363
 58      0.0000     0.0000E+00    0.0000E+00    1.015200E+08  0.05000  1.700E-03    0   0.7096   age116_m72            0.0000     2.1733E+00    13.2387   2.0413   106.7331
 59      0.0000     0.0000E+00    0.0000E+00    2.861200E+08  0.05000  7.384E-04    0   0.6633   age125_m72            0.0000     2.0550E+00    12.6815   1.5803   108.6952
 60      0.0000     0.0000E+00    0.0000E+00    5.088000E+08  0.05000  3.819E-04    0   0.6372   age130_m72            0.0000     1.9068E+00    12.0494   1.1281   108.7420
 61      0.0000     0.0000E+00    0.0000E+00    9.047900E+08  0.05000  1.676E-04    0   0.6110   age135_m72            0.0000     1.8107E+00    11.6582   0.4776   105.1530
 62      0.0000     0.0000E+00    0.0000E+00    1.434000E+09  0.05000  8.837E-05    0   0.5874   age139_m72            0.0000     1.7314E+00    11.4643   0.0245   104.7211
 63      1.2524     3.3338E-01    3.7149E-01    2.500000E+09  0.05000  4.233E-05    0   0.5598   age150_m72            0.0000     1.8209E+00    11.6664  -0.2377   101.5681
 64     14.5908     1.1457E+01    1.1970E+01    6.250000E+09  0.05000  1.435E-05    0   0.5249   age166_m72            0.0000     1.9456E+00    12.1201  -0.6405    98.3183
 65      7.8345     1.3554E+01    1.3587E+01    1.300000E+10  0.05000  6.513E-06    0   0.5036   age193_m72            0.0000     2.1536E+00    12.8199  -0.8780    97.6635
 66     16.5850     4.1279E+01    4.0632E+01    1.800000E+10  0.05000  4.527E-06    0   0.4945   age213_m72            0.0000     2.2969E+00    13.3015  -1.0000    95.9551


## Synthesis Results - Average & Chains ##

# j      x_j: min, <> & last-chain-values for 1 ...  7 chains
  1      9.9798      6.3926      8.4471      8.1997      7.0142     10.1968      6.7438      5.9478      7.1304
  2      0.0000      0.1644      0.0000      0.0000      0.0000      0.0000      0.0000      0.0000      0.0000
  3      0.0000      0.1577      0.0000      0.0000      0.0000      0.5063      0.0000      1.1131      0.0000
  4      0.0000      0.2909      0.0000      0.0000      0.0000      0.3869      0.0000      0.0000      0.0000
  5      0.0000      0.1863      0.0000      0.0000      0.0000      0.0000      0.0000      0.1473      0.0000
  6      0.0000      0.9903      2.9072      1.8028      1.2409      0.3162      0.0000      0.0000      0.0000
  7      0.0000      0.2334      0.0000      0.2535      0.0000      0.6365      0.0000      0.0000      0.0000
  8      0.0000      0.2131      0.0027      0.0000      0.0000      1.2654      0.1662      0.0000      0.0367
  9      0.0000      0.1154      0.4813      0.0000      0.0000      0.0000      0.0000      0.0000      0.0000
 10      0.0000      0.1326      0.0000      0.0000      0.0000      0.0000      0.0000      0.0000      0.0000
 11      0.0000      0.1509      0.2597      0.0000      0.9030      0.0000      0.0000      0.0000      0.0000
 12      0.0000      0.1298      0.0000      0.0000      0.0000      0.0000      0.0000      0.0000      0.0000
 13      0.0000      0.4949      0.0000      0.0000      0.0000      0.0000      0.0000      0.0000      0.0000
 14      0.0000      0.7557      0.0000      0.0000      0.0000      0.2313      0.1500      0.0000      0.0000
 15      0.0000      0.5449      0.0000      0.0000      0.9191      0.0000      0.1949      0.0000      0.0000
 16      0.0011      0.5532      0.6099      0.6148      0.0000      0.4754      0.5090      1.6293      0.0280
 17      0.0000      0.5116      0.0000      0.0000      0.0000      0.0000      0.0000      0.0000      0.0000
 18      7.2367      6.0955      6.5981      5.1440      6.7989      7.5926      6.6559      5.9230      6.5086
 19      0.0000      0.5476      0.3901      0.6356      1.5369      1.2634      0.8167      0.7842      0.2287
 20      0.0000      0.3364      1.1837      0.0000      1.1133      0.5179      0.8043      0.8738      0.3681
 21      0.0000      0.4231      1.0182      0.0000      0.0000      0.0000      1.0671      0.0000      0.0000
 22      0.0000      0.3290      0.0000      0.0000      0.8589      0.0000      0.0000      0.0000      0.0000
 23      0.0000      0.4698      0.0000      0.0000      0.0000      0.0000      0.1726      0.0000      0.0000
 24      0.0000      0.5731      0.0000      0.0000      1.6875      2.2823      0.0000      1.0762      0.0000
 25      0.0000      0.1725      0.0000      0.0000      0.0000      0.0000      0.0000      0.0000      0.0000
 26      0.0000      0.1379      0.0000      0.0000      0.2524      0.0000      0.0000      0.0000      0.0000
 27      0.0000      0.1009      0.0000      0.0000      0.0000      0.5922      0.0000      0.0000      0.0000
 28      0.0000      0.2797      0.0000      0.0000      0.2940      0.0000      0.0000      0.0000      0.0000
 29      0.0000      0.4632      0.1904      0.0000      0.0000      0.0000      0.0000      0.4230      0.0000
 30      0.0000      0.6430      0.0000      0.0000      0.0000      0.0000      0.0000      0.1858      0.0000
 31      0.0000      0.5749      0.0000      0.6460      0.9276      0.0454      0.0000      0.0000      0.5258
 32      0.0000      0.5208      0.9224      0.0000      0.0000      1.0412      1.1635      0.0000      0.0000
 33      0.0000      0.2287      0.0000      1.0460      0.0000      0.0000      0.0000      0.1647      0.0000
 34      0.0000      0.4403      0.0000      1.4222      0.8844      0.0000      0.0000      0.0000      0.2883
 35      9.3269      5.2190      5.3407     10.5817      5.1776      6.5058      6.0101      5.5632      6.5046
 36      2.7335      2.1107      2.2048      2.7094      3.1774      1.1425      3.4588      1.8846      3.6409
 37      0.0000      0.1286      0.1246      0.0000      0.0000      0.0000      0.0000      0.0000      0.0000
 38      0.0000      0.4666      0.0000      0.0000      3.8655      0.0000      0.0000      1.0630      0.0000
 39      0.0000      0.3167      0.0000      0.0000      0.0000      0.0000      0.0000      0.0596      1.0078
 40      0.0000      0.3751      0.2879      0.0000      0.0000      0.0000      0.3349      1.9395      0.0000
 41      0.0000      0.1376      0.0000      0.0000      0.0000      0.0000      0.0000      0.0000      0.0000
 42      0.0000      0.0997      0.0335      0.0000      0.0000      0.0000      0.0000      0.0000      0.0000
 43      0.0000      0.1271      0.0000      0.0000      0.6220      0.0000      0.0000      0.0000      0.0000
 44      0.0000      0.1003      0.0000      0.0000      0.0000      0.1879      0.0000      0.3783      0.0000
 45      0.0000      0.2824      0.0000      1.2062      0.0000      0.0000      0.0000      0.0000      0.0000
 46      0.0000      0.6143      0.0000      0.0000      0.0000      0.0000      0.0000      0.0000      0.0000
