###################################################################
## OUTPUT of StarlightChains_v04.for    [Cid@UFSC - 01/Apr/2007] ##
###################################################################

## Some input info
2004am.txt                               [arq_obs]
Base.CB07.vall.4m                        [arq_base]
Masks.EmLines.NEW.gm                     [arq_masks]
StCv04.C11.config                        [arq_config]
   66                                    [N_base]
    0                                    [N_YAV_components = # of components with extra extinction!]
    0                                    [i_FitPowerLaw (1/0 = Yes/No)]
-9.99                                    [alpha_PowerLaw]
CCM                                      [red_law_option]
 1.458241                                [q_norm = A(l_norm)/A(V)]

## (Re)Sampling Parameters
 3741.00                                 [l_ini (A)]
 7218.00                                 [l_fin (A)]
    1.00                                 [dl    (A)]     (OBS: dl_cushion =    50.00 A)

## Normalization info
 4020.00                                 [l_norm (A) - for base]
 4010.00                                 [llow_norm (A) - window for f_obs]
 4060.00                                 [lupp_norm (A) - window for f_obs]
3.724396E-13                             [fobs_norm (in input units)]

## S/N
 3691.00                                 [llow_SN (A) - window for S/N]
 7268.00                                 [lupp_SN (A) - window for S/N]
   5.055                                 [S/N in S/N window]
   4.164                                 [S/N in norm. window]
  10.000                                 [S/N_err in S/N window]
   8.238                                 [S/N_err in norm. window]
  1.0000                                 [fscale_chi2]

## etc...
    -2007285                             [idum_orig]
  2395                                   [NOl_eff]
  2395                                   [Nl_eff]
     0    NSIGMA                         [Ntot_cliped & clip_method]
   915180                                [Nglobal_steps]
   7                                     [N_chains]
  15                                     [NEX0s_base = N_base in EX0s-fits]
 0   0   1      112   2.0   1.403E+01    [Clip-Bug, RC-Crash & Burn-In warning-flags, n_censored_weights, wei_nsig_threshold & wei_limit]
    11     11.761     11.268      0.493  [idt_all, wdt_TotTime, wdt_UsrTime & wdt_SysTime (sec)]

## Synthesis Results - Best model ##

 1.75225E-01                             [chi2/Nl_eff]
     3.31554                             [adev (%)]

    96.89609                             [sum-of-x (%)]
 3.32258E-12                             [Flux_tot (units of input spectrum!)]
 3.33624E-08                             [Mini_tot (???)]
 1.72640E-08                             [Mcor_tot (???)]

 -46.07                                  [v0_min  (km/s)]
 187.51                                  [vd_min  (km/s)]
 1.6529                                  [AV_min  (mag)]
 0.0000                                  [YAV_min (mag)]

# j     x_j(%)      Mini_j(%)     Mcor_j(%)     age_j(yr)     Z_j      (L/M)_j    YAV?  Mstars   component_j        a/Fe...       SSP_chi2r SSP_adev(%)   SSP_AV   SSP_x(%)
  1      0.0000     0.0000E+00    0.0000E+00    1.000000E+06  0.00400  1.094E-02    0   1.0000   age020_m42            0.0000     9.2227E-01     7.8487   3.9438    79.5463
  2      0.0000     0.0000E+00    0.0000E+00    3.160000E+06  0.00400  4.007E-02    0   0.9999   age045_m42            0.0000     5.6532E-01     6.2822   3.1906    86.1424
  3      0.0000     0.0000E+00    0.0000E+00    5.010000E+06  0.00400  2.539E-02    0   0.9488   age055_m42            0.0000     6.8985E-01     6.8734   3.5240    83.5057
  4      0.0000     0.0000E+00    0.0000E+00    6.610000E+06  0.00400  2.620E-02    0   0.9220   age061_m42            0.0000     5.2051E-01     5.9731   3.1149    86.4292
  5      0.0000     0.0000E+00    0.0000E+00    1.000000E+07  0.00400  1.322E-02    0   0.8862   age070_m42            0.0000     3.9203E-01     4.9151   2.8352    88.2397
  6      0.0000     0.0000E+00    0.0000E+00    1.445000E+07  0.00400  7.883E-03    0   0.8571   age078_m42            0.0000     4.9694E-01     5.5011   3.1705    85.6533
  7      0.0000     0.0000E+00    0.0000E+00    2.512000E+07  0.00400  5.251E-03    0   0.8174   age090_m42            0.0000     3.5423E-01     4.5800   2.7036    88.8232
  8      0.0000     0.0000E+00    0.0000E+00    4.000000E+07  0.00400  3.649E-03    0   0.7851   age104_m42            0.0000     3.1156E-01     4.3795   2.4702    89.8274
  9      0.0000     0.0000E+00    0.0000E+00    5.500000E+07  0.00400  3.098E-03    0   0.7629   age110_m42            0.0000     3.2626E-01     4.5559   2.6187    90.0283
 10      0.0000     0.0000E+00    0.0000E+00    1.015200E+08  0.00400  2.228E-03    0   0.7207   age116_m42            0.0000     3.4818E-01     4.6906   2.6342    90.3849
 11      0.0000     0.0000E+00    0.0000E+00    2.861200E+08  0.00400  1.093E-03    0   0.6648   age125_m42            0.0000     2.6632E-01     4.1218   2.0568    93.4730
 12      0.0000     0.0000E+00    0.0000E+00    5.088000E+08  0.00400  6.597E-04    0   0.6365   age130_m42            0.0000     3.2479E-01     4.5640   2.0413    94.5029
 13      9.1068     4.3903E+00    4.9191E+00    1.434000E+09  0.00400  2.132E-04    0   0.5798   age139_m42            0.0000     3.3059E-01     4.5912   1.0651    96.6964
 14      0.0000     0.0000E+00    0.0000E+00    4.250000E+09  0.00400  5.895E-05    0   0.5377   age158_m42            0.0000     6.2381E-01     6.2658   0.6394    92.3026
 15      0.0000     0.0000E+00    0.0000E+00    7.500000E+09  0.00400  3.510E-05    0   0.5212   age171_m42            0.0000     7.8128E-01     6.9599   0.4539    91.5791
 16      0.0000     0.0000E+00    0.0000E+00    1.300000E+10  0.00400  2.005E-05    0   0.5034   age193_m42            0.0000     9.4595E-01     7.6011   0.2927    90.9200
 17      0.0000     0.0000E+00    0.0000E+00    1.800000E+10  0.00400  1.525E-05    0   0.4967   age213_m42            0.0000     9.2190E-01     7.5106   0.2698    90.5136
 18      0.0000     0.0000E+00    0.0000E+00    1.000000E+06  0.00800  1.238E-02    0   1.0000   age020_m52            0.0000     9.2428E-01     7.8582   3.9416    79.6593
 19      0.0000     0.0000E+00    0.0000E+00    3.160000E+06  0.00800  3.074E-02    0   0.9966   age045_m52            0.0000     8.9700E-01     7.7781   3.8622    80.4648
 20      0.0000     0.0000E+00    0.0000E+00    5.010000E+06  0.00800  2.668E-02    0   0.9443   age055_m52            0.0000     7.2787E-01     7.0413   3.6090    82.6514
 21      0.0000     0.0000E+00    0.0000E+00    6.610000E+06  0.00800  2.136E-02    0   0.9177   age061_m52            0.0000     4.3482E-01     5.3060   2.3386    89.1278
 22      0.0000     0.0000E+00    0.0000E+00    1.000000E+07  0.00800  1.215E-02    0   0.8827   age070_m52            0.0000     4.2327E-01     4.9297   3.0203    87.8127
 23      0.0000     0.0000E+00    0.0000E+00    1.445000E+07  0.00800  8.717E-03    0   0.8552   age078_m52            0.0000     4.5573E-01     5.2640   3.1332    86.9623
 24      0.0000     0.0000E+00    0.0000E+00    2.512000E+07  0.00800  5.592E-03    0   0.8162   age090_m52            0.0000     3.2453E-01     4.3524   2.7657    89.9657
 25      0.0000     0.0000E+00    0.0000E+00    4.000000E+07  0.00800  3.896E-03    0   0.7841   age104_m52            0.0000     2.8953E-01     4.1939   2.6726    90.8997
 26      0.0000     0.0000E+00    0.0000E+00    1.015200E+08  0.00800  2.148E-03    0   0.7226   age116_m52            0.0000     3.0115E-01     4.3665   2.6045    91.0116
 27      0.0000     0.0000E+00    0.0000E+00    2.861200E+08  0.00800  9.925E-04    0   0.6683   age125_m52            0.0000     2.9888E-01     4.3408   2.1043    95.4767
 28      0.0000     0.0000E+00    0.0000E+00    9.047900E+08  0.00800  3.141E-04    0   0.6138   age135_m52            0.0000     4.3996E-01     5.2918   1.2977    99.8649
 29      0.0000     0.0000E+00    0.0000E+00    1.434000E+09  0.00800  1.719E-04    0   0.5853   age139_m52            0.0000     5.0316E-01     5.6817   0.7275    97.4074
 30      0.0000     0.0000E+00    0.0000E+00    2.500000E+09  0.00800  7.872E-05    0   0.5600   age150_m52            0.0000     7.9670E-01     7.0356   0.4658    94.4877
 31      0.0000     0.0000E+00    0.0000E+00    4.250000E+09  0.00800  4.336E-05    0   0.5426   age158_m52            0.0000     8.5682E-01     7.2393   0.4544    93.4315
 32      0.0000     0.0000E+00    0.0000E+00    6.250000E+09  0.00800  3.159E-05    0   0.5319   age166_m52            0.0000     1.0846E+00     8.0726   0.2520    93.4377
 33      5.1918     3.9208E+01    3.8437E+01    1.300000E+10  0.00800  1.361E-05    0   0.5073   age193_m52            0.0000     1.4278E+00     9.1416  -0.2129    92.7133
 34      4.8000     4.9904E+01    4.8123E+01    1.800000E+10  0.00800  9.886E-06    0   0.4990   age213_m52            0.0000     1.7127E+00    10.0057  -0.3179    92.1336
 35      0.0000     0.0000E+00    0.0000E+00    1.000000E+06  0.02000  1.544E-02    0   1.0000   age020_m62            0.0000     9.3571E-01     7.9126   3.9379    79.8281
 36      0.0000     0.0000E+00    0.0000E+00    3.160000E+06  0.02000  3.762E-02    0   0.9858   age045_m62            0.0000     9.3080E-01     7.9260   3.8776    80.5144
 37      0.0000     0.0000E+00    0.0000E+00    5.010000E+06  0.02000  3.296E-02    0   0.9342   age055_m62            0.0000     6.4172E-01     6.6831   3.4760    84.8435
 38     20.2901     1.8071E-01    3.0945E-01    8.710000E+06  0.02000  1.154E-02    0   0.8861   age067_m62            0.0000     6.6102E-01     5.7496   2.4826    89.8360
 39      0.0000     0.0000E+00    0.0000E+00    1.445000E+07  0.02000  7.663E-03    0   0.8472   age078_m62            0.0000     4.1816E-01     4.8323   2.6666    89.8460
 40      0.0015     3.3203E-05    5.1967E-05    2.512000E+07  0.02000  4.532E-03    0   0.8099   age090_m62            0.0000     4.0628E-01     4.7608   2.6570    89.6838
 41      0.0000     0.0000E+00    0.0000E+00    5.500000E+07  0.02000  2.733E-03    0   0.7595   age110_m62            0.0000     3.1819E-01     4.3895   2.6579    90.1279
 42      0.0000     0.0000E+00    0.0000E+00    1.609000E+08  0.02000  1.369E-03    0   0.6985   age120_m62            0.0000     2.9862E-01     4.3039   2.4789    93.3785
 43     21.7711     2.4827E+00    3.2212E+00    2.861200E+08  0.02000  9.013E-04    0   0.6714   age125_m62            0.0000     3.2942E-01     4.5159   2.2144    96.6941
 44      0.0000     0.0000E+00    0.0000E+00    5.088000E+08  0.02000  5.028E-04    0   0.6449   age130_m62            0.0000     4.7196E-01     5.5222   1.8279    99.6684
 45      0.0000     0.0000E+00    0.0000E+00    9.047900E+08  0.02000  2.428E-04    0   0.6179   age135_m62            0.0000     5.7486E-01     6.0465   1.2478    98.8330
 46      0.0000     0.0000E+00    0.0000E+00    1.434000E+09  0.02000  1.263E-04    0   0.5908   age139_m62            0.0000     7.1710E-01     6.5923   0.8116    97.0501
 47      0.0000     0.0000E+00    0.0000E+00    2.500000E+09  0.02000  5.985E-05    0   0.5673   age150_m62            0.0000     1.0304E+00     7.8843   0.4511    95.4646
 48      0.0000     0.0000E+00    0.0000E+00    4.250000E+09  0.02000  3.271E-05    0   0.5468   age158_m62            0.0000     1.4078E+00     9.1887   0.1485    94.5505
 49      0.0000     0.0000E+00    0.0000E+00    1.000000E+10  0.02000  1.360E-05    0   0.5167   age181_m62            0.0000     1.9238E+00    10.6666  -0.1961    94.0111
 50      0.0000     0.0000E+00    0.0000E+00    1.800000E+10  0.02000  7.124E-06    0   0.5013   age213_m62            0.0000     2.3472E+00    11.8520  -0.4009    93.0453
 51      0.0000     0.0000E+00    0.0000E+00    1.000000E+06  0.05000  2.592E-02    0   0.9998   age020_m72            0.0000     9.7058E-01     8.0208   3.9320    79.7518
 52      0.0000     0.0000E+00    0.0000E+00    3.160000E+06  0.05000  4.845E-02    0   0.9577   age045_m72            0.0000     8.2991E-01     7.5553   3.7501    81.9705
 53      0.0000     0.0000E+00    0.0000E+00    5.010000E+06  0.05000  3.072E-02    0   0.9147   age055_m72            0.0000     5.9455E-01     6.1068   3.2632    85.9586
 54      0.6187     4.3705E-03    7.4975E-03    6.610000E+06  0.05000  1.455E-02    0   0.8877   age061_m72            0.0000     1.1402E+00     8.1898   2.5314    90.4807
 55      0.0000     0.0000E+00    0.0000E+00    1.000000E+07  0.05000  9.074E-03    0   0.8524   age070_m72            0.0000     7.1266E-01     6.9811   3.4487    85.6310
 56      0.0000     0.0000E+00    0.0000E+00    2.512000E+07  0.05000  4.250E-03    0   0.7902   age090_m72            0.0000     4.7464E-01     5.6192   3.1332    87.8813
 57      0.0000     0.0000E+00    0.0000E+00    4.000000E+07  0.05000  3.087E-03    0   0.7618   age104_m72            0.0000     4.0491E-01     5.2108   2.8973    89.6995
 58     13.4314     8.1205E-01    1.1136E+00    1.015200E+08  0.05000  1.700E-03    0   0.7096   age116_m72            0.0000     2.7633E-01     4.0864   2.6237    92.8916
 59     21.6847     3.0184E+00    3.8690E+00    2.861200E+08  0.05000  7.384E-04    0   0.6633   age125_m72            0.0000     3.9171E-01     4.9831   2.0769    98.2770
 60      0.0000     0.0000E+00    0.0000E+00    5.088000E+08  0.05000  3.819E-04    0   0.6372   age130_m72            0.0000     5.2515E-01     5.8936   1.5826    99.9730
 61      0.0000     0.0000E+00    0.0000E+00    9.047900E+08  0.05000  1.676E-04    0   0.6110   age135_m72            0.0000     9.3140E-01     7.5132   0.8997    97.6491
 62      0.0000     0.0000E+00    0.0000E+00    1.434000E+09  0.05000  8.837E-05    0   0.5874   age139_m72            0.0000     1.0935E+00     8.0125   0.4469    97.0336
 63      0.0000     0.0000E+00    0.0000E+00    2.500000E+09  0.05000  4.233E-05    0   0.5598   age150_m72            0.0000     1.5381E+00     9.5987   0.1462    95.4388
 64      0.0000     0.0000E+00    0.0000E+00    6.250000E+09  0.05000  1.435E-05    0   0.5249   age166_m72            0.0000     2.0460E+00    11.0827  -0.2933    93.6435
 65      0.0000     0.0000E+00    0.0000E+00    1.300000E+10  0.05000  6.513E-06    0   0.5036   age193_m72            0.0000     2.6023E+00    12.5681  -0.5628    94.0703
 66      0.0000     0.0000E+00    0.0000E+00    1.800000E+10  0.05000  4.527E-06    0   0.4945   age213_m72            0.0000     2.9530E+00    13.4469  -0.7163    93.5583


## Synthesis Results - Average & Chains ##

# j      x_j: min, <> & last-chain-values for 1 ...  7 chains
  1      0.0000      0.0944      0.0000      0.0000      0.0000      0.2219      0.0000      0.0000      0.7492
  2      0.0000      0.2021      0.0000      0.0000      0.0000      0.0000      0.0000      0.0000      0.0000
  3      0.0000      0.1635      0.0000      1.1136      0.6915      0.1026      0.0000      0.0000      0.0000
  4      0.0000      0.2029      0.0000      0.0000      0.0515      0.0000      0.0000      0.0000      0.5949
  5      0.0000      0.1928      0.0000      0.0000      0.0000      0.0000      0.0000      0.0000      0.0000
  6      0.0000      0.2917      0.2741      0.0000      0.0000      0.0000      0.0000      0.0000      1.6052
  7      0.0000      0.4071      0.2500      1.1120      0.0000      0.0000      0.0000      0.0000      0.0000
  8      0.0000      0.6591      0.0000      0.0000      1.7087      0.0000      0.0726      0.0000      0.2468
  9      0.0000      1.1582      0.5098      0.0797      0.0000      3.7617      0.7372      0.0000      0.5215
 10      0.0000      0.4681      0.0000      0.0000      0.0000      1.1382      0.0000      0.0000      0.0000
 11      0.0000      1.8165      2.6174      0.0000      0.2934      0.0000      1.2675      0.0000      2.0436
 12      0.0000      1.4683      3.3132      3.2766      0.0000      0.5105      0.1382      0.0000      2.1204
 13      9.1068     21.4518     22.1497     23.5317     20.6699     22.2140     24.7070     23.8908     21.4931
 14      0.0000      0.2463      0.0000      0.0000      0.0000      0.0000      0.0000      0.0000      0.0000
 15      0.0000      0.0882      0.0000      0.0000      0.0000      0.0000      0.0000      0.0000      0.0000
 16      0.0000      0.0779      0.0000      0.0000      0.0000      0.0000      0.0000      0.0000      0.0000
 17      0.0000      0.1188      0.0000      0.0000      0.0000      0.0199      0.0000      0.0000      0.1881
 18      0.0000      0.1423      0.0000      0.0000      0.0000      0.0000      0.0000      0.0000      0.0000
 19      0.0000      0.1003      0.0000      0.0000      0.0000      0.0000      0.0700      0.0000      0.0424
 20      0.0000      0.1245      0.0000      0.0000      0.0000      0.0000      0.0000      0.0000      0.0194
 21      0.0000      0.1277      0.0000      0.0000      0.0000      0.0000      0.0000      0.0000      0.0000
 22      0.0000      0.4825      0.4165      0.0000      0.0000      0.2294      0.0000      0.0000      0.0052
 23      0.0000      0.4975      0.0000      0.7636      0.0000      0.0000      0.0000      0.3620      0.0000
 24      0.0000      0.8115      0.0000      2.2198      3.1277      0.0196      2.3478      0.1881      2.2726
 25      0.0000      1.4841      1.3371      2.3186      1.2194      0.8059      1.3296      2.2811      5.8723
 26      0.0000      0.6959      1.3200      0.0000      0.0000      1.7950      0.0000      0.2459      0.0000
 27      0.0000      3.7105      0.0000      0.0000      5.1659      4.8647      6.6357      5.8268      2.0625
 28      0.0000      2.6271      0.0000      2.9816      1.1099      0.0000      0.5549      0.0000      0.9351
 29      0.0000      4.6256      5.3855      2.7955      0.0000      4.8848      3.2304      4.8119      1.7681
 30      0.0000      0.1670      0.0000      0.0000      0.0000      0.0000      0.0000      0.0000      0.0000
 31      0.0000      0.1422      0.0000      0.0000      0.0932      0.0000      0.0000      0.0000      0.0000
 32      0.0000      0.0869      0.0000      0.0000      0.0000      0.0000      0.0000      0.0000      0.0000
 33      5.1918      2.7778      3.1917      3.7836      2.6176      3.0252      2.7369      2.7876      3.3693
 34      4.8000      3.0017      3.3129      3.1690      2.7278      3.6323      3.0859      2.7104      2.8798
 35      0.0000      0.1565      0.0000      0.0000      0.0000      0.0000      0.0000      1.7053      0.0000
 36      0.0000      0.1127      0.6416      0.0000      0.0000      0.0000      0.0000      0.0000      0.0000
 37      0.0000      0.2238      0.0000      0.0000      0.0000      0.0000      0.0000      0.0000      0.0000
 38     20.2901      8.7780     10.2782     10.9592      9.7724      9.1248     10.5618     10.2824      8.6832
 39      0.0000      0.6421      0.2559      0.0000      0.0000      0.0000      0.0000      0.0000      0.6309
 40      0.0015      0.6318      0.0000      0.4165      0.3531      0.8276      0.3394      3.2684      0.0933
 41      0.0000      0.3478      0.0000      0.0000      0.0000      1.3839      1.5530      0.0000      0.1136
 42      0.0000      2.1834      0.0000      0.8976      0.9198      3.4318      3.3047      0.0000      2.1595
 43     21.7711      9.6576     11.2961     12.7060     12.4862     12.8780      9.1122      8.9788     12.6916
 44      0.0000      3.1079      2.7666      3.7180      6.2274      0.0000      2.9131      6.2624      4.8958
 45      0.0000      0.4392      0.4300      0.0000      0.0000      0.0467      0.0000      0.0000      0.0000
 46      0.0000      0.2511      0.0000      0.1764      0.0000      0.0000      0.0000      0.0000      0.0000
