###################################################################
## OUTPUT of StarlightChains_v04.for    [Cid@UFSC - 01/Apr/2007] ##
###################################################################

## Some input info
2004gj.txt                               [arq_obs]
Base.CB07.vall.4m                        [arq_base]
Masks.EmLines.NEW.gm                     [arq_masks]
StCv04.C11.config                        [arq_config]
   66                                    [N_base]
    0                                    [N_YAV_components = # of components with extra extinction!]
    0                                    [i_FitPowerLaw (1/0 = Yes/No)]
-9.99                                    [alpha_PowerLaw]
CCM                                      [red_law_option]
 1.458241                                [q_norm = A(l_norm)/A(V)]

## (Re)Sampling Parameters
 3741.00                                 [l_ini (A)]
 7218.00                                 [l_fin (A)]
    1.00                                 [dl    (A)]     (OBS: dl_cushion =    50.00 A)

## Normalization info
 4020.00                                 [l_norm (A) - for base]
 4010.00                                 [llow_norm (A) - window for f_obs]
 4060.00                                 [lupp_norm (A) - window for f_obs]
5.114601E-17                             [fobs_norm (in input units)]

## S/N
 3691.00                                 [llow_SN (A) - window for S/N]
 7268.00                                 [lupp_SN (A) - window for S/N]
   4.814                                 [S/N in S/N window]
   7.027                                 [S/N in norm. window]
   9.143                                 [S/N_err in S/N window]
  13.346                                 [S/N_err in norm. window]
  1.0000                                 [fscale_chi2]

## etc...
    -2007294                             [idum_orig]
  2381                                   [NOl_eff]
  2360                                   [Nl_eff]
    21    NSIGMA                         [Ntot_cliped & clip_method]
   766290                                [Nglobal_steps]
   7                                     [N_chains]
   9                                     [NEX0s_base = N_base in EX0s-fits]
 0   0   1       21   2.0   2.335E+01    [Clip-Bug, RC-Crash & Burn-In warning-flags, n_censored_weights, wei_nsig_threshold & wei_limit]
    12     11.940     11.447      0.493  [idt_all, wdt_TotTime, wdt_UsrTime & wdt_SysTime (sec)]

## Synthesis Results - Best model ##

 7.02573E-01                             [chi2/Nl_eff]
     7.14235                             [adev (%)]

    97.02632                             [sum-of-x (%)]
 6.25544E-17                             [Flux_tot (units of input spectrum!)]
 1.09826E-13                             [Mini_tot (???)]
 6.82421E-14                             [Mcor_tot (???)]

 -11.85                                  [v0_min  (km/s)]
 203.77                                  [vd_min  (km/s)]
 0.1724                                  [AV_min  (mag)]
 0.0000                                  [YAV_min (mag)]

# j     x_j(%)      Mini_j(%)     Mcor_j(%)     age_j(yr)     Z_j      (L/M)_j    YAV?  Mstars   component_j        a/Fe...       SSP_chi2r SSP_adev(%)   SSP_AV   SSP_x(%)
  1      0.0000     0.0000E+00    0.0000E+00    1.000000E+06  0.00400  1.094E-02    0   1.0000   age020_m42            0.0000     8.8782E-01     7.5572   2.2720    82.0198
  2      1.0788     1.5804E-02    2.5432E-02    3.160000E+06  0.00400  4.007E-02    0   0.9999   age045_m42            0.0000     7.7240E-01     7.2978   1.5027    89.5881
  3      0.0000     0.0000E+00    0.0000E+00    5.010000E+06  0.00400  2.539E-02    0   0.9488   age055_m42            0.0000     7.9309E-01     7.3141   1.8403    86.6279
  4      0.0000     0.0000E+00    0.0000E+00    6.610000E+06  0.00400  2.620E-02    0   0.9220   age061_m42            0.0000     7.7835E-01     7.2796   1.4256    89.9629
  5      0.0000     0.0000E+00    0.0000E+00    1.000000E+07  0.00400  1.322E-02    0   0.8862   age070_m42            0.0000     8.0906E-01     7.3534   1.1551    91.5000
  6      0.0000     0.0000E+00    0.0000E+00    1.445000E+07  0.00400  7.883E-03    0   0.8571   age078_m42            0.0000     8.2155E-01     7.3882   1.4922    88.7045
  7      0.0000     0.0000E+00    0.0000E+00    2.512000E+07  0.00400  5.251E-03    0   0.8174   age090_m42            0.0000     8.2763E-01     7.4339   1.0236    92.1165
  8      0.0000     0.0000E+00    0.0000E+00    4.000000E+07  0.00400  3.649E-03    0   0.7851   age104_m42            0.0000     8.0780E-01     7.3791   0.7879    93.2736
  9      0.0000     0.0000E+00    0.0000E+00    5.500000E+07  0.00400  3.098E-03    0   0.7629   age110_m42            0.0000     8.1288E-01     7.3731   0.9299    93.7535
 10      0.0000     0.0000E+00    0.0000E+00    1.015200E+08  0.00400  2.228E-03    0   0.7207   age116_m42            0.0000     8.5061E-01     7.4711   0.9418    94.2937
 11      0.0000     0.0000E+00    0.0000E+00    2.861200E+08  0.00400  1.093E-03    0   0.6648   age125_m42            0.0000     9.3290E-01     7.7781   0.3627    97.6368
 12      0.0000     0.0000E+00    0.0000E+00    5.088000E+08  0.00400  6.597E-04    0   0.6365   age130_m42            0.0000     9.8197E-01     7.9074   0.3416    98.9605
 13      0.0000     0.0000E+00    0.0000E+00    1.434000E+09  0.00400  2.132E-04    0   0.5798   age139_m42            0.0000     9.1450E-01     7.8410  -0.6448   101.7707
 14      0.0000     0.0000E+00    0.0000E+00    4.250000E+09  0.00400  5.895E-05    0   0.5377   age158_m42            0.0000     9.1478E-01     7.9412  -1.0000    94.6266
 15      0.0000     0.0000E+00    0.0000E+00    7.500000E+09  0.00400  3.510E-05    0   0.5212   age171_m42            0.0000     1.2472E+00     8.8350  -1.0000    87.3068
 16      0.0000     0.0000E+00    0.0000E+00    1.300000E+10  0.00400  2.005E-05    0   0.5034   age193_m42            0.0000     1.7409E+00    10.0708  -1.0000    81.1158
 17      0.0000     0.0000E+00    0.0000E+00    1.800000E+10  0.00400  1.525E-05    0   0.4967   age213_m42            0.0000     1.7872E+00    10.2373  -1.0000    79.9772
 18      0.0000     0.0000E+00    0.0000E+00    1.000000E+06  0.00800  1.238E-02    0   1.0000   age020_m52            0.0000     8.8608E-01     7.5551   2.2683    82.1812
 19      0.0000     0.0000E+00    0.0000E+00    3.160000E+06  0.00800  3.074E-02    0   0.9966   age045_m52            0.0000     8.6308E-01     7.4992   2.1870    83.0996
 20      0.0000     0.0000E+00    0.0000E+00    5.010000E+06  0.00800  2.668E-02    0   0.9443   age055_m52            0.0000     8.0208E-01     7.3224   1.9284    85.6152
 21     56.2099     1.5448E+00    2.2815E+00    6.610000E+06  0.00800  2.136E-02    0   0.9177   age061_m52            0.0000     7.5332E-01     7.2146   0.6608    92.3229
 22      0.0000     0.0000E+00    0.0000E+00    1.000000E+07  0.00800  1.215E-02    0   0.8827   age070_m52            0.0000     8.5201E-01     7.5356   1.3429    90.9261
 23      0.0000     0.0000E+00    0.0000E+00    1.445000E+07  0.00800  8.717E-03    0   0.8552   age078_m52            0.0000     8.1100E-01     7.3740   1.4538    90.1173
 24      0.0000     0.0000E+00    0.0000E+00    2.512000E+07  0.00800  5.592E-03    0   0.8162   age090_m52            0.0000     8.3302E-01     7.4856   1.0843    93.3658
 25      0.0000     0.0000E+00    0.0000E+00    4.000000E+07  0.00800  3.896E-03    0   0.7841   age104_m52            0.0000     8.2284E-01     7.4593   0.9852    94.6097
 26      0.0000     0.0000E+00    0.0000E+00    1.015200E+08  0.00800  2.148E-03    0   0.7226   age116_m52            0.0000     8.2137E-01     7.4339   0.9104    95.0273
 27      0.0000     0.0000E+00    0.0000E+00    2.861200E+08  0.00800  9.925E-04    0   0.6683   age125_m52            0.0000     9.7471E-01     7.8709   0.4029   100.0472
 28      0.0000     0.0000E+00    0.0000E+00    9.047900E+08  0.00800  3.141E-04    0   0.6138   age135_m52            0.0000     1.0625E+00     8.4077  -0.4219   105.5948
 29      0.0000     0.0000E+00    0.0000E+00    1.434000E+09  0.00800  1.719E-04    0   0.5853   age139_m52            0.0000     9.4669E-01     8.1877  -0.9957   103.1644
 30      0.0000     0.0000E+00    0.0000E+00    2.500000E+09  0.00800  7.872E-05    0   0.5600   age150_m52            0.0000     1.2997E+00     9.0014  -1.0000    90.5838
 31      0.0000     0.0000E+00    0.0000E+00    4.250000E+09  0.00800  4.336E-05    0   0.5426   age158_m52            0.0000     1.3452E+00     9.0920  -1.0000    89.1629
 32      0.0000     0.0000E+00    0.0000E+00    6.250000E+09  0.00800  3.159E-05    0   0.5319   age166_m52            0.0000     2.0327E+00    10.6887  -1.0000    82.0239
 33      0.0000     0.0000E+00    0.0000E+00    1.300000E+10  0.00800  1.361E-05    0   0.5073   age193_m52            0.0000     4.2546E+00    15.4479  -1.0000    66.2234
 34      0.0000     0.0000E+00    0.0000E+00    1.800000E+10  0.00800  9.886E-06    0   0.4990   age213_m52            0.0000     4.9923E+00    16.6549  -1.0000    62.6935
 35      0.0000     0.0000E+00    0.0000E+00    1.000000E+06  0.02000  1.544E-02    0   1.0000   age020_m62            0.0000     8.8943E-01     7.5703   2.2646    82.3502
 36      0.0000     0.0000E+00    0.0000E+00    3.160000E+06  0.02000  3.762E-02    0   0.9858   age045_m62            0.0000     8.7923E-01     7.5414   2.2025    83.1164
 37      0.0165     2.9449E-04    4.4275E-04    5.010000E+06  0.02000  3.296E-02    0   0.9342   age055_m62            0.0000     7.7940E-01     7.2636   1.7892    88.1539
 38      0.0000     0.0000E+00    0.0000E+00    8.710000E+06  0.02000  1.154E-02    0   0.8861   age067_m62            0.0000     1.4052E+00     9.6055   0.8249    92.1674
 39      0.0000     0.0000E+00    0.0000E+00    1.445000E+07  0.02000  7.663E-03    0   0.8472   age078_m62            0.0000     9.6359E-01     8.0038   0.9943    92.8170
 40      0.0000     0.0000E+00    0.0000E+00    2.512000E+07  0.02000  4.532E-03    0   0.8099   age090_m62            0.0000     1.0038E+00     8.1522   0.9824    92.7562
 41      0.0000     0.0000E+00    0.0000E+00    5.500000E+07  0.02000  2.733E-03    0   0.7595   age110_m62            0.0000     8.2232E-01     7.4438   0.9714    93.7629
 42      0.0000     0.0000E+00    0.0000E+00    1.609000E+08  0.02000  1.369E-03    0   0.6985   age120_m62            0.0000     9.1706E-01     7.6646   0.7823    97.6371
 43      0.0000     0.0000E+00    0.0000E+00    2.861200E+08  0.02000  9.013E-04    0   0.6714   age125_m62            0.0000     1.0564E+00     8.0345   0.5134   101.3350
 44      0.0000     0.0000E+00    0.0000E+00    5.088000E+08  0.02000  5.028E-04    0   0.6449   age130_m62            0.0000     1.1615E+00     8.4596   0.1146   105.0554
 45      0.0000     0.0000E+00    0.0000E+00    9.047900E+08  0.02000  2.428E-04    0   0.6179   age135_m62            0.0000     1.0511E+00     8.4403  -0.4776   104.8104
 46      0.0000     0.0000E+00    0.0000E+00    1.434000E+09  0.02000  1.263E-04    0   0.5908   age139_m62            0.0000     1.0427E+00     8.4807  -0.9191   103.1756
 47      0.0000     0.0000E+00    0.0000E+00    2.500000E+09  0.02000  5.985E-05    0   0.5673   age150_m62            0.0000     1.4903E+00     9.4159  -1.0000    91.0587
 48      0.0000     0.0000E+00    0.0000E+00    4.250000E+09  0.02000  3.271E-05    0   0.5468   age158_m62            0.0000     2.6242E+00    11.8788  -1.0000    79.4778
 49      0.0000     0.0000E+00    0.0000E+00    1.000000E+10  0.02000  1.360E-05    0   0.5167   age181_m62            0.0000     4.5284E+00    15.4384  -1.0000    67.7843
 50      0.0000     0.0000E+00    0.0000E+00    1.800000E+10  0.02000  7.124E-06    0   0.5013   age213_m62            0.0000     5.8872E+00    17.6661  -1.0000    61.0018
 51      4.4333     1.0041E-01    1.6156E-01    1.000000E+06  0.05000  2.592E-02    0   0.9998   age020_m72            0.0000     9.0799E-01     7.6363   2.2601    82.2166
 52      0.0000     0.0000E+00    0.0000E+00    3.160000E+06  0.05000  4.845E-02    0   0.9577   age045_m72            0.0000     8.2651E-01     7.3942   2.0701    84.8561
 53      0.0000     0.0000E+00    0.0000E+00    5.010000E+06  0.05000  3.072E-02    0   0.9147   age055_m72            0.0000     9.2527E-01     7.7817   1.5882    88.8413
 54      0.0000     0.0000E+00    0.0000E+00    6.610000E+06  0.05000  1.455E-02    0   0.8877   age061_m72            0.0000     2.0965E+00    11.6361   0.8770    92.5675
 55      0.0000     0.0000E+00    0.0000E+00    1.000000E+07  0.05000  9.074E-03    0   0.8524   age070_m72            0.0000     1.0501E+00     8.1698   1.7709    88.5804
 56      0.0000     0.0000E+00    0.0000E+00    2.512000E+07  0.05000  4.250E-03    0   0.7902   age090_m72            0.0000     9.5600E-01     7.8945   1.4485    91.2638
 57      0.0000     0.0000E+00    0.0000E+00    4.000000E+07  0.05000  3.087E-03    0   0.7618   age104_m72            0.0000     9.9224E-01     8.0566   1.2113    93.2295
 58      0.0000     0.0000E+00    0.0000E+00    1.015200E+08  0.05000  1.700E-03    0   0.7096   age116_m72            0.0000     9.2745E-01     7.7318   0.9290    97.0104
 59      0.0000     0.0000E+00    0.0000E+00    2.861200E+08  0.05000  7.384E-04    0   0.6633   age125_m72            0.0000     1.1186E+00     8.3088   0.3659   103.4936
 60     12.8521     1.9756E+01    2.0259E+01    5.088000E+08  0.05000  3.819E-04    0   0.6372   age130_m72            0.0000     1.0771E+00     8.4634  -0.1428   106.0215
 61     22.4357     7.8583E+01    7.7272E+01    9.047900E+08  0.05000  1.676E-04    0   0.6110   age135_m72            0.0000     1.1664E+00     8.9698  -0.8421   104.3639
 62      0.0000     0.0000E+00    0.0000E+00    1.434000E+09  0.05000  8.837E-05    0   0.5874   age139_m72            0.0000     1.5742E+00     9.6222  -1.0000    92.4416
 63      0.0000     0.0000E+00    0.0000E+00    2.500000E+09  0.05000  4.233E-05    0   0.5598   age150_m72            0.0000     2.7424E+00    12.0495  -1.0000    80.1590
 64      0.0000     0.0000E+00    0.0000E+00    6.250000E+09  0.05000  1.435E-05    0   0.5249   age166_m72            0.0000     5.0848E+00    16.4525  -1.0000    64.5559
 65      0.0000     0.0000E+00    0.0000E+00    1.300000E+10  0.05000  6.513E-06    0   0.5036   age193_m72            0.0000     6.9428E+00    19.4967  -1.0000    57.0942
 66      0.0000     0.0000E+00    0.0000E+00    1.800000E+10  0.05000  4.527E-06    0   0.4945   age213_m72            0.0000     8.0557E+00    21.2383  -1.0000    52.7151


## Synthesis Results - Average & Chains ##

# j      x_j: min, <> & last-chain-values for 1 ...  7 chains
  1      0.0000      0.3168      1.0203      0.0000      0.0000      0.0000      0.5332      4.2781      0.0000
  2      1.0788      0.5203      0.0000      0.0000      0.5174      0.5401      0.0000      0.0000      2.8603
  3      0.0000      0.5638      1.2515      0.1415      0.0000      0.0000      0.2900      0.2852      0.8198
  4      0.0000      0.5103      1.1858      0.0000      0.0000      0.0000      0.3499      0.9075      0.0000
  5      0.0000      0.4191      0.0000      0.0000      1.5966      0.0000      0.0000      0.1437      3.7402
  6      0.0000      0.5355      0.0000      0.3812      0.5662      0.0000      1.2724      0.0211      0.0000
  7      0.0000      0.5795      0.0000      0.0000      1.1542      0.0000      0.5159      0.0000      0.0000
  8      0.0000      0.5795      0.0000      0.0000      0.0000      0.0000      0.0000      0.0000      0.0000
  9      0.0000      0.3578      0.0000      0.0000      0.0000      0.0000      0.0000      0.0561      0.0000
 10      0.0000      0.3465      0.9141      0.0000      0.0000      0.0000      0.0000      0.0000      0.0000
 11      0.0000      0.2998      0.0000      0.0000      0.0000      0.2050      0.0000      0.0000      0.2307
 12      0.0000      0.4203      0.0000      2.2487      0.0000      0.0000      0.0000      0.0000      0.0000
 13      0.0000      0.3054      0.0000      0.0000      0.0000      0.0000      0.0000      1.2964      0.0000
 14      0.0000      0.2205      0.0000      0.0000      0.9616      0.0000      0.0000      0.0000      0.0000
 15      0.0000      0.0876      0.0000      0.0000      0.0000      0.0000      0.0000      0.0000      0.0000
 16      0.0000      0.0538      0.0000      0.0000      0.0000      0.7463      0.5547      0.0000      0.0000
 17      0.0000      0.0464      0.0384      0.2662      0.0000      0.0000      0.0000      0.0000      0.0000
 18      0.0000      0.2695      1.2052      0.0000      0.0000      0.0000      0.0017      0.5870      0.0000
 19      0.0000      1.2736      1.2521      1.0101      8.2239      0.8256      2.3607      0.5161      0.0000
 20      0.0000      0.6398      0.0000      0.0000      0.0000      1.9417      3.1730      0.2037      0.0000
 21     56.2099     39.3466     40.7255     46.3593     39.6681     45.5754     41.0603     46.9322     45.1616
 22      0.0000      0.4422      0.0000      0.0000      0.1625      0.8860      0.0000      0.0000      0.0000
 23      0.0000      0.2491      0.0000      0.6716      0.0000      0.0000      0.0000      0.0000      0.0000
 24      0.0000      0.5421      0.5871      0.0000      0.0000      1.7622      0.0000      0.0000      0.0000
 25      0.0000      0.6378      0.4099      0.0000      0.0000      0.3006      0.0000      0.0177      0.0000
 26      0.0000      0.4673      1.0457      0.0000      0.0000      0.0000      0.0000      0.0000      0.3129
 27      0.0000      0.3928      0.0000      0.0472      0.0000      0.0000      0.0000      0.0000      0.0000
 28      0.0000      0.3635      0.1283      0.9133      0.0000      0.0422      0.0000      0.5982      0.0000
 29      0.0000      0.1716      0.0000      0.1035      0.0000      0.0000      0.0039      0.0000      0.0000
 30      0.0000      0.1139      0.0000      0.0000      0.0000      0.0000      0.0000      0.0000      0.0000
 31      0.0000      0.1842      0.0000      0.0000      0.0288      0.0000      1.1032      0.0000      0.0000
 32      0.0000      0.1513      0.0000      0.0000      0.1927      0.0000      0.0000      0.3888      0.0000
 33      0.0000      0.0116      0.0000      0.0000      0.0000      0.0000      0.0000      0.0000      0.0000
 34      0.0000      0.0459      0.0000      0.0000      0.0000      0.0000      0.0000      0.0000      0.0000
 35      0.0000      1.3258      1.8205      0.0000      0.5368      4.7268      1.5232      0.0000      2.6832
 36      0.0000      0.9027      0.9350      2.3990      0.0000      0.0000      0.4812      0.0000      0.0000
 37      0.0165      0.4143      0.0000      0.9243      0.6879      0.0000      0.0000      1.2029      1.1373
 38      0.0000      0.5315      0.0000      0.0000      0.0000      0.0000      0.0000      0.0000      0.0000
 39      0.0000      0.3478      0.9489      0.0000      1.1632      0.0000      0.4787      0.1267      0.0000
 40      0.0000      0.3918      0.0000      0.0000      0.0000      0.0000      0.0000      0.0000      0.0000
 41      0.0000      0.4615      3.3028      0.0000      0.0000      0.0000      0.0000      0.0000      0.0000
 42      0.0000      0.5248      0.2409      0.0000      0.0000      0.5805      0.2597      0.0000      0.0000
 43      0.0000      0.4344      0.0000      1.0441      0.0000      0.0000      0.2457      0.0000      0.0000
 44      0.0000      0.6327      0.0000      0.0000      0.0000      0.7957      0.0000      0.1705      0.2869
 45      0.0000      0.9371      2.1315      0.0000      0.0000      1.1785      1.1561      0.0000      0.0000
 46      0.0000      0.6735      0.1962      0.0000      0.0000      0.0000      0.0000      2.4033      0.0000
