###################################################################
## OUTPUT of StarlightChains_v04.for    [Cid@UFSC - 01/Apr/2007] ##
###################################################################

## Some input info
2004ge.txt                               [arq_obs]
Base.CB07.vall.4m                        [arq_base]
Masks.EmLines.NEW.gm                     [arq_masks]
StCv04.C11.config                        [arq_config]
   66                                    [N_base]
    0                                    [N_YAV_components = # of components with extra extinction!]
    0                                    [i_FitPowerLaw (1/0 = Yes/No)]
-9.99                                    [alpha_PowerLaw]
CCM                                      [red_law_option]
 1.458241                                [q_norm = A(l_norm)/A(V)]

## (Re)Sampling Parameters
 3741.00                                 [l_ini (A)]
 7218.00                                 [l_fin (A)]
    1.00                                 [dl    (A)]     (OBS: dl_cushion =    50.00 A)

## Normalization info
 4020.00                                 [l_norm (A) - for base]
 4010.00                                 [llow_norm (A) - window for f_obs]
 4060.00                                 [lupp_norm (A) - window for f_obs]
1.890164E-16                             [fobs_norm (in input units)]

## S/N
 3691.00                                 [llow_SN (A) - window for S/N]
 7268.00                                 [lupp_SN (A) - window for S/N]
   6.994                                 [S/N in S/N window]
   6.265                                 [S/N in norm. window]
  30.514                                 [S/N_err in S/N window]
  27.333                                 [S/N_err in norm. window]
  1.0000                                 [fscale_chi2]

## etc...
    -2007293                             [idum_orig]
  2384                                   [NOl_eff]
  2381                                   [Nl_eff]
     3    NSIGMA                         [Ntot_cliped & clip_method]
  2101260                                [Nglobal_steps]
   7                                     [N_chains]
  30                                     [NEX0s_base = N_base in EX0s-fits]
 0   0   1        4   2.0   5.322E+01    [Clip-Bug, RC-Crash & Burn-In warning-flags, n_censored_weights, wei_nsig_threshold & wei_limit]
    20     19.713     19.222      0.492  [idt_all, wdt_TotTime, wdt_UsrTime & wdt_SysTime (sec)]

## Synthesis Results - Best model ##

 5.94029E-01                             [chi2/Nl_eff]
     1.96356                             [adev (%)]

   103.15376                             [sum-of-x (%)]
 4.11290E-16                             [Flux_tot (units of input spectrum!)]
 7.46487E-12                             [Mini_tot (???)]
 3.96558E-12                             [Mcor_tot (???)]

-254.46                                  [v0_min  (km/s)]
 150.31                                  [vd_min  (km/s)]
 0.5557                                  [AV_min  (mag)]
 0.0000                                  [YAV_min (mag)]

# j     x_j(%)      Mini_j(%)     Mcor_j(%)     age_j(yr)     Z_j      (L/M)_j    YAV?  Mstars   component_j        a/Fe...       SSP_chi2r SSP_adev(%)   SSP_AV   SSP_x(%)
  1      0.3976     1.9412E-03    3.6541E-03    1.000000E+06  0.00400  1.094E-02    0   1.0000   age020_m42            0.0000     4.0807E+00     5.9897   3.5469    85.9636
  2      0.0000     0.0000E+00    0.0000E+00    3.160000E+06  0.00400  4.007E-02    0   0.9999   age045_m42            0.0000     3.3116E+00     4.8271   2.8064    92.5198
  3      1.4309     3.0102E-03    5.3764E-03    5.010000E+06  0.00400  2.539E-02    0   0.9488   age055_m42            0.0000     3.5163E+00     5.2495   3.1273    90.1969
  4      0.0000     0.0000E+00    0.0000E+00    6.610000E+06  0.00400  2.620E-02    0   0.9220   age061_m42            0.0000     3.1144E+00     4.7151   2.7192    93.3065
  5      0.6502     2.6269E-03    4.3822E-03    1.000000E+07  0.00400  1.322E-02    0   0.8862   age070_m42            0.0000     2.8285E+00     4.7153   2.3451    99.3770
  6      0.0000     0.0000E+00    0.0000E+00    1.445000E+07  0.00400  7.883E-03    0   0.8571   age078_m42            0.0000     3.1120E+00     5.0171   2.6858    96.2454
  7      0.0000     0.0000E+00    0.0000E+00    2.512000E+07  0.00400  5.251E-03    0   0.8174   age090_m42            0.0000     2.8574E+00     4.7818   2.1980   100.7186
  8      0.3999     5.8542E-03    8.6518E-03    4.000000E+07  0.00400  3.649E-03    0   0.7851   age104_m42            0.0000     2.5924E+00     4.5116   1.9764   101.2978
  9      0.0000     0.0000E+00    0.0000E+00    5.500000E+07  0.00400  3.098E-03    0   0.7629   age110_m42            0.0000     2.5854E+00     4.3032   2.1669    99.6257
 10      0.0000     0.0000E+00    0.0000E+00    1.015200E+08  0.00400  2.228E-03    0   0.7207   age116_m42            0.0000     2.5935E+00     4.2891   2.2113    98.7375
 11      0.0000     0.0000E+00    0.0000E+00    2.861200E+08  0.00400  1.093E-03    0   0.6648   age125_m42            0.0000     2.9709E+00     4.5524   1.5936   103.9783
 12      0.0000     0.0000E+00    0.0000E+00    5.088000E+08  0.00400  6.597E-04    0   0.6365   age130_m42            0.0000     2.4814E+00     4.2161   1.6252   102.9088
 13     19.5502     4.8978E+00    5.3456E+00    1.434000E+09  0.00400  2.132E-04    0   0.5798   age139_m42            0.0000     9.9854E-01     2.7060   0.6766   103.8971
 14      1.3063     1.1836E+00    1.1980E+00    4.250000E+09  0.00400  5.895E-05    0   0.5377   age158_m42            0.0000     9.5797E-01     2.6788   0.3056    96.7881
 15      0.0012     1.8976E-03    1.8618E-03    7.500000E+09  0.00400  3.510E-05    0   0.5212   age171_m42            0.0000     1.1348E+00     3.1175   0.1418    95.1221
 16      0.0000     0.0000E+00    0.0000E+00    1.300000E+10  0.00400  2.005E-05    0   0.5034   age193_m42            0.0000     1.4324E+00     3.6195  -0.0023    93.7320
 17      0.0000     0.0000E+00    0.0000E+00    1.800000E+10  0.00400  1.525E-05    0   0.4967   age213_m42            0.0000     1.3833E+00     3.5170  -0.0304    93.5184
 18      3.1380     1.3539E-02    2.5485E-02    1.000000E+06  0.00800  1.238E-02    0   1.0000   age020_m52            0.0000     4.0621E+00     5.9844   3.5432    86.1329
 19      0.0000     0.0000E+00    0.0000E+00    3.160000E+06  0.00800  3.074E-02    0   0.9966   age045_m52            0.0000     3.9599E+00     5.8690   3.4715    86.6990
 20      0.0000     0.0000E+00    0.0000E+00    5.010000E+06  0.00800  2.668E-02    0   0.9443   age055_m52            0.0000     3.4503E+00     5.3293   3.2084    89.4444
 21      3.3296     8.3259E-03    1.4383E-02    6.610000E+06  0.00800  2.136E-02    0   0.9177   age061_m52            0.0000     1.9767E+00     4.1184   1.8581    99.9284
 22      0.0000     0.0000E+00    0.0000E+00    1.000000E+07  0.00800  1.215E-02    0   0.8827   age070_m52            0.0000     3.1040E+00     5.0555   2.4967   100.4172
 23      3.3073     2.0265E-02    3.2624E-02    1.445000E+07  0.00800  8.717E-03    0   0.8552   age078_m52            0.0000     2.8594E+00     4.8101   2.6452    97.8615
 24      0.0000     0.0000E+00    0.0000E+00    2.512000E+07  0.00800  5.592E-03    0   0.8162   age090_m52            0.0000     2.7650E+00     4.7140   2.2514   102.4139
 25      2.8876     3.9588E-02    5.8432E-02    4.000000E+07  0.00800  3.896E-03    0   0.7841   age104_m52            0.0000     2.6885E+00     4.5174   2.1765   102.6242
 26      0.0000     0.0000E+00    0.0000E+00    1.015200E+08  0.00800  2.148E-03    0   0.7226   age116_m52            0.0000     2.4548E+00     4.1964   2.1545   100.6428
 27      0.0000     0.0000E+00    0.0000E+00    2.861200E+08  0.00800  9.925E-04    0   0.6683   age125_m52            0.0000     2.2468E+00     4.0655   1.6845   104.1255
 28      0.0000     0.0000E+00    0.0000E+00    9.047900E+08  0.00800  3.141E-04    0   0.6138   age135_m52            0.0000     1.4824E+00     3.2003   0.9330   106.2300
 29      0.0000     0.0000E+00    0.0000E+00    1.434000E+09  0.00800  1.719E-04    0   0.5853   age139_m52            0.0000     1.2453E+00     2.6731   0.3624   103.5971
 30      0.0000     0.0000E+00    0.0000E+00    2.500000E+09  0.00800  7.872E-05    0   0.5600   age150_m52            0.0000     1.1743E+00     3.3334   0.1684    97.5212
 31      0.0000     0.0000E+00    0.0000E+00    4.250000E+09  0.00800  4.336E-05    0   0.5426   age158_m52            0.0000     1.2502E+00     3.4369   0.1590    96.3498
 32      0.0000     0.0000E+00    0.0000E+00    6.250000E+09  0.00800  3.159E-05    0   0.5319   age166_m52            0.0000     1.6286E+00     4.1672  -0.0083    94.8662
 33      0.0014     5.3309E-03    5.0907E-03    1.300000E+10  0.00800  1.361E-05    0   0.5073   age193_m52            0.0000     2.2693E+00     5.1176  -0.4312    92.3575
 34      0.0000     0.0000E+00    0.0000E+00    1.800000E+10  0.00800  9.886E-06    0   0.4990   age213_m52            0.0000     2.9575E+00     5.9591  -0.4996    90.3076
 35      1.5883     5.4945E-03    1.0343E-02    1.000000E+06  0.02000  1.544E-02    0   1.0000   age020_m62            0.0000     4.0864E+00     6.0202   3.5410    86.2616
 36      0.5691     8.0795E-04    1.4993E-03    3.160000E+06  0.02000  3.762E-02    0   0.9858   age045_m62            0.0000     4.0677E+00     5.9963   3.4834    86.8774
 37      0.0000     0.0000E+00    0.0000E+00    5.010000E+06  0.02000  3.296E-02    0   0.9342   age055_m62            0.0000     3.3290E+00     5.0542   3.0959    90.9660
 38      8.9473     4.1412E-02    6.9076E-02    8.710000E+06  0.02000  1.154E-02    0   0.8861   age067_m62            0.0000     6.3564E+00     8.3044   1.7869   111.0818
 39      0.0000     0.0000E+00    0.0000E+00    1.445000E+07  0.02000  7.663E-03    0   0.8472   age078_m62            0.0000     3.7663E+00     5.7430   2.0856   105.4351
 40      0.5132     6.0484E-03    9.2212E-03    2.512000E+07  0.02000  4.532E-03    0   0.8099   age090_m62            0.0000     4.2070E+00     6.0188   2.0650   105.7691
 41      0.0000     0.0000E+00    0.0000E+00    5.500000E+07  0.02000  2.733E-03    0   0.7595   age110_m62            0.0000     2.5230E+00     4.4033   2.1610   101.7953
 42      0.0000     0.0000E+00    0.0000E+00    1.609000E+08  0.02000  1.369E-03    0   0.6985   age120_m62            0.0000     2.3357E+00     4.1900   2.0399   102.7365
 43      0.0800     4.7428E-03    5.9943E-03    2.861200E+08  0.02000  9.013E-04    0   0.6714   age125_m62            0.0000     2.0425E+00     4.0932   1.8070   104.8682
 44      0.0000     0.0000E+00    0.0000E+00    5.088000E+08  0.02000  5.028E-04    0   0.6449   age130_m62            0.0000     1.7427E+00     3.8008   1.4849   105.0250
 45      0.0000     0.0000E+00    0.0000E+00    9.047900E+08  0.02000  2.428E-04    0   0.6179   age135_m62            0.0000     1.1464E+00     3.1207   0.9285   103.0500
 46      0.0000     0.0000E+00    0.0000E+00    1.434000E+09  0.02000  1.263E-04    0   0.5908   age139_m62            0.0000     1.0316E+00     3.1045   0.5050   100.5858
 47      0.0005     4.5191E-04    4.8259E-04    2.500000E+09  0.02000  5.985E-05    0   0.5673   age150_m62            0.0000     1.5153E+00     4.0545   0.1948    96.7572
 48      4.7431     7.7451E+00    7.9721E+00    4.250000E+09  0.02000  3.271E-05    0   0.5468   age158_m62            0.0000     2.2931E+00     5.2220  -0.0534    93.5388
 49      5.1651     2.0285E+01    1.9730E+01    1.000000E+10  0.02000  1.360E-05    0   0.5167   age181_m62            0.0000     3.5294E+00     6.6305  -0.3440    90.8031
 50      3.5754     2.6807E+01    2.5296E+01    1.800000E+10  0.02000  7.124E-06    0   0.5013   age213_m62            0.0000     4.6792E+00     7.7192  -0.5049    88.1533
 51      0.4074     8.3948E-04    1.5799E-03    1.000000E+06  0.05000  2.592E-02    0   0.9998   age020_m72            0.0000     4.1465E+00     6.1251   3.5300    86.3793
 52      0.0000     0.0000E+00    0.0000E+00    3.160000E+06  0.05000  4.845E-02    0   0.9577   age045_m72            0.0000     3.8625E+00     5.6440   3.3710    87.8624
 53      0.0000     0.0000E+00    0.0000E+00    5.010000E+06  0.05000  3.072E-02    0   0.9147   age055_m72            0.0000     4.3102E+00     5.7041   2.7347    98.5754
 54      0.0000     0.0000E+00    0.0000E+00    6.610000E+06  0.05000  1.455E-02    0   0.8877   age061_m72            0.0000     1.6623E+01    11.7497   1.7480   116.6086
 55      0.0000     0.0000E+00    0.0000E+00    1.000000E+07  0.05000  9.074E-03    0   0.8524   age070_m72            0.0000     7.7375E+00     6.7494   2.9024    99.0368
 56      0.0000     0.0000E+00    0.0000E+00    2.512000E+07  0.05000  4.250E-03    0   0.7902   age090_m72            0.0000     5.3851E+00     5.8527   2.5972   101.1049
 57      0.0000     0.0000E+00    0.0000E+00    4.000000E+07  0.05000  3.087E-03    0   0.7618   age104_m72            0.0000     5.4945E+00     5.9478   2.3510   103.6456
 58      0.0000     0.0000E+00    0.0000E+00    1.015200E+08  0.05000  1.700E-03    0   0.7096   age116_m72            0.0000     2.8558E+00     4.5517   2.1514   103.7417
 59      0.0000     0.0000E+00    0.0000E+00    2.861200E+08  0.05000  7.384E-04    0   0.6633   age125_m72            0.0000     1.7518E+00     3.8406   1.7000   105.1329
 60      2.6697     3.7339E-01    4.4787E-01    5.088000E+08  0.05000  3.819E-04    0   0.6372   age130_m72            0.0000     1.1346E+00     3.1762   1.2647   104.1613
 61     27.3873     8.7280E+00    1.0039E+01    9.047900E+08  0.05000  1.676E-04    0   0.6110   age135_m72            0.0000     1.4663E+00     4.0423   0.6518    98.6133
 62      0.0002     9.9526E-05    1.1005E-04    1.434000E+09  0.05000  8.837E-05    0   0.5874   age139_m72            0.0000     1.6367E+00     4.2581   0.1980    98.0145
 63      6.0869     7.6805E+00    8.0935E+00    2.500000E+09  0.05000  4.233E-05    0   0.5598   age150_m72            0.0000     2.6590E+00     5.6552  -0.0368    93.6167
 64      4.2552     1.5838E+01    1.5650E+01    6.250000E+09  0.05000  1.435E-05    0   0.5249   age166_m72            0.0000     4.0136E+00     7.0741  -0.4226    89.6901
 65      0.7570     6.2081E+00    5.8852E+00    1.300000E+10  0.05000  6.513E-06    0   0.5036   age193_m72            0.0000     5.6316E+00     8.4631  -0.6408    88.0767
 66      0.0077     9.1165E-02    8.4861E-02    1.800000E+10  0.05000  4.527E-06    0   0.4945   age213_m72            0.0000     6.7877E+00     9.3138  -0.7635    86.4053


## Synthesis Results - Average & Chains ##

# j      x_j: min, <> & last-chain-values for 1 ...  7 chains
  1      0.3976      0.6576      0.8120      0.6474      0.7708      0.0786      1.1532      0.6690      0.9379
  2      0.0000      0.1226      0.1507      0.3171      0.0000      0.0000      0.0000      0.2274      0.0196
  3      1.4309      1.6586      1.7176      1.4841      1.9270      1.7546      1.8201      1.5914      1.9352
  4      0.0000      0.0996      0.0000      0.0000      0.0866      0.0000      0.3067      0.8103      0.0000
  5      0.6502      0.9463      0.8833      0.8188      0.9758      0.9760      0.9733      1.3886      0.9002
  6      0.0000      0.3017      0.0000      0.5853      0.0000      0.3412      0.5191      0.0000      0.2871
  7      0.0000      0.1378      0.1980      0.0284      0.6140      0.0000      0.0183      0.0000      0.1282
  8      0.3999      0.6639      0.3866      1.0355      0.4509      0.4982      1.0130      0.0000      0.7222
  9      0.0000      0.7222      0.7037      0.6972      1.3692      0.6860      0.0000      0.6023      0.0000
 10      0.0000      0.1718      0.0000      0.3045      0.0087      0.3255      0.0000      0.2973      0.1213
 11      0.0000      0.0983      0.4395      0.0000      0.0000      0.0000      0.0000      0.2546      0.0000
 12      0.0000      0.1173      0.0000      0.0290      0.1410      0.1001      0.0000      0.2119      0.0000
 13     19.5502     12.8449     12.9020     13.3456     13.2300     13.1167     15.3366     13.9210     14.9339
 14      1.3063      3.1611      3.3592      2.4077      3.0580      1.1988      2.1309      3.0604      2.0834
 15      0.0012      1.6854      2.0575      1.7392      1.3250      1.8515      1.7422      1.5666      0.7857
 16      0.0000      0.0835      0.0106      0.0000      0.0000      0.0348      0.0000      0.0000      0.5550
 17      0.0000      1.2467      0.7644      0.6106      1.2955      1.3901      0.0000      0.8228      0.4570
 18      3.1380      2.1841      2.3136      2.3518      2.1910      2.5384      1.9376      2.2499      2.4707
 19      0.0000      0.1388      0.0428      0.0000      0.2391      0.1308      0.0000      0.1448      0.0000
 20      0.0000      0.0735      0.0000      0.3361      0.4236      0.0233      0.0000      0.0000      0.0000
 21      3.3296      3.3929      3.7625      3.2774      3.3496      2.9853      3.3856      3.1727      3.7717
 22      0.0000      0.3878      0.1346      0.6388      0.6870      0.6898      0.5872      0.1445      0.3175
 23      3.3073      2.8143      3.0189      2.8021      2.1590      2.4734      2.9320      3.8962      3.3190
 24      0.0000      0.1426      0.3159      0.0000      0.0707      0.3017      0.4987      0.5412      0.0000
 25      2.8876      3.0381      3.0447      3.7457      2.6502      5.0739      2.8092      2.7834      3.1704
 26      0.0000      0.2282      0.1581      0.5153      0.8395      0.0000      0.0000      0.1964      0.0000
 27      0.0000      0.1663      0.0000      0.0000      0.1350      0.0000      0.0000      0.0000      0.0000
 28      0.0000      0.1562      0.0000      0.0000      0.2443      0.0000      0.1702      0.0000      0.0000
 29      0.0000      0.1031      0.0000      0.0000      0.0000      0.0000      0.0000      0.0000      0.0000
 30      0.0000      0.1475      0.0000      0.0000      0.2653      0.0000      0.0000      0.0000      0.0000
 31      0.0000      0.1400      0.1140      0.0000      0.0000      0.0964      0.0000      0.1356      0.0000
 32      0.0000      0.0842      0.0000      0.0000      0.1887      0.0000      0.0000      0.0000      0.0000
 33      0.0014      0.5180      0.6041      0.5387      0.4670      0.4904      0.0281      0.3298      0.5200
 34      0.0000      0.1280      0.0000      0.0212      0.7278      0.0000      0.0000      0.0000      0.0638
 35      1.5883      1.1544      1.2642      1.2549      1.4282      1.1804      1.5093      0.9316      1.4035
 36      0.5691      0.7135      0.6042      0.4262      0.8543      0.7756      0.7648      0.8562      1.4333
 37      0.0000      0.4079      0.0000      0.5125      0.3668      0.0000      0.2756      0.3756      0.0000
 38      8.9473      4.7116      5.7146      4.7801      5.1058      5.3961      4.4609      5.1309      5.2346
 39      0.0000      0.1016      0.0000      0.0000      0.1273      0.0992      0.0000      0.0000      0.1832
 40      0.5132      0.7524      1.3817      0.5817      0.0000      0.6548      0.8088      0.4791      0.8842
 41      0.0000      0.2422      0.0000      0.2070      0.0000      0.0000      0.3079      0.1343      0.0000
 42      0.0000      0.1045      0.1874      0.0000      0.0000      0.4164      0.0000      0.1788      0.0000
 43      0.0800      1.1801      1.0810      1.3841      1.2389      1.2556      1.3939      0.6056      1.9718
 44      0.0000      0.1443      0.0000      0.0000      0.1397      0.0632      0.0000      0.0000      0.0000
 45      0.0000      0.2029      0.1442      0.0000      0.0000      0.0000      0.0000      0.0000      0.1038
 46      0.0000      0.3106      0.0000      0.0000      0.0000      0.0000      0.2450      0.0000      0.0000
