###################################################################
## OUTPUT of StarlightChains_v04.for    [Cid@UFSC - 01/Apr/2007] ##
###################################################################

## Some input info
2005az.txt                               [arq_obs]
Base.CB07.vall.4m                        [arq_base]
Masks.EmLines.NEW.gm                     [arq_masks]
StCv04.C11.config                        [arq_config]
   66                                    [N_base]
    0                                    [N_YAV_components = # of components with extra extinction!]
    0                                    [i_FitPowerLaw (1/0 = Yes/No)]
-9.99                                    [alpha_PowerLaw]
CCM                                      [red_law_option]
 1.458241                                [q_norm = A(l_norm)/A(V)]

## (Re)Sampling Parameters
 3741.00                                 [l_ini (A)]
 7218.00                                 [l_fin (A)]
    1.00                                 [dl    (A)]     (OBS: dl_cushion =    50.00 A)

## Normalization info
 4020.00                                 [l_norm (A) - for base]
 4010.00                                 [llow_norm (A) - window for f_obs]
 4060.00                                 [lupp_norm (A) - window for f_obs]
8.429555E-16                             [fobs_norm (in input units)]

## S/N
 3691.00                                 [llow_SN (A) - window for S/N]
 7268.00                                 [lupp_SN (A) - window for S/N]
   4.753                                 [S/N in S/N window]
   6.707                                 [S/N in norm. window]
  28.993                                 [S/N_err in S/N window]
  40.916                                 [S/N_err in norm. window]
  1.0000                                 [fscale_chi2]

## etc...
    -2007296                             [idum_orig]
  2383                                   [NOl_eff]
  2373                                   [Nl_eff]
    10    NSIGMA                         [Ntot_cliped & clip_method]
  1359260                                [Nglobal_steps]
   7                                     [N_chains]
  17                                     [NEX0s_base = N_base in EX0s-fits]
 0   0   1       11   2.0   6.919E+01    [Clip-Bug, RC-Crash & Burn-In warning-flags, n_censored_weights, wei_nsig_threshold & wei_limit]
    16     16.210     15.712      0.498  [idt_all, wdt_TotTime, wdt_UsrTime & wdt_SysTime (sec)]

## Synthesis Results - Best model ##

 3.48118E-01                             [chi2/Nl_eff]
     1.46187                             [adev (%)]

   103.36610                             [sum-of-x (%)]
 1.50778E-15                             [Flux_tot (units of input spectrum!)]
 1.98230E-12                             [Mini_tot (???)]
 1.24450E-12                             [Mcor_tot (???)]

  79.42                                  [v0_min  (km/s)]
 206.20                                  [vd_min  (km/s)]
 0.4083                                  [AV_min  (mag)]
 0.0000                                  [YAV_min (mag)]

# j     x_j(%)      Mini_j(%)     Mcor_j(%)     age_j(yr)     Z_j      (L/M)_j    YAV?  Mstars   component_j        a/Fe...       SSP_chi2r SSP_adev(%)   SSP_AV   SSP_x(%)
  1      4.5395     3.0534E-01    4.8636E-01    1.000000E+06  0.00400  1.094E-02    0   1.0000   age020_m42            0.0000     2.5640E+00     4.1541   2.0258    92.8786
  2      0.0000     0.0000E+00    0.0000E+00    3.160000E+06  0.00400  4.007E-02    0   0.9999   age045_m42            0.0000     1.5920E+00     3.3101   1.3406    97.4100
  3      0.0000     0.0000E+00    0.0000E+00    5.010000E+06  0.00400  2.539E-02    0   0.9488   age055_m42            0.0000     1.7886E+00     3.4042   1.6425    95.8467
  4      0.0000     0.0000E+00    0.0000E+00    6.610000E+06  0.00400  2.620E-02    0   0.9220   age061_m42            0.0000     1.4422E+00     3.1269   1.2698    97.5456
  5      0.0000     0.0000E+00    0.0000E+00    1.000000E+07  0.00400  1.322E-02    0   0.8862   age070_m42            0.0000     7.7308E-01     2.0110   0.9897    99.7188
  6      0.0000     0.0000E+00    0.0000E+00    1.445000E+07  0.00400  7.883E-03    0   0.8571   age078_m42            0.0000     9.6840E-01     2.2180   1.3068    97.6345
  7      0.0000     0.0000E+00    0.0000E+00    2.512000E+07  0.00400  5.251E-03    0   0.8174   age090_m42            0.0000     7.6314E-01     1.9557   0.8632   100.1338
  8      0.0000     0.0000E+00    0.0000E+00    4.000000E+07  0.00400  3.649E-03    0   0.7851   age104_m42            0.0000     7.1629E-01     1.9631   0.6408   100.7122
  9      0.0000     0.0000E+00    0.0000E+00    5.500000E+07  0.00400  3.098E-03    0   0.7629   age110_m42            0.0000     1.0327E+00     2.3937   0.8015   100.3054
 10      0.0000     0.0000E+00    0.0000E+00    1.015200E+08  0.00400  2.228E-03    0   0.7207   age116_m42            0.0000     1.4146E+00     2.7878   0.8277   100.1778
 11      0.0000     0.0000E+00    0.0000E+00    2.861200E+08  0.00400  1.093E-03    0   0.6648   age125_m42            0.0000     1.4840E+00     2.7239   0.2692   102.7846
 12      0.0000     0.0000E+00    0.0000E+00    5.088000E+08  0.00400  6.597E-04    0   0.6365   age130_m42            0.0000     2.0968E+00     3.1184   0.2651   103.2676
 13      0.0000     0.0000E+00    0.0000E+00    1.434000E+09  0.00400  2.132E-04    0   0.5798   age139_m42            0.0000     2.6611E+00     3.5161  -0.7008   104.9246
 14      0.0000     0.0000E+00    0.0000E+00    4.250000E+09  0.00400  5.895E-05    0   0.5377   age158_m42            0.0000     5.0575E+00     5.0867  -1.0000    96.5822
 15      0.0000     0.0000E+00    0.0000E+00    7.500000E+09  0.00400  3.510E-05    0   0.5212   age171_m42            0.0000     1.0696E+01     7.7184  -1.0000    89.8716
 16      0.0000     0.0000E+00    0.0000E+00    1.300000E+10  0.00400  2.005E-05    0   0.5034   age193_m42            0.0000     1.8291E+01    10.3674  -1.0000    84.1109
 17      0.0000     0.0000E+00    0.0000E+00    1.800000E+10  0.00400  1.525E-05    0   0.4967   age213_m42            0.0000     1.9171E+01    10.6706  -1.0000    83.0167
 18      6.7247     3.9970E-01    6.3667E-01    1.000000E+06  0.00800  1.238E-02    0   1.0000   age020_m52            0.0000     2.5753E+00     4.1642   2.0221    93.0615
 19      5.8707     1.4053E-01    2.2309E-01    3.160000E+06  0.00800  3.074E-02    0   0.9966   age045_m52            0.0000     2.5033E+00     4.0922   1.9476    93.7901
 20      0.0000     0.0000E+00    0.0000E+00    5.010000E+06  0.00800  2.668E-02    0   0.9443   age055_m52            0.0000     1.8631E+00     3.4556   1.7198    95.2291
 21     21.6234     7.4492E-01    1.0889E+00    6.610000E+06  0.00800  2.136E-02    0   0.9177   age061_m52            0.0000     5.0729E-01     1.7761   0.4790   101.3326
 22      0.0000     0.0000E+00    0.0000E+00    1.000000E+07  0.00800  1.215E-02    0   0.8827   age070_m52            0.0000     7.8325E-01     1.9233   1.1647    99.7437
 23      0.0000     0.0000E+00    0.0000E+00    1.445000E+07  0.00800  8.717E-03    0   0.8552   age078_m52            0.0000     8.5493E-01     2.0869   1.2748    98.8527
 24      0.0000     0.0000E+00    0.0000E+00    2.512000E+07  0.00800  5.592E-03    0   0.8162   age090_m52            0.0000     7.3452E-01     1.9294   0.9308   101.1370
 25      0.0000     0.0000E+00    0.0000E+00    4.000000E+07  0.00800  3.896E-03    0   0.7841   age104_m52            0.0000     7.8736E-01     2.0489   0.8508   101.5229
 26      0.0000     0.0000E+00    0.0000E+00    1.015200E+08  0.00800  2.148E-03    0   0.7226   age116_m52            0.0000     1.0584E+00     2.3893   0.7947   101.0550
 27      0.0000     0.0000E+00    0.0000E+00    2.861200E+08  0.00800  9.925E-04    0   0.6683   age125_m52            0.0000     2.0696E+00     2.9805   0.3318   104.1180
 28      9.9566     2.3326E+01    2.2805E+01    9.047900E+08  0.00800  3.141E-04    0   0.6138   age135_m52            0.0000     3.7662E+00     4.0385  -0.4510   107.4966
 29      0.0000     0.0000E+00    0.0000E+00    1.434000E+09  0.00800  1.719E-04    0   0.5853   age139_m52            0.0000     3.7954E+00     4.2767  -1.0000   104.5173
 30      0.0000     0.0000E+00    0.0000E+00    2.500000E+09  0.00800  7.872E-05    0   0.5600   age150_m52            0.0000     1.0344E+01     7.5024  -1.0000    92.9165
 31      0.0000     0.0000E+00    0.0000E+00    4.250000E+09  0.00800  4.336E-05    0   0.5426   age158_m52            0.0000     1.1218E+01     7.7611  -1.0000    91.5799
 32      0.0000     0.0000E+00    0.0000E+00    6.250000E+09  0.00800  3.159E-05    0   0.5319   age166_m52            0.0000     2.0791E+01    10.9474  -1.0000    84.9378
 33      0.0000     0.0000E+00    0.0000E+00    1.300000E+10  0.00800  1.361E-05    0   0.5073   age193_m52            0.0000     5.1967E+01    17.4893  -1.0000    69.7107
 34      0.0000     0.0000E+00    0.0000E+00    1.800000E+10  0.00800  9.886E-06    0   0.4990   age213_m52            0.0000     6.1704E+01    18.8673  -1.0000    66.1829
 35      4.7224     2.2506E-01    3.5849E-01    1.000000E+06  0.02000  1.544E-02    0   1.0000   age020_m62            0.0000     2.6198E+00     4.2079   2.0162    93.3547
 36      5.5862     1.0927E-01    1.7157E-01    3.160000E+06  0.02000  3.762E-02    0   0.9858   age045_m62            0.0000     2.5945E+00     4.1956   1.9563    94.1517
 37      0.0000     0.0000E+00    0.0000E+00    5.010000E+06  0.02000  3.296E-02    0   0.9342   age055_m62            0.0000     1.7531E+00     3.4682   1.6083    96.7498
 38     15.1645     9.6697E-01    1.3648E+00    8.710000E+06  0.02000  1.154E-02    0   0.8861   age067_m62            0.0000     2.7237E+00     4.3551   0.6061   103.3201
 39      0.0000     0.0000E+00    0.0000E+00    1.445000E+07  0.02000  7.663E-03    0   0.8472   age078_m62            0.0000     8.6834E-01     2.1524   0.8125   102.0779
 40      0.0000     0.0000E+00    0.0000E+00    2.512000E+07  0.02000  4.532E-03    0   0.8099   age090_m62            0.0000     1.1271E+00     2.4872   0.8090   101.6205
 41      0.0000     0.0000E+00    0.0000E+00    5.500000E+07  0.02000  2.733E-03    0   0.7595   age110_m62            0.0000     7.5431E-01     1.9749   0.8280   101.0633
 42      0.0000     0.0000E+00    0.0000E+00    1.609000E+08  0.02000  1.369E-03    0   0.6985   age120_m62            0.0000     1.5501E+00     2.6288   0.6851   102.8680
 43      0.0000     0.0000E+00    0.0000E+00    2.861200E+08  0.02000  9.013E-04    0   0.6714   age125_m62            0.0000     2.4982E+00     3.1421   0.4471   105.1343
 44      0.2466     3.6089E-01    3.7072E-01    5.088000E+08  0.02000  5.028E-04    0   0.6449   age130_m62            0.0000     3.8873E+00     4.1413   0.0817   107.1875
 45      4.5961     1.3929E+01    1.3710E+01    9.047900E+08  0.02000  2.428E-04    0   0.6179   age135_m62            0.0000     4.3175E+00     4.5500  -0.5135   106.9311
 46      1.5500     9.0306E+00    8.4984E+00    1.434000E+09  0.02000  1.263E-04    0   0.5908   age139_m62            0.0000     5.2229E+00     5.0761  -0.9687   105.8462
 47      0.0000     0.0000E+00    0.0000E+00    2.500000E+09  0.02000  5.985E-05    0   0.5673   age150_m62            0.0000     1.2767E+01     8.0869  -1.0000    93.3204
 48      0.0000     0.0000E+00    0.0000E+00    4.250000E+09  0.02000  3.271E-05    0   0.5468   age158_m62            0.0000     2.8415E+01    12.6440  -1.0000    82.4452
 49      0.0000     0.0000E+00    0.0000E+00    1.000000E+10  0.02000  1.360E-05    0   0.5167   age181_m62            0.0000     5.3496E+01    17.3556  -1.0000    71.1264
 50      0.0000     0.0000E+00    0.0000E+00    1.800000E+10  0.02000  7.124E-06    0   0.5013   age213_m62            0.0000     7.1651E+01    19.9115  -1.0000    64.3944
 51      3.5502     1.0079E-01    1.6051E-01    1.000000E+06  0.05000  2.592E-02    0   0.9998   age020_m72            0.0000     2.7868E+00     4.3310   2.0043    93.5334
 52      0.0003     5.0853E-06    7.7575E-06    3.160000E+06  0.05000  4.845E-02    0   0.9577   age045_m72            0.0000     2.3506E+00     3.9390   1.8499    94.9186
 53      0.0010     2.4403E-05    3.5555E-05    5.010000E+06  0.05000  3.072E-02    0   0.9147   age055_m72            0.0000     1.1635E+00     2.5699   1.3881    98.6636
 54      0.0000     0.0000E+00    0.0000E+00    6.610000E+06  0.05000  1.455E-02    0   0.8877   age061_m72            0.0000     6.4207E+00     6.8340   0.6610   104.3448
 55      0.0000     0.0000E+00    0.0000E+00    1.000000E+07  0.05000  9.074E-03    0   0.8524   age070_m72            0.0000     2.0105E+00     3.4620   1.5800    98.1914
 56      0.0000     0.0000E+00    0.0000E+00    2.512000E+07  0.05000  4.250E-03    0   0.7902   age090_m72            0.0000     1.3728E+00     2.7947   1.2912    99.3422
 57      0.0000     0.0000E+00    0.0000E+00    4.000000E+07  0.05000  3.087E-03    0   0.7618   age104_m72            0.0000     1.4621E+00     2.9020   1.0710   100.6409
 58      0.0000     0.0000E+00    0.0000E+00    1.015200E+08  0.05000  1.700E-03    0   0.7096   age116_m72            0.0000     1.4240E+00     2.6103   0.8263   102.5686
 59      0.0000     0.0000E+00    0.0000E+00    2.861200E+08  0.05000  7.384E-04    0   0.6633   age125_m72            0.0000     3.1897E+00     3.5881   0.3222   106.1234
 60     13.8352     2.6658E+01    2.7057E+01    5.088000E+08  0.05000  3.819E-04    0   0.6372   age130_m72            0.0000     4.1227E+00     4.5124  -0.1722   107.7721
 61      5.3987     2.3703E+01    2.3069E+01    9.047900E+08  0.05000  1.676E-04    0   0.6110   age135_m72            0.0000     6.8327E+00     6.1283  -0.8840   106.5532
 62      0.0000     0.0000E+00    0.0000E+00    1.434000E+09  0.05000  8.837E-05    0   0.5874   age139_m72            0.0000     1.3570E+01     8.2603  -1.0000    94.5901
 63      0.0000     0.0000E+00    0.0000E+00    2.500000E+09  0.05000  4.233E-05    0   0.5598   age150_m72            0.0000     2.9485E+01    12.7546  -1.0000    83.1025
 64      0.0000     0.0000E+00    0.0000E+00    6.250000E+09  0.05000  1.435E-05    0   0.5249   age166_m72            0.0000     6.1428E+01    18.5848  -1.0000    67.9376
 65      0.0000     0.0000E+00    0.0000E+00    1.300000E+10  0.05000  6.513E-06    0   0.5036   age193_m72            0.0000     8.6839E+01    21.8898  -1.0000    60.5211
 66      0.0000     0.0000E+00    0.0000E+00    1.800000E+10  0.05000  4.527E-06    0   0.4945   age213_m72            0.0000     1.0247E+02    23.6787  -1.0000    56.0684


## Synthesis Results - Average & Chains ##

# j      x_j: min, <> & last-chain-values for 1 ...  7 chains
  1      4.5395      2.5474      3.0366      2.7602      2.6452      2.6523      2.7344      3.7654      3.6579
  2      0.0000      0.3998      0.0000      0.7270      0.5138      0.2141      0.0000      0.0000      0.0000
  3      0.0000      0.1469      0.0000      0.1423      0.0000      0.6628      0.0000      0.0000      0.0000
  4      0.0000      0.2362      0.1695      0.0000      0.0000      0.0000      0.4020      0.0000      0.0000
  5      0.0000      0.2286      0.3269      0.0000      0.0730      0.0000      0.0109      0.0000      0.0000
  6      0.0000      0.2124      0.0000      0.0000      0.0000      0.0000      0.0000      0.0000      0.7395
  7      0.0000      0.2922      0.0474      0.0000      0.0000      0.2924      0.0000      0.9890      0.0000
  8      0.0000      0.4392      0.1574      0.0000      0.9884      0.0000      0.0000      0.0000      0.0000
  9      0.0000      0.1956      0.1009      0.0000      0.0000      0.3125      0.0000      0.0000      0.0000
 10      0.0000      0.1982      0.0000      0.0000      0.0000      0.0000      0.0000      0.0000      0.0341
 11      0.0000      0.2015      0.0216      0.0000      0.0000      0.1588      0.0088      0.0000      0.0000
 12      0.0000      0.2035      0.0000      0.0000      0.0000      0.0000      0.0000      0.1606      0.0076
 13      0.0000      0.1322      0.0000      0.0000      0.0000      0.1602      0.6457      0.0000      0.0000
 14      0.0000      0.0406      0.0000      0.0000      0.0000      0.2191      0.0000      0.0000      0.0000
 15      0.0000      0.0688      0.0000      0.0000      0.0000      0.0000      0.0000      0.0000      0.0335
 16      0.0000      0.0431      0.0000      0.0000      0.0000      0.0746      0.0000      0.0000      0.2157
 17      0.0000      0.1786      0.4634      0.0000      0.0000      0.5544      0.0936      0.0000      0.0000
 18      6.7247      3.9136      4.5044      4.6594      4.2144      3.7077      3.9285      4.5327      5.1914
 19      5.8707      4.9702      6.7015      5.4783      4.1317      5.3696      5.2467      5.2656      6.5736
 20      0.0000      0.5938      0.5852      0.0000      0.6628      0.5074      0.5177      0.0000      0.0000
 21     21.6234     33.6878     29.3615     34.7554     33.0918     32.7781     34.0324     32.5450     33.3052
 22      0.0000      0.4629      0.0000      0.3843      0.0000      0.0531      0.0000      0.5993      0.3619
 23      0.0000      0.2889      0.0144      0.0000      0.0000      0.0000      0.0000      0.3440      0.0000
 24      0.0000      0.3546      0.0000      1.5659      0.7085      0.9909      0.5914      0.3215      0.0000
 25      0.0000      0.2393      0.0000      0.0000      0.8289      0.1448      1.1075      0.0000      0.0000
 26      0.0000      0.2170      0.0000      0.0000      0.4818      0.0000      0.0000      0.0000      0.0382
 27      0.0000      0.1826      0.0000      0.0000      0.0000      0.0000      0.0000      0.0000      0.0000
 28      9.9566      7.5137      9.0934      8.7766      8.1866      8.3776      8.0797      9.1859      7.3469
 29      0.0000      0.0875      0.0000      0.3456      0.0000      0.0000      0.0000      0.0000      0.0000
 30      0.0000      0.0251      0.0000      0.0000      0.0000      0.0000      0.0000      0.0000      0.0000
 31      0.0000      0.0188      0.0000      0.0000      0.0000      0.0000      0.0000      0.0000      0.0000
 32      0.0000      0.0228      0.0000      0.0000      0.0000      0.0000      0.0000      0.0000      0.0000
 33      0.0000      0.0085      0.0000      0.0000      0.0000      0.0000      0.0000      0.0000      0.0907
 34      0.0000      0.0085      0.0000      0.0000      0.0000      0.0000      0.0000      0.0000      0.0000
 35      4.7224      2.1769      2.0392      2.5278      2.1080      3.2558      3.2265      2.1078      2.3277
 36      5.5862      1.8551      2.1100      2.3161      1.9928      3.7181      2.3298      2.0756      1.8560
 37      0.0000      0.2302      0.0775      0.0000      0.0000      0.0000      0.0000      1.1536      0.1192
 38     15.1645     12.2080     14.4253     13.3043     12.5049     10.7523     12.7979     12.3510     13.1505
 39      0.0000      0.7566      0.1681      0.0000      1.7375      0.4283      2.0639      1.3950      0.9632
 40      0.0000      0.2541      0.0000      0.0000      0.0000      0.0000      0.0000      0.7344      0.0000
 41      0.0000      0.1701      0.0000      0.3015      0.0000      0.0000      0.1077      0.0000      0.0000
 42      0.0000      0.1531      0.0000      0.0000      0.1214      0.0000      0.0000      0.3683      0.0000
 43      0.0000      0.2456      0.0000      0.0000      0.1053      0.0000      0.0222      0.0000      0.0000
 44      0.2466      1.3394      2.7269      0.2697      1.6979      1.6187      1.5924      0.0000      0.9694
 45      4.5961      4.1405      4.2199      4.7136      3.8069      5.0865      3.9256      4.1160      5.0833
 46      1.5500      1.2008      1.1263      1.5001      1.0611      1.0602      1.1432      1.3729      1.7735
