###################################################################
## OUTPUT of StarlightChains_v04.for    [Cid@UFSC - 01/Apr/2007] ##
###################################################################

## Some input info
2005db.txt                               [arq_obs]
Base.CB07.vall.4m                        [arq_base]
Masks.EmLines.NEW.gm                     [arq_masks]
StCv04.C11.config                        [arq_config]
   66                                    [N_base]
    0                                    [N_YAV_components = # of components with extra extinction!]
    0                                    [i_FitPowerLaw (1/0 = Yes/No)]
-9.99                                    [alpha_PowerLaw]
CCM                                      [red_law_option]
 1.458241                                [q_norm = A(l_norm)/A(V)]

## (Re)Sampling Parameters
 3741.00                                 [l_ini (A)]
 7218.00                                 [l_fin (A)]
    1.00                                 [dl    (A)]     (OBS: dl_cushion =    50.00 A)

## Normalization info
 4020.00                                 [l_norm (A) - for base]
 4010.00                                 [llow_norm (A) - window for f_obs]
 4060.00                                 [lupp_norm (A) - window for f_obs]
2.885351E-16                             [fobs_norm (in input units)]

## S/N
 3691.00                                 [llow_SN (A) - window for S/N]
 7268.00                                 [lupp_SN (A) - window for S/N]
   6.042                                 [S/N in S/N window]
   8.407                                 [S/N in norm. window]
  10.438                                 [S/N_err in S/N window]
  14.522                                 [S/N_err in norm. window]
  1.0000                                 [fscale_chi2]

## etc...
    -2007299                             [idum_orig]
  2386                                   [NOl_eff]
  2386                                   [Nl_eff]
     0    NSIGMA                         [Ntot_cliped & clip_method]
  1412530                                [Nglobal_steps]
   7                                     [N_chains]
  16                                     [NEX0s_base = N_base in EX0s-fits]
 0   0   1        0   2.0   3.521E+01    [Clip-Bug, RC-Crash & Burn-In warning-flags, n_censored_weights, wei_nsig_threshold & wei_limit]
    14     13.405     12.905      0.500  [idt_all, wdt_TotTime, wdt_UsrTime & wdt_SysTime (sec)]

## Synthesis Results - Best model ##

 4.50174E-01                             [chi2/Nl_eff]
     5.19978                             [adev (%)]

    95.80761                             [sum-of-x (%)]
 5.60472E-16                             [Flux_tot (units of input spectrum!)]
 3.93928E-12                             [Mini_tot (???)]
 2.02499E-12                             [Mcor_tot (???)]

-193.22                                  [v0_min  (km/s)]
 141.38                                  [vd_min  (km/s)]
 0.5262                                  [AV_min  (mag)]
 0.0000                                  [YAV_min (mag)]

# j     x_j(%)      Mini_j(%)     Mcor_j(%)     age_j(yr)     Z_j      (L/M)_j    YAV?  Mstars   component_j        a/Fe...       SSP_chi2r SSP_adev(%)   SSP_AV   SSP_x(%)
  1      0.0000     0.0000E+00    0.0000E+00    1.000000E+06  0.00400  1.094E-02    0   1.0000   age020_m42            0.0000     1.2747E+00     8.4290   2.5611    76.2066
  2      0.0000     0.0000E+00    0.0000E+00    3.160000E+06  0.00400  4.007E-02    0   0.9999   age045_m42            0.0000     1.0621E+00     7.6920   1.8412    81.3784
  3      0.0000     0.0000E+00    0.0000E+00    5.010000E+06  0.00400  2.539E-02    0   0.9488   age055_m42            0.0000     1.1195E+00     7.8589   2.1537    79.6062
  4      0.0000     0.0000E+00    0.0000E+00    6.610000E+06  0.00400  2.620E-02    0   0.9220   age061_m42            0.0000     9.9322E-01     7.4329   1.7590    81.9470
  5      0.0000     0.0000E+00    0.0000E+00    1.000000E+07  0.00400  1.322E-02    0   0.8862   age070_m42            0.0000     6.8784E-01     6.1992   1.4078    86.7303
  6      0.0000     0.0000E+00    0.0000E+00    1.445000E+07  0.00400  7.883E-03    0   0.8571   age078_m42            0.0000     7.7547E-01     6.5365   1.7421    84.1890
  7      0.0000     0.0000E+00    0.0000E+00    2.512000E+07  0.00400  5.251E-03    0   0.8174   age090_m42            0.0000     6.3194E-01     5.9635   1.2638    87.8433
  8      0.9437     3.8405E-02    5.8656E-02    4.000000E+07  0.00400  3.649E-03    0   0.7851   age104_m42            0.0000     6.2247E-01     5.9261   1.0433    88.2761
  9      0.0000     0.0000E+00    0.0000E+00    5.500000E+07  0.00400  3.098E-03    0   0.7629   age110_m42            0.0000     7.1780E-01     6.3753   1.2300    86.8544
 10      0.0000     0.0000E+00    0.0000E+00    1.015200E+08  0.00400  2.228E-03    0   0.7207   age116_m42            0.0000     7.8027E-01     6.6915   1.2706    86.1451
 11      0.0000     0.0000E+00    0.0000E+00    2.861200E+08  0.00400  1.093E-03    0   0.6648   age125_m42            0.0000     6.6455E-01     6.1243   0.6876    89.6443
 12      0.0016     3.5968E-04    4.4535E-04    5.088000E+08  0.00400  6.597E-04    0   0.6365   age130_m42            0.0000     7.4312E-01     6.6471   0.7074    88.9992
 13      1.3442     9.3628E-01    1.0560E+00    1.434000E+09  0.00400  2.132E-04    0   0.5798   age139_m42            0.0000     7.1145E-01     6.7210  -0.2603    90.4146
 14      0.0000     0.0000E+00    0.0000E+00    4.250000E+09  0.00400  5.895E-05    0   0.5377   age158_m42            0.0000     9.4877E-01     7.8885  -0.6544    84.8604
 15      0.0000     0.0000E+00    0.0000E+00    7.500000E+09  0.00400  3.510E-05    0   0.5212   age171_m42            0.0000     1.0518E+00     8.3671  -0.8182    83.3680
 16      0.0000     0.0000E+00    0.0000E+00    1.300000E+10  0.00400  2.005E-05    0   0.5034   age193_m42            0.0000     1.1594E+00     8.8240  -0.9598    82.0456
 17      0.0000     0.0000E+00    0.0000E+00    1.800000E+10  0.00400  1.525E-05    0   0.4967   age213_m42            0.0000     1.1427E+00     8.7416  -0.9907    81.9574
 18      0.0000     0.0000E+00    0.0000E+00    1.000000E+06  0.00800  1.238E-02    0   1.0000   age020_m52            0.0000     1.2746E+00     8.4289   2.5579    76.3343
 19      0.0000     0.0000E+00    0.0000E+00    3.160000E+06  0.00800  3.074E-02    0   0.9966   age045_m52            0.0000     1.2638E+00     8.3736   2.4812    76.9977
 20      0.0000     0.0000E+00    0.0000E+00    5.010000E+06  0.00800  2.668E-02    0   0.9443   age055_m52            0.0000     1.1220E+00     7.8776   2.2313    79.0524
 21      0.0000     0.0000E+00    0.0000E+00    6.610000E+06  0.00800  2.136E-02    0   0.9177   age061_m52            0.0000     6.7933E-01     6.2218   0.9098    87.5143
 22      0.0000     0.0000E+00    0.0000E+00    1.000000E+07  0.00800  1.215E-02    0   0.8827   age070_m52            0.0000     6.4683E-01     6.0222   1.5685    87.4024
 23      0.0000     0.0000E+00    0.0000E+00    1.445000E+07  0.00800  8.717E-03    0   0.8552   age078_m52            0.0000     7.2969E-01     6.3702   1.7028    85.5588
 24      0.8398     2.2302E-02    3.5411E-02    2.512000E+07  0.00800  5.592E-03    0   0.8162   age090_m52            0.0000     5.9560E-01     5.8031   1.3228    89.1475
 25      4.0228     1.5334E-01    2.3389E-01    4.000000E+07  0.00800  3.896E-03    0   0.7841   age104_m52            0.0000     6.1049E-01     5.8549   1.2520    89.1586
 26      0.3219     2.2254E-02    3.1283E-02    1.015200E+08  0.00800  2.148E-03    0   0.7226   age116_m52            0.0000     6.9695E-01     6.2498   1.2227    87.5679
 27      0.0000     0.0000E+00    0.0000E+00    2.861200E+08  0.00800  9.925E-04    0   0.6683   age125_m52            0.0000     7.0969E-01     6.5057   0.7669    90.0344
 28      0.0000     0.0000E+00    0.0000E+00    9.047900E+08  0.00800  3.141E-04    0   0.6138   age135_m52            0.0000     8.0600E-01     7.2558   0.0087    91.9681
 29      0.0000     0.0000E+00    0.0000E+00    1.434000E+09  0.00800  1.719E-04    0   0.5853   age139_m52            0.0000     8.6586E-01     7.4737  -0.5675    89.8573
 30      0.0000     0.0000E+00    0.0000E+00    2.500000E+09  0.00800  7.872E-05    0   0.5600   age150_m52            0.0000     1.0880E+00     8.5645  -0.7864    85.2770
 31      0.0000     0.0000E+00    0.0000E+00    4.250000E+09  0.00800  4.336E-05    0   0.5426   age158_m52            0.0000     1.1084E+00     8.6460  -0.7984    84.3400
 32      0.0000     0.0000E+00    0.0000E+00    6.250000E+09  0.00800  3.159E-05    0   0.5319   age166_m52            0.0000     1.2637E+00     9.3257  -0.9694    83.1070
 33      2.0110     2.1942E+01    2.1654E+01    1.300000E+10  0.00800  1.361E-05    0   0.5073   age193_m52            0.0000     1.9611E+00    11.7869  -1.0000    67.5119
 34      0.0000     0.0000E+00    0.0000E+00    1.800000E+10  0.00800  9.886E-06    0   0.4990   age213_m52            0.0000     2.3129E+00    12.8109  -1.0000    63.8746
 35      0.0000     0.0000E+00    0.0000E+00    1.000000E+06  0.02000  1.544E-02    0   1.0000   age020_m62            0.0000     1.2806E+00     8.4459   2.5543    76.4963
 36      0.0000     0.0000E+00    0.0000E+00    3.160000E+06  0.02000  3.762E-02    0   0.9858   age045_m62            0.0000     1.2872E+00     8.4593   2.4953    77.0860
 37      0.0000     0.0000E+00    0.0000E+00    5.010000E+06  0.02000  3.296E-02    0   0.9342   age055_m62            0.0000     1.1098E+00     7.8600   2.1226    80.2563
 38     63.3095     8.1470E-01    1.4044E+00    8.710000E+06  0.02000  1.154E-02    0   0.8861   age067_m62            0.0000     5.0332E-01     5.7263   0.8915    96.0800
 39      0.0000     0.0000E+00    0.0000E+00    1.445000E+07  0.02000  7.663E-03    0   0.8472   age078_m62            0.0000     5.4094E-01     5.6133   1.1766    91.2898
 40      0.0014     4.4284E-05    6.9771E-05    2.512000E+07  0.02000  4.532E-03    0   0.8099   age090_m62            0.0000     5.3490E-01     5.5939   1.1633    91.3690
 41      0.0000     0.0000E+00    0.0000E+00    5.500000E+07  0.02000  2.733E-03    0   0.7595   age110_m62            0.0000     6.1021E-01     5.8676   1.2337    88.5265
 42      0.1432     1.5537E-02    2.1111E-02    1.609000E+08  0.02000  1.369E-03    0   0.6985   age120_m62            0.0000     6.8557E-01     6.3222   1.1128    89.2119
 43      8.0891     1.3328E+00    1.7408E+00    2.861200E+08  0.02000  9.013E-04    0   0.6714   age125_m62            0.0000     7.1187E-01     6.6170   0.8788    91.0207
 44      0.0000     0.0000E+00    0.0000E+00    5.088000E+08  0.02000  5.028E-04    0   0.6449   age130_m62            0.0000     8.5102E-01     7.4858   0.5496    91.2675
 45      0.0000     0.0000E+00    0.0000E+00    9.047900E+08  0.02000  2.428E-04    0   0.6179   age135_m62            0.0000     9.2273E-01     7.8641  -0.0149    89.7614
 46      0.0000     0.0000E+00    0.0000E+00    1.434000E+09  0.02000  1.263E-04    0   0.5908   age139_m62            0.0000     1.0169E+00     8.2813  -0.4477    87.8919
 47      0.0000     0.0000E+00    0.0000E+00    2.500000E+09  0.02000  5.985E-05    0   0.5673   age150_m62            0.0000     1.2493E+00     9.2875  -0.7709    84.8885
 48      0.0000     0.0000E+00    0.0000E+00    4.250000E+09  0.02000  3.271E-05    0   0.5468   age158_m62            0.0000     1.5201E+00    10.3871  -1.0000    81.2326
 49      0.0000     0.0000E+00    0.0000E+00    1.000000E+10  0.02000  1.360E-05    0   0.5167   age181_m62            0.0000     2.1451E+00    12.4129  -1.0000    68.9887
 50      3.3927     7.0722E+01    6.8968E+01    1.800000E+10  0.02000  7.124E-06    0   0.5013   age213_m62            0.0000     2.7674E+00    14.0479  -1.0000    62.0678
 51      0.0000     0.0000E+00    0.0000E+00    1.000000E+06  0.05000  2.592E-02    0   0.9998   age020_m72            0.0000     1.2867E+00     8.4555   2.5419    76.6434
 52      0.0000     0.0000E+00    0.0000E+00    3.160000E+06  0.05000  4.845E-02    0   0.9577   age045_m72            0.0000     1.2514E+00     8.3243   2.3857    77.8602
 53      0.0000     0.0000E+00    0.0000E+00    5.010000E+06  0.05000  3.072E-02    0   0.9147   age055_m72            0.0000     8.0080E-01     6.6001   1.8220    85.3272
 54      0.0000     0.0000E+00    0.0000E+00    6.610000E+06  0.05000  1.455E-02    0   0.8877   age061_m72            0.0000     1.1074E+00     7.6761   0.9226    98.8381
 55      0.0000     0.0000E+00    0.0000E+00    1.000000E+07  0.05000  9.074E-03    0   0.8524   age070_m72            0.0000     1.0187E+00     7.2794   2.0267    84.6193
 56      0.0000     0.0000E+00    0.0000E+00    2.512000E+07  0.05000  4.250E-03    0   0.7902   age090_m72            0.0000     7.8730E-01     6.4741   1.7074    86.8251
 57      0.0000     0.0000E+00    0.0000E+00    4.000000E+07  0.05000  3.087E-03    0   0.7618   age104_m72            0.0000     7.3860E-01     6.2689   1.4657    88.9001
 58      0.0000     0.0000E+00    0.0000E+00    1.015200E+08  0.05000  1.700E-03    0   0.7096   age116_m72            0.0000     6.5002E-01     6.0588   1.2365    89.7427
 59     10.8700     2.1861E+00    2.8208E+00    2.861200E+08  0.05000  7.384E-04    0   0.6633   age125_m72            0.0000     7.6367E-01     6.9800   0.7695    91.2549
 60      0.0000     0.0000E+00    0.0000E+00    5.088000E+08  0.05000  3.819E-04    0   0.6372   age130_m72            0.0000     8.9399E-01     7.7537   0.3133    91.0049
 61      0.0000     0.0000E+00    0.0000E+00    9.047900E+08  0.05000  1.676E-04    0   0.6110   age135_m72            0.0000     1.2123E+00     9.1759  -0.3229    86.7999
 62      0.0000     0.0000E+00    0.0000E+00    1.434000E+09  0.05000  8.837E-05    0   0.5874   age139_m72            0.0000     1.3022E+00     9.4709  -0.7690    86.0124
 63      0.5169     1.8132E+00    1.9746E+00    2.500000E+09  0.05000  4.233E-05    0   0.5598   age150_m72            0.0000     1.6286E+00    10.7495  -1.0000    81.8688
 64      0.0000     0.0000E+00    0.0000E+00    6.250000E+09  0.05000  1.435E-05    0   0.5249   age166_m72            0.0000     2.4422E+00    13.2089  -1.0000    65.6384
 65      0.0000     0.0000E+00    0.0000E+00    1.300000E+10  0.05000  6.513E-06    0   0.5036   age193_m72            0.0000     3.3739E+00    15.5186  -1.0000    58.0977
 66      0.0000     0.0000E+00    0.0000E+00    1.800000E+10  0.05000  4.527E-06    0   0.4945   age213_m72            0.0000     4.0061E+00    16.9781  -1.0000    53.7135


## Synthesis Results - Average & Chains ##

# j      x_j: min, <> & last-chain-values for 1 ...  7 chains
  1      0.0000      0.2382      0.1166      0.0000      0.0000      0.0000      0.0000      0.0000      0.0000
  2      0.0000      0.2765      0.0000      0.0000      0.7923      0.0000      0.0000      0.0000      0.0000
  3      0.0000      0.4804      0.0000      0.7590      0.1478      0.0000      0.0000      0.0272      0.0000
  4      0.0000      0.3477      0.0000      0.0000      0.0000      0.0000      0.0000      0.3628      0.9509
  5      0.0000      0.7119      1.4170      0.0000      0.0000      1.4248      0.1159      0.0000      0.0000
  6      0.0000      0.4706      0.5778      0.0000      0.0000      0.0000      0.5769      0.0000      0.0000
  7      0.0000      0.6907      3.3599      0.0000      0.0000      1.5203      0.0000      0.0000      3.5760
  8      0.9437      1.2086      0.0000      1.7246      0.5625      0.8733      0.7612      0.3999      2.5216
  9      0.0000      0.6951      0.0000      0.0000      0.0480      0.0000      5.1014      0.3606      0.9602
 10      0.0000      0.7982      0.0000      0.0000      1.1091      0.0000      2.3094      0.0000      0.0000
 11      0.0000      0.7831      0.0000      0.0000      0.0000      0.7410      0.0000      0.0000      0.0000
 12      0.0016      0.6423      0.0000      0.8536      0.0000      0.0000      0.5460      0.0000      0.0193
 13      1.3442      2.9461      0.9628      3.3864      1.6528      4.9344      4.0519      2.9164      2.5677
 14      0.0000      0.0460      0.6150      0.0000      0.0000      0.0000      0.0000      0.0000      0.0000
 15      0.0000      0.0808      0.0000      0.0000      0.0000      0.0000      0.0000      0.0000      0.0000
 16      0.0000      0.1582      0.0000      0.0582      0.0000      0.0000      0.0783      0.2614      0.9679
 17      0.0000      0.0581      0.0000      0.0000      0.0000      0.0000      0.0000      0.2889      0.0000
 18      0.0000      0.3354      0.0000      1.5398      0.7449      0.0000      0.3033      0.0000      0.3413
 19      0.0000      0.3528      0.0000      0.0000      0.0000      1.6146      0.0000      0.0000      0.4003
 20      0.0000      0.2034      0.0000      0.0000      0.0000      0.0000      0.0000      0.0582      0.3480
 21      0.0000      0.7731      0.0000      0.0000      0.5633      0.0000      0.0000      0.0000      0.0000
 22      0.0000      0.8372      0.0000      0.0000      0.0000      2.7442      0.1549      1.7868      0.0000
 23      0.0000      0.5452      0.0000      0.0000      0.1425      0.0000      0.3021      0.0000      0.0000
 24      0.8398      0.9371      0.0000      0.5731      0.0000      0.0000      0.0000      0.0000      0.0926
 25      4.0228      2.3236      2.8483      0.9220      0.0000      3.8655      2.3001      2.4816      6.7478
 26      0.3219      0.9485      0.6920      2.4096      0.1382      1.3552      0.7150      0.9423      0.0000
 27      0.0000      0.9634      1.3805      0.0000      0.0000      0.0034      0.0000      0.0000      0.0000
 28      0.0000      0.4349      0.0000      0.0000      0.0000      0.0000      0.0000      0.0000      3.5131
 29      0.0000      0.1044      0.0000      0.0000      0.0000      0.0000      0.0000      0.0000      0.3526
 30      0.0000      0.2992      0.0000      0.0000      0.0000      0.0000      0.0000      0.6714      0.0000
 31      0.0000      0.1200      0.2412      0.0000      0.0000      0.0000      0.2661      0.0000      0.3430
 32      0.0000      0.0664      0.0000      0.0000      0.0000      0.0000      0.0200      0.3349      0.0000
 33      2.0110      1.0469      1.0236      1.7160      1.3207      1.0741      1.1938      0.8140      1.0473
 34      0.0000      0.0836      0.0206      0.0000      0.0000      0.0000      0.0000      0.0000      0.0000
 35      0.0000      0.3758      0.0000      0.0000      0.8483      0.0000      0.0000      2.6132      0.0000
 36      0.0000      0.2482      0.6376      0.0000      0.7427      0.5634      0.0000      0.0000      0.0000
 37      0.0000      0.3060      0.7892      0.0000      0.4232      0.0000      0.0000      0.0000      0.9575
 38     63.3095     54.6740     59.3510     59.2423     61.1078     58.9483     59.0675     61.6319     57.3832
 39      0.0000      0.6012      1.3509      0.0000      0.8908      0.0000      0.0000      0.0000      0.0000
 40      0.0014      0.8657      0.0000      1.1739      0.4399      0.0000      1.5254      1.2955      0.0000
 41      0.0000      1.0638      0.1241      0.0000      2.1069      1.6662      0.0437      0.1910      0.7594
 42      0.1432      0.8343      1.2854      2.2908      0.0000      0.2445      0.3570      0.0000      0.0577
 43      8.0891      1.6745      3.5637      5.5425      7.9624      1.3426      8.6915      3.4534      1.8568
 44      0.0000      1.6321      0.0000      0.1373      1.2050      0.0000      1.5450      0.3913      0.0000
 45      0.0000      0.2641      0.0000      0.0000      0.0000      0.2394      0.0000      0.0689      0.0000
 46      0.0000      0.4605      0.0000      0.0000      0.0000      0.0000      0.0000      0.0224      0.0197
