###################################################################
## OUTPUT of StarlightChains_v04.for    [Cid@UFSC - 01/Apr/2007] ##
###################################################################

## Some input info
2005kd.txt                               [arq_obs]
Base.CB07.vall.4m                        [arq_base]
Masks.EmLines.NEW.gm                     [arq_masks]
StCv04.C11.config                        [arq_config]
   66                                    [N_base]
    0                                    [N_YAV_components = # of components with extra extinction!]
    0                                    [i_FitPowerLaw (1/0 = Yes/No)]
-9.99                                    [alpha_PowerLaw]
CCM                                      [red_law_option]
 1.458241                                [q_norm = A(l_norm)/A(V)]

## (Re)Sampling Parameters
 3741.00                                 [l_ini (A)]
 7218.00                                 [l_fin (A)]
    1.00                                 [dl    (A)]     (OBS: dl_cushion =    50.00 A)

## Normalization info
 4020.00                                 [l_norm (A) - for base]
 4010.00                                 [llow_norm (A) - window for f_obs]
 4060.00                                 [lupp_norm (A) - window for f_obs]
1.220641E-16                             [fobs_norm (in input units)]

## S/N
 3691.00                                 [llow_SN (A) - window for S/N]
 7268.00                                 [lupp_SN (A) - window for S/N]
   8.423                                 [S/N in S/N window]
   9.455                                 [S/N in norm. window]
   9.007                                 [S/N_err in S/N window]
  10.111                                 [S/N_err in norm. window]
  1.0000                                 [fscale_chi2]

## etc...
    -2007306                             [idum_orig]
  2384                                   [NOl_eff]
  2379                                   [Nl_eff]
     5    NSIGMA                         [Ntot_cliped & clip_method]
  1407420                                [Nglobal_steps]
   7                                     [N_chains]
  18                                     [NEX0s_base = N_base in EX0s-fits]
 0   0   1        0   2.0   2.385E+01    [Clip-Bug, RC-Crash & Burn-In warning-flags, n_censored_weights, wei_nsig_threshold & wei_limit]
    17     17.446     16.949      0.496  [idt_all, wdt_TotTime, wdt_UsrTime & wdt_SysTime (sec)]

## Synthesis Results - Best model ##

 4.42802E-01                             [chi2/Nl_eff]
     5.27002                             [adev (%)]

   104.75423                             [sum-of-x (%)]
 4.11918E-16                             [Flux_tot (units of input spectrum!)]
 9.85284E-13                             [Mini_tot (???)]
 5.64630E-13                             [Mcor_tot (???)]

-156.42                                  [v0_min  (km/s)]
 216.45                                  [vd_min  (km/s)]
 0.8710                                  [AV_min  (mag)]
 0.0000                                  [YAV_min (mag)]

# j     x_j(%)      Mini_j(%)     Mcor_j(%)     age_j(yr)     Z_j      (L/M)_j    YAV?  Mstars   component_j        a/Fe...       SSP_chi2r SSP_adev(%)   SSP_AV   SSP_x(%)
  1      0.0000     0.0000E+00    0.0000E+00    1.000000E+06  0.00400  1.094E-02    0   1.0000   age020_m42            0.0000     7.1013E-01     7.2220   2.8804    85.6385
  2      0.0000     0.0000E+00    0.0000E+00    3.160000E+06  0.00400  4.007E-02    0   0.9999   age045_m42            0.0000     6.1872E-01     6.3592   2.0732    95.4466
  3      0.0000     0.0000E+00    0.0000E+00    5.010000E+06  0.00400  2.539E-02    0   0.9488   age055_m42            0.0000     6.2557E-01     6.5934   2.4264    91.4884
  4      0.0000     0.0000E+00    0.0000E+00    6.610000E+06  0.00400  2.620E-02    0   0.9220   age061_m42            0.0000     5.9195E-01     6.1913   1.9874    96.1732
  5      0.0000     0.0000E+00    0.0000E+00    1.000000E+07  0.00400  1.322E-02    0   0.8862   age070_m42            0.0000     4.7064E-01     5.5396   1.6808    98.7963
  6      0.0000     0.0000E+00    0.0000E+00    1.445000E+07  0.00400  7.883E-03    0   0.8571   age078_m42            0.0000     5.0084E-01     5.7976   2.0326    95.1446
  7     12.0603     9.1663E-01    1.3075E+00    2.512000E+07  0.00400  5.251E-03    0   0.8174   age090_m42            0.0000     4.6089E-01     5.4415   1.5402    99.7676
  8     18.8051     2.0567E+00    2.8177E+00    4.000000E+07  0.00400  3.649E-03    0   0.7851   age104_m42            0.0000     4.5975E-01     5.4038   1.3022   101.2256
  9      0.0000     0.0000E+00    0.0000E+00    5.500000E+07  0.00400  3.098E-03    0   0.7629   age110_m42            0.0000     5.0819E-01     5.6097   1.4502   101.8476
 10      7.7667     1.3912E+00    1.7496E+00    1.015200E+08  0.00400  2.228E-03    0   0.7207   age116_m42            0.0000     5.7176E-01     5.8331   1.4640   102.5778
 11      0.0000     0.0000E+00    0.0000E+00    2.861200E+08  0.00400  1.093E-03    0   0.6648   age125_m42            0.0000     5.8218E-01     5.8289   0.8536   107.6100
 12      0.0000     0.0000E+00    0.0000E+00    5.088000E+08  0.00400  6.597E-04    0   0.6365   age130_m42            0.0000     6.8918E-01     6.2159   0.8409   109.0230
 13      8.1777     1.5308E+01    1.5488E+01    1.434000E+09  0.00400  2.132E-04    0   0.5798   age139_m42            0.0000     7.2262E-01     6.3767  -0.1368   111.7207
 14      0.0000     0.0000E+00    0.0000E+00    4.250000E+09  0.00400  5.895E-05    0   0.5377   age158_m42            0.0000     8.7380E-01     6.8574  -0.5109   104.2843
 15      0.0000     0.0000E+00    0.0000E+00    7.500000E+09  0.00400  3.510E-05    0   0.5212   age171_m42            0.0000     9.9649E-01     7.2488  -0.6877   103.2004
 16      0.0000     0.0000E+00    0.0000E+00    1.300000E+10  0.00400  2.005E-05    0   0.5034   age193_m42            0.0000     1.1193E+00     7.6310  -0.8421   102.2655
 17      0.0000     0.0000E+00    0.0000E+00    1.800000E+10  0.00400  1.525E-05    0   0.4967   age213_m42            0.0000     1.0969E+00     7.5517  -0.8642   101.7015
 18      0.0000     0.0000E+00    0.0000E+00    1.000000E+06  0.00800  1.238E-02    0   1.0000   age020_m52            0.0000     7.1039E-01     7.2304   2.8772    85.7844
 19      0.0000     0.0000E+00    0.0000E+00    3.160000E+06  0.00800  3.074E-02    0   0.9966   age045_m52            0.0000     7.0065E-01     7.1813   2.7959    86.7757
 20      0.0000     0.0000E+00    0.0000E+00    5.010000E+06  0.00800  2.668E-02    0   0.9443   age055_m52            0.0000     6.2617E-01     6.6668   2.5182    90.2083
 21     12.3711     2.3115E-01    3.7015E-01    6.610000E+06  0.00800  2.136E-02    0   0.9177   age061_m52            0.0000     4.8409E-01     5.6661   1.2017    98.9390
 22      1.8586     6.1049E-02    9.4035E-02    1.000000E+07  0.00800  1.215E-02    0   0.8827   age070_m52            0.0000     4.7688E-01     5.5918   1.8632    98.2024
 23      0.0000     0.0000E+00    0.0000E+00    1.445000E+07  0.00800  8.717E-03    0   0.8552   age078_m52            0.0000     4.8288E-01     5.6665   1.9888    96.8892
 24      0.7395     5.2780E-02    7.5173E-02    2.512000E+07  0.00800  5.592E-03    0   0.8162   age090_m52            0.0000     4.5773E-01     5.3873   1.5950   101.3597
 25      0.0251     2.5756E-03    3.5241E-03    4.000000E+07  0.00800  3.896E-03    0   0.7841   age104_m52            0.0000     4.6788E-01     5.4112   1.4936   103.0231
 26      0.0000     0.0000E+00    0.0000E+00    1.015200E+08  0.00800  2.148E-03    0   0.7226   age116_m52            0.0000     5.2519E-01     5.6383   1.4273   103.4504
 27      0.0000     0.0000E+00    0.0000E+00    2.861200E+08  0.00800  9.925E-04    0   0.6683   age125_m52            0.0000     6.9451E-01     6.2073   0.9025   110.1789
 28      0.0000     0.0000E+00    0.0000E+00    9.047900E+08  0.00800  3.141E-04    0   0.6138   age135_m52            0.0000     8.9567E-01     6.9750   0.0864   116.2806
 29      0.0000     0.0000E+00    0.0000E+00    1.434000E+09  0.00800  1.719E-04    0   0.5853   age139_m52            0.0000     8.6213E-01     6.8383  -0.4628   112.1294
 30      0.0000     0.0000E+00    0.0000E+00    2.500000E+09  0.00800  7.872E-05    0   0.5600   age150_m52            0.0000     1.0673E+00     7.5494  -0.6865   107.2088
 31      0.0000     0.0000E+00    0.0000E+00    4.250000E+09  0.00800  4.336E-05    0   0.5426   age158_m52            0.0000     1.0911E+00     7.5922  -0.6927   105.7532
 32      0.0000     0.0000E+00    0.0000E+00    6.250000E+09  0.00800  3.159E-05    0   0.5319   age166_m52            0.0000     1.3046E+00     8.2885  -0.8885   105.6808
 33      0.0000     0.0000E+00    0.0000E+00    1.300000E+10  0.00800  1.361E-05    0   0.5073   age193_m52            0.0000     1.9775E+00     9.7826  -1.0000    88.6136
 34      0.0000     0.0000E+00    0.0000E+00    1.800000E+10  0.00800  9.886E-06    0   0.4990   age213_m52            0.0000     2.4363E+00    10.8154  -1.0000    83.7878
 35      0.0000     0.0000E+00    0.0000E+00    1.000000E+06  0.02000  1.544E-02    0   1.0000   age020_m62            0.0000     7.1366E-01     7.2640   2.8758    85.8728
 36      0.0000     0.0000E+00    0.0000E+00    3.160000E+06  0.02000  3.762E-02    0   0.9858   age045_m62            0.0000     7.1198E-01     7.2602   2.8123    86.7519
 37      0.0000     0.0000E+00    0.0000E+00    5.010000E+06  0.02000  3.296E-02    0   0.9342   age055_m62            0.0000     6.3005E-01     6.5451   2.3725    93.3533
 38     21.9053     7.5757E-01    1.1714E+00    8.710000E+06  0.02000  1.154E-02    0   0.8861   age067_m62            0.0000     8.3907E-01     6.9726   1.3008   100.1579
 39      0.0000     0.0000E+00    0.0000E+00    1.445000E+07  0.02000  7.663E-03    0   0.8472   age078_m62            0.0000     5.4055E-01     5.7196   1.4936   100.7995
 40      0.0000     0.0000E+00    0.0000E+00    2.512000E+07  0.02000  4.532E-03    0   0.8099   age090_m62            0.0000     5.5833E-01     5.7424   1.4736   101.0742
 41      0.0000     0.0000E+00    0.0000E+00    5.500000E+07  0.02000  2.733E-03    0   0.7595   age110_m62            0.0000     4.6821E-01     5.4157   1.4835   101.8902
 42      0.0000     0.0000E+00    0.0000E+00    1.609000E+08  0.02000  1.369E-03    0   0.6985   age120_m62            0.0000     6.0250E-01     5.8401   1.2884   106.9495
 43      8.5981     3.8072E+00    4.4605E+00    2.861200E+08  0.02000  9.013E-04    0   0.6714   age125_m62            0.0000     7.6191E-01     6.3279   1.0126   111.6521
 44      0.0030     2.3666E-03    2.6633E-03    5.088000E+08  0.02000  5.028E-04    0   0.6449   age130_m62            0.0000     9.8163E-01     7.2374   0.6261   115.6681
 45      0.0000     0.0000E+00    0.0000E+00    9.047900E+08  0.02000  2.428E-04    0   0.6179   age135_m62            0.0000     9.8776E-01     7.2723   0.0618   113.9663
 46      0.0000     0.0000E+00    0.0000E+00    1.434000E+09  0.02000  1.263E-04    0   0.5908   age139_m62            0.0000     1.0427E+00     7.4260  -0.3527   110.7274
 47      0.0000     0.0000E+00    0.0000E+00    2.500000E+09  0.02000  5.985E-05    0   0.5673   age150_m62            0.0000     1.2835E+00     8.2948  -0.6886   107.9367
 48      0.0585     7.1433E-01    6.8160E-01    4.250000E+09  0.02000  3.271E-05    0   0.5468   age158_m62            0.0000     1.6385E+00     9.4273  -0.9744   106.3904
 49      0.0000     0.0000E+00    0.0000E+00    1.000000E+10  0.02000  1.360E-05    0   0.5167   age181_m62            0.0000     2.3877E+00    10.8194  -1.0000    91.0180
 50      0.0000     0.0000E+00    0.0000E+00    1.800000E+10  0.02000  7.124E-06    0   0.5013   age213_m62            0.0000     3.1411E+00    12.2923  -1.0000    81.5895
 51      0.0000     0.0000E+00    0.0000E+00    1.000000E+06  0.05000  2.592E-02    0   0.9998   age020_m72            0.0000     7.2602E-01     7.3481   2.8736    85.5926
 52      0.0000     0.0000E+00    0.0000E+00    3.160000E+06  0.05000  4.845E-02    0   0.9577   age045_m72            0.0000     6.8363E-01     7.0332   2.6740    88.9385
 53      0.0000     0.0000E+00    0.0000E+00    5.010000E+06  0.05000  3.072E-02    0   0.9147   age055_m72            0.0000     5.9870E-01     6.1966   2.1190    95.5490
 54      0.0000     0.0000E+00    0.0000E+00    6.610000E+06  0.05000  1.455E-02    0   0.8877   age061_m72            0.0000     1.7871E+00     9.1889   1.3200   101.8042
 55      0.0000     0.0000E+00    0.0000E+00    1.000000E+07  0.05000  9.074E-03    0   0.8524   age070_m72            0.0000     8.4819E-01     6.8299   2.2912    95.8566
 56      0.0000     0.0000E+00    0.0000E+00    2.512000E+07  0.05000  4.250E-03    0   0.7902   age090_m72            0.0000     6.3627E-01     6.0838   1.9549    99.3962
 57      0.0000     0.0000E+00    0.0000E+00    4.000000E+07  0.05000  3.087E-03    0   0.7618   age104_m72            0.0000     6.4451E-01     6.0057   1.7028   102.1723
 58      0.0000     0.0000E+00    0.0000E+00    1.015200E+08  0.05000  1.700E-03    0   0.7096   age116_m72            0.0000     5.7268E-01     5.7175   1.4265   106.4911
 59      0.0000     0.0000E+00    0.0000E+00    2.861200E+08  0.05000  7.384E-04    0   0.6633   age125_m72            0.0000     8.7591E-01     6.7757   0.8732   113.8536
 60      2.5455     2.6601E+00    2.9578E+00    5.088000E+08  0.05000  3.819E-04    0   0.6372   age130_m72            0.0000     9.9632E-01     7.3361   0.3946   115.3641
 61      7.9284     1.8879E+01    2.0129E+01    9.047900E+08  0.05000  1.676E-04    0   0.6110   age135_m72            0.0000     1.2704E+00     8.3188  -0.2461   110.8104
 62      0.0000     0.0000E+00    0.0000E+00    1.434000E+09  0.05000  8.837E-05    0   0.5874   age139_m72            0.0000     1.3759E+00     8.5452  -0.6962   109.9482
 63      0.0000     0.0000E+00    0.0000E+00    2.500000E+09  0.05000  4.233E-05    0   0.5598   age150_m72            0.0000     1.7784E+00     9.8349  -0.9706   107.1805
 64      1.9114     5.3159E+01    4.8691E+01    6.250000E+09  0.05000  1.435E-05    0   0.5249   age166_m72            0.0000     2.6622E+00    11.4891  -1.0000    86.4814
 65      0.0000     0.0000E+00    0.0000E+00    1.300000E+10  0.05000  6.513E-06    0   0.5036   age193_m72            0.0000     3.7273E+00    13.5724  -1.0000    76.1065
 66      0.0000     0.0000E+00    0.0000E+00    1.800000E+10  0.05000  4.527E-06    0   0.4945   age213_m72            0.0000     4.4094E+00    14.9371  -1.0000    70.1088


## Synthesis Results - Average & Chains ##

# j      x_j: min, <> & last-chain-values for 1 ...  7 chains
  1      0.0000      0.5073      1.8504      0.1833      0.0000      0.0000      0.0000      0.0000      0.1062
  2      0.0000      0.7588      0.0000      0.0000      0.0000      0.0000      1.4271      0.6869      0.0000
  3      0.0000      0.3010      0.0000      0.0000      0.0000      0.0000      0.0000      0.0000      2.6941
  4      0.0000      0.5424      0.6841      1.7452      1.1001      0.0000      0.0000      0.0000      0.5626
  5      0.0000      0.6313      0.0000      0.0000      0.0000      2.5710      1.9351      0.8152      0.0000
  6      0.0000      0.4439      2.5514      0.4267      0.0000      0.0000      0.0000      0.0000      0.0000
  7     12.0603      4.1593      4.1945      4.2602      2.6030      6.0710      5.6337      3.5503      2.1510
  8     18.8051     10.1244     18.4558     11.0282     13.2576      9.8743     13.3869     12.9394     17.1225
  9      0.0000      2.1263      6.7602      4.0772      0.1885      3.8734      0.0000      0.0000      3.0436
 10      7.7667      2.3648      0.0000      1.2202      4.1961      2.8122      2.7116      6.6228      1.0693
 11      0.0000      1.7081      0.0000      0.0000      0.0000      1.3759      0.0000      1.5581      0.4250
 12      0.0000      1.7514      0.0514      0.0299      0.0000      0.0000      0.0000      0.0000      0.0000
 13      8.1777      6.5612      7.7446      7.9922      5.2204      7.1208      9.3299      7.4341      6.7367
 14      0.0000      0.8995      0.0000      1.1661      1.4489      1.4939      0.6210      1.9393      0.5854
 15      0.0000      0.1775      0.0000      0.0000      0.0000      0.0000      0.0000      0.0000      0.0000
 16      0.0000      0.1286      0.0000      0.0866      0.0000      0.0000      0.0000      0.0000      0.3161
 17      0.0000      0.0871      0.0000      0.0000      0.0000      0.1912      0.0000      0.0000      0.0591
 18      0.0000      0.3061      0.0000      0.3568      0.7241      0.0000      0.0000      0.0000      0.0000
 19      0.0000      0.2462      0.0000      0.0000      0.0000      0.3460      1.0612      0.0000      0.6895
 20      0.0000      0.3755      0.4526      0.0000      0.0000      0.0000      0.9784      1.3374      0.0000
 21     12.3711     11.6807     10.4874     15.3609     16.8009     10.8969     12.8474     18.1425      7.1820
 22      1.8586      0.9275      0.0000      0.0000      2.9189      0.1274      0.0000      2.1286      3.0726
 23      0.0000      0.6519      0.0000      0.0000      0.1745      0.0505      2.8539      0.1300      0.0000
 24      0.7395      1.3247      0.0548      0.2642      2.5268      2.0939      0.9904      1.2360      1.0064
 25      0.0251      0.9380      0.9862      1.9192      2.4326      1.1072      0.5835      0.9707      0.9545
 26      0.0000      0.8146      0.0000      0.2500      0.0000      0.0151      0.0000      0.0000      0.7201
 27      0.0000      1.2756      0.0000      0.0000      0.0000      0.0000      2.3676      0.5595      0.6867
 28      0.0000      0.6581      0.0000      0.0000      0.0000      0.0000      0.0000      0.1608      0.2617
 29      0.0000      0.0939      0.0150      0.0000      0.0000      0.0000      0.0000      0.0000      0.0000
 30      0.0000      0.1205      0.0000      0.0000      0.9954      0.0000      0.0000      0.0000      0.0000
 31      0.0000      0.0643      0.0000      0.0000      0.0000      0.0000      0.0000      0.0000      0.0000
 32      0.0000      0.1060      0.0000      0.0000      0.3110      0.0000      0.0000      0.0000      0.0000
 33      0.0000      0.0576      0.0000      0.0000      0.0000      0.0000      0.0754      0.0000      0.0000
 34      0.0000      0.0103      0.0000      0.0000      0.0000      0.0000      0.1673      0.0000      0.0000
 35      0.0000      0.3094      0.0000      0.2900      0.0000      0.0000      0.0000      0.0000      1.5613
 36      0.0000      0.2977      0.0000      1.7328      0.0000      0.0000      0.7037      0.0000      0.0000
 37      0.0000      0.3170      0.0000      0.0000      0.0000      0.0000      0.0000      0.0000      0.0000
 38     21.9053     21.0049     22.3404     24.6944     23.8285     22.0140     23.5641     19.8264     23.0219
 39      0.0000      0.9172      2.8950      0.0000      0.0000      0.0000      0.0000      0.0000      0.0000
 40      0.0000      0.9771      0.0000      0.8293      0.0000      0.0000      0.0000      0.0000      0.0000
 41      0.0000      1.0904      0.9564      0.0000      0.0000      5.7814      0.1782      2.1436      0.7085
 42      0.0000      2.3662      0.0000      0.0000      0.0000      2.2119      0.0000      2.9979      0.7181
 43      8.5981      4.1132      2.8458      8.5108     14.4557      4.9116      2.9117      1.7579      7.0746
 44      0.0030      1.9955      1.7648      0.2791      3.5088      0.0000      1.7743      1.9921      1.5315
 45      0.0000      0.3368      0.0000      0.0000      0.1864      0.0000      0.4700      0.1862      0.5085
 46      0.0000      0.3031      0.0000      0.0000      0.0000      0.0000      0.4323      0.0000      0.0000
