###################################################################
## OUTPUT of StarlightChains_v04.for    [Cid@UFSC - 01/Apr/2007] ##
###################################################################

## Some input info
2005en.txt                               [arq_obs]
Base.CB07.vall.4m                        [arq_base]
Masks.EmLines.NEW.gm                     [arq_masks]
StCv04.C11.config                        [arq_config]
   66                                    [N_base]
    0                                    [N_YAV_components = # of components with extra extinction!]
    0                                    [i_FitPowerLaw (1/0 = Yes/No)]
-9.99                                    [alpha_PowerLaw]
CCM                                      [red_law_option]
 1.458241                                [q_norm = A(l_norm)/A(V)]

## (Re)Sampling Parameters
 3741.00                                 [l_ini (A)]
 7218.00                                 [l_fin (A)]
    1.00                                 [dl    (A)]     (OBS: dl_cushion =    50.00 A)

## Normalization info
 4020.00                                 [l_norm (A) - for base]
 4010.00                                 [llow_norm (A) - window for f_obs]
 4060.00                                 [lupp_norm (A) - window for f_obs]
2.754095E-16                             [fobs_norm (in input units)]

## S/N
 3691.00                                 [llow_SN (A) - window for S/N]
 7268.00                                 [lupp_SN (A) - window for S/N]
   8.697                                 [S/N in S/N window]
  10.689                                 [S/N in norm. window]
   0.000                                 [S/N_err in S/N window]
   0.000                                 [S/N_err in norm. window]
  1.0000                                 [fscale_chi2]

## etc...
    -2007301                             [idum_orig]
  2251                                   [NOl_eff]
  1985                                   [Nl_eff]
   266    NSIGMA                         [Ntot_cliped & clip_method]
  2246160                                [Nglobal_steps]
   7                                     [N_chains]
  30                                     [NEX0s_base = N_base in EX0s-fits]
 0   0   1        4   2.0   2.587E+02    [Clip-Bug, RC-Crash & Burn-In warning-flags, n_censored_weights, wei_nsig_threshold & wei_limit]
    20     20.204     19.709      0.495  [idt_all, wdt_TotTime, wdt_UsrTime & wdt_SysTime (sec)]

## Synthesis Results - Best model ##

 1.84876E+00                             [chi2/Nl_eff]
     1.74754                             [adev (%)]

   101.59531                             [sum-of-x (%)]
 7.81858E-16                             [Flux_tot (units of input spectrum!)]
 2.93746E-12                             [Mini_tot (???)]
 1.58158E-12                             [Mcor_tot (???)]

  24.35                                  [v0_min  (km/s)]
 229.35                                  [vd_min  (km/s)]
 0.7651                                  [AV_min  (mag)]
 0.0000                                  [YAV_min (mag)]

# j     x_j(%)      Mini_j(%)     Mcor_j(%)     age_j(yr)     Z_j      (L/M)_j    YAV?  Mstars   component_j        a/Fe...       SSP_chi2r SSP_adev(%)   SSP_AV   SSP_x(%)
  1      4.4991     1.0774E-01    2.0011E-01    1.000000E+06  0.00400  1.094E-02    0   1.0000   age020_m42            0.0000     1.1703E+01     4.3375   2.5063    91.4966
  2      0.0000     0.0000E+00    0.0000E+00    3.160000E+06  0.00400  4.007E-02    0   0.9999   age045_m42            0.0000     1.0883E+01     4.0887   1.8107    96.3394
  3      0.0000     0.0000E+00    0.0000E+00    5.010000E+06  0.00400  2.539E-02    0   0.9488   age055_m42            0.0000     9.6406E+00     3.9539   2.1167    94.6187
  4      0.0000     0.0000E+00    0.0000E+00    6.610000E+06  0.00400  2.620E-02    0   0.9220   age061_m42            0.0000     1.0019E+01     3.8781   1.7384    96.5060
  5      0.9715     1.9253E-02    3.1689E-02    1.000000E+07  0.00400  1.322E-02    0   0.8862   age070_m42            0.0000     4.5690E+00     2.5251   1.4566    98.7126
  6      0.3616     1.2018E-02    1.9131E-02    1.445000E+07  0.00400  7.883E-03    0   0.8571   age078_m42            0.0000     4.7449E+00     2.6371   1.7768    96.5312
  7      2.7278     1.3610E-01    2.0662E-01    2.512000E+07  0.00400  5.251E-03    0   0.8174   age090_m42            0.0000     4.2765E+00     2.4186   1.3296    99.1489
  8     10.7058     7.6865E-01    1.1208E+00    4.000000E+07  0.00400  3.649E-03    0   0.7851   age104_m42            0.0000     4.9767E+00     2.5408   1.1052    99.8021
  9      0.0030     2.4976E-04    3.5389E-04    5.500000E+07  0.00400  3.098E-03    0   0.7629   age110_m42            0.0000     8.5823E+00     3.1764   1.2638    99.4830
 10      0.0000     0.0000E+00    0.0000E+00    1.015200E+08  0.00400  2.228E-03    0   0.7207   age116_m42            0.0000     1.1995E+01     3.6368   1.2890    99.3950
 11      0.0000     0.0000E+00    0.0000E+00    2.861200E+08  0.00400  1.093E-03    0   0.6648   age125_m42            0.0000     1.2959E+01     3.5778   0.7277   102.0522
 12      0.0000     0.0000E+00    0.0000E+00    5.088000E+08  0.00400  6.597E-04    0   0.6365   age130_m42            0.0000     1.8668E+01     4.1483   0.7230   102.5498
 13      0.0000     0.0000E+00    0.0000E+00    1.434000E+09  0.00400  2.132E-04    0   0.5798   age139_m42            0.0000     2.3004E+01     4.4562  -0.2427   104.1163
 14      4.7282     2.1013E+01    2.0985E+01    4.250000E+09  0.00400  5.895E-05    0   0.5377   age158_m42            0.0000     2.9111E+01     5.3848  -0.6939   100.4925
 15      1.6746     1.2499E+01    1.2099E+01    7.500000E+09  0.00400  3.510E-05    0   0.5212   age171_m42            0.0000     3.7146E+01     5.9797  -0.8809    99.7087
 16      0.0008     1.0659E-02    9.9660E-03    1.300000E+10  0.00400  2.005E-05    0   0.5034   age193_m42            0.0000     4.6478E+01     6.3153  -1.0000    97.7426
 17      0.4808     8.2604E+00    7.6203E+00    1.800000E+10  0.00400  1.525E-05    0   0.4967   age213_m42            0.0000     4.5317E+01     6.1506  -1.0000    96.6372
 18      0.5470     1.1575E-02    2.1499E-02    1.000000E+06  0.00800  1.238E-02    0   1.0000   age020_m52            0.0000     1.1719E+01     4.3441   2.5026    91.6729
 19      3.0174     2.5716E-02    4.7601E-02    3.160000E+06  0.00800  3.074E-02    0   0.9966   age045_m52            0.0000     1.1545E+01     4.2965   2.4273    92.4122
 20      1.8747     1.8409E-02    3.2286E-02    5.010000E+06  0.00800  2.668E-02    0   0.9443   age055_m52            0.0000     9.3223E+00     3.9024   2.1957    93.9524
 21     21.9621     2.6937E-01    4.5913E-01    6.610000E+06  0.00800  2.136E-02    0   0.9177   age061_m52            0.0000     3.6711E+00     2.4022   0.9474   100.2320
 22      0.0200     4.3205E-04    7.0832E-04    1.000000E+07  0.00800  1.215E-02    0   0.8827   age070_m52            0.0000     3.5842E+00     2.2960   1.6343    98.6312
 23      0.0018     5.4875E-05    8.7161E-05    1.445000E+07  0.00800  8.717E-03    0   0.8552   age078_m52            0.0000     4.4757E+00     2.5452   1.7444    97.7564
 24      1.6904     7.9195E-02    1.2005E-01    2.512000E+07  0.00800  5.592E-03    0   0.8162   age090_m52            0.0000     4.3572E+00     2.4076   1.3968   100.1498
 25      0.0000     0.0000E+00    0.0000E+00    4.000000E+07  0.00800  3.896E-03    0   0.7841   age104_m52            0.0000     5.9673E+00     2.7038   1.3155   100.5739
 26      0.0001     6.2127E-06    8.3380E-06    1.015200E+08  0.00800  2.148E-03    0   0.7226   age116_m52            0.0000     9.2425E+00     3.1950   1.2588   100.1304
 27      0.0000     0.0000E+00    0.0000E+00    2.861200E+08  0.00800  9.925E-04    0   0.6683   age125_m52            0.0000     1.8628E+01     4.0350   0.7879   103.4710
 28      0.0000     0.0000E+00    0.0000E+00    9.047900E+08  0.00800  3.141E-04    0   0.6138   age135_m52            0.0000     3.1996E+01     5.1957   0.0062   106.6946
 29      0.0000     0.0000E+00    0.0000E+00    1.434000E+09  0.00800  1.719E-04    0   0.5853   age139_m52            0.0000     2.9439E+01     5.2038  -0.5820   104.8608
 30      0.0000     0.0000E+00    0.0000E+00    2.500000E+09  0.00800  7.872E-05    0   0.5600   age150_m52            0.0000     4.1299E+01     6.3130  -0.8548   102.1218
 31      0.4402     2.6595E+00    2.6801E+00    4.250000E+09  0.00800  4.336E-05    0   0.5426   age158_m52            0.0000     4.3246E+01     6.3910  -0.8711   101.2272
 32      0.0134     1.1089E-01    1.0955E-01    6.250000E+09  0.00800  3.159E-05    0   0.5319   age166_m52            0.0000     5.7948E+01     6.9420  -1.0000    98.8236
 33      1.8491     3.5594E+01    3.3537E+01    1.300000E+10  0.00800  1.361E-05    0   0.5073   age193_m52            0.0000     1.3481E+02    11.2854  -1.0000    83.5143
 34      0.0000     0.0000E+00    0.0000E+00    1.800000E+10  0.00800  9.886E-06    0   0.4990   age213_m52            0.0000     1.7271E+02    12.9361  -1.0000    79.7142
 35      3.2937     5.5889E-02    1.0380E-01    1.000000E+06  0.02000  1.544E-02    0   1.0000   age020_m62            0.0000     1.1868E+01     4.3732   2.4981    91.9227
 36      2.9128     2.0285E-02    3.7140E-02    3.160000E+06  0.02000  3.762E-02    0   0.9858   age045_m62            0.0000     1.2068E+01     4.3968   2.4346    92.8183
 37      0.0001     9.9517E-07    1.7267E-06    5.010000E+06  0.02000  3.296E-02    0   0.9342   age055_m62            0.0000     1.0480E+01     4.1424   2.0797    95.6307
 38     22.7798     5.1716E-01    8.5112E-01    8.710000E+06  0.02000  1.154E-02    0   0.8861   age067_m62            0.0000     8.2056E+00     3.5491   1.0778   102.0839
 39      0.0000     0.0000E+00    0.0000E+00    1.445000E+07  0.02000  7.663E-03    0   0.8472   age078_m62            0.0000     3.0201E+00     2.1844   1.2802   101.0018
 40      0.0000     0.0000E+00    0.0000E+00    2.512000E+07  0.02000  4.532E-03    0   0.8099   age090_m62            0.0000     3.7885E+00     2.4000   1.2771   100.5256
 41      0.0000     0.0000E+00    0.0000E+00    5.500000E+07  0.02000  2.733E-03    0   0.7595   age110_m62            0.0000     5.1828E+00     2.5540   1.2935   100.0863
 42      0.0000     0.0000E+00    0.0000E+00    1.609000E+08  0.02000  1.369E-03    0   0.6985   age120_m62            0.0000     1.3536E+01     3.5337   1.1442   102.1405
 43      0.0000     0.0000E+00    0.0000E+00    2.861200E+08  0.02000  9.013E-04    0   0.6714   age125_m62            0.0000     2.1786E+01     4.1724   0.9011   104.5989
 44      0.0000     0.0000E+00    0.0000E+00    5.088000E+08  0.02000  5.028E-04    0   0.6449   age130_m62            0.0000     3.3637E+01     5.3783   0.5342   106.6770
 45      0.0000     0.0000E+00    0.0000E+00    9.047900E+08  0.02000  2.428E-04    0   0.6179   age135_m62            0.0000     3.5200E+01     5.6821  -0.0500   105.8199
 46      0.0000     0.0000E+00    0.0000E+00    1.434000E+09  0.02000  1.263E-04    0   0.5908   age139_m62            0.0000     3.9034E+01     6.0259  -0.4984   104.4099
 47      1.5536     6.8007E+00    7.1655E+00    2.500000E+09  0.02000  5.985E-05    0   0.5673   age150_m62            0.0000     5.4112E+01     7.1446  -0.8680   103.0173
 48      0.0000     0.0000E+00    0.0000E+00    4.250000E+09  0.02000  3.271E-05    0   0.5468   age158_m62            0.0000     8.2206E+01     8.1213  -1.0000    96.4805
 49      0.0000     0.0000E+00    0.0000E+00    1.000000E+10  0.02000  1.360E-05    0   0.5167   age181_m62            0.0000     1.5612E+02    11.4414  -1.0000    84.9297
 50      0.0000     0.0000E+00    0.0000E+00    1.800000E+10  0.02000  7.124E-06    0   0.5013   age213_m62            0.0000     2.2293E+02    14.2924  -1.0000    77.7297
 51      6.4751     6.5447E-02    1.2153E-01    1.000000E+06  0.05000  2.592E-02    0   0.9998   age020_m72            0.0000     1.2198E+01     4.4400   2.4894    91.9856
 52      0.0084     4.5540E-05    8.1003E-05    3.160000E+06  0.05000  4.845E-02    0   0.9577   age045_m72            0.0000     1.1501E+01     4.3321   2.3259    93.6543
 53      0.0000     0.0000E+00    0.0000E+00    5.010000E+06  0.05000  3.072E-02    0   0.9147   age055_m72            0.0000     5.0708E+00     2.8128   1.8618    97.3876
 54      0.0000     0.0000E+00    0.0000E+00    6.610000E+06  0.05000  1.455E-02    0   0.8877   age061_m72            0.0000     2.4392E+01     6.0073   1.1323   103.0490
 55      0.0000     0.0000E+00    0.0000E+00    1.000000E+07  0.05000  9.074E-03    0   0.8524   age070_m72            0.0000     9.0309E+00     3.6648   2.0518    96.9728
 56      0.0000     0.0000E+00    0.0000E+00    2.512000E+07  0.05000  4.250E-03    0   0.7902   age090_m72            0.0000     6.8429E+00     3.2184   1.7604    98.2210
 57      0.0000     0.0000E+00    0.0000E+00    4.000000E+07  0.05000  3.087E-03    0   0.7618   age104_m72            0.0000     7.7394E+00     3.3294   1.5374    99.6008
 58      0.0000     0.0000E+00    0.0000E+00    1.015200E+08  0.05000  1.700E-03    0   0.7096   age116_m72            0.0000     1.1528E+01     3.3445   1.2867   101.7747
 59      0.0000     0.0000E+00    0.0000E+00    2.861200E+08  0.05000  7.384E-04    0   0.6633   age125_m72            0.0000     2.7975E+01     4.7419   0.7774   105.4946
 60      0.0029     2.0029E-03    2.3704E-03    5.088000E+08  0.05000  3.819E-04    0   0.6372   age130_m72            0.0000     3.4565E+01     5.6340   0.2888   106.8232
 61      6.9996     1.0942E+01    1.2417E+01    9.047900E+08  0.05000  1.676E-04    0   0.6110   age135_m72            0.0000     4.9391E+01     7.0265  -0.4124   105.0445
 62      0.0000     0.0000E+00    0.0000E+00    1.434000E+09  0.05000  8.837E-05    0   0.5874   age139_m72            0.0000     5.9188E+01     7.4039  -0.8637   104.2254
 63      0.0000     0.0000E+00    0.0000E+00    2.500000E+09  0.05000  4.233E-05    0   0.5598   age150_m72            0.0000     8.9753E+01     8.5574  -1.0000    97.2118
 64      0.0000     0.0000E+00    0.0000E+00    6.250000E+09  0.05000  1.435E-05    0   0.5249   age166_m72            0.0000     1.8208E+02    12.7361  -1.0000    81.5572
 65      0.0000     0.0000E+00    0.0000E+00    1.300000E+10  0.05000  6.513E-06    0   0.5036   age193_m72            0.0000     2.8119E+02    16.4240  -1.0000    73.6748
 66      0.0000     0.0000E+00    0.0000E+00    1.800000E+10  0.05000  4.527E-06    0   0.4945   age213_m72            0.0000     3.4639E+02    18.3205  -1.0000    68.7359


## Synthesis Results - Average & Chains ##

# j      x_j: min, <> & last-chain-values for 1 ...  7 chains
  1      4.4991      4.7437      4.5889      4.9589      4.1739      4.8263      4.0556      4.7918      4.6956
  2      0.0000      0.1308      0.0969      0.2106      0.0229      0.1119      0.0000      0.3704      0.0854
  3      0.0000      0.1530      0.0000      0.5543      0.0000      0.0000      0.0000      0.0000      0.0000
  4      0.0000      0.2030      0.7324      0.0000      0.1117      0.2530      0.2710      0.1142      0.0000
  5      0.9715      1.0370      1.2856      0.7307      1.3194      0.9031      2.5434      0.9559      1.7159
  6      0.3616      0.5043      0.5795      1.0473      0.7320      1.0555      0.0791      0.5462      0.4329
  7      2.7278      2.1893      2.5529      2.3987      2.2806      2.7202      2.0304      2.5926      3.8298
  8     10.7058      7.1176      7.1178      7.0167      7.6809      8.1572      7.6261      7.6377      8.0851
  9      0.0030      0.6984      0.5459      0.2865      0.3954      0.7356      1.0017      0.7566      1.2965
 10      0.0000      0.2341      0.3599      0.5869      0.0000      0.0000      0.0000      0.0000      0.0000
 11      0.0000      0.0603      0.0000      0.0000      0.0000      0.0142      0.0000      0.0000      0.0000
 12      0.0000      0.0543      0.0000      0.0000      0.0000      0.0000      0.0000      0.0000      0.0151
 13      0.0000      0.0923      0.0000      0.0266      0.0000      0.0000      0.0000      0.3767      0.0000
 14      4.7282      4.3171      4.3872      4.3741      4.3505      4.3985      4.1891      4.4487      4.2947
 15      1.6746      1.9831      1.8619      2.1314      1.8346      1.9934      1.7550      1.9731      2.0159
 16      0.0008      0.5248      0.3846      0.6066      0.3785      0.5471      0.6571      0.3388      0.5549
 17      0.4808      1.4516      1.2645      1.5425      1.4591      1.4064      1.2238      1.4696      1.4748
 18      0.5470      1.0003      0.0000      0.7908      0.6392      1.3585      0.8784      1.0573      0.9003
 19      3.0174      3.2984      3.6676      3.4885      3.2648      3.4349      3.7100      3.3746      3.0864
 20      1.8747      2.5052      2.2247      2.2763      2.6325      2.3821      2.3846      2.6993      2.6821
 21     21.9621     20.4732     20.5117     19.8824     20.0683     21.2441     21.1892     20.3179     20.2334
 22      0.0200      0.4264      0.3983      0.3954      0.4381      0.0000      0.4273      0.0000      0.8216
 23      0.0018      0.6857      1.6926      0.7172      0.8849      0.0305      0.7374      0.6436      0.8433
 24      1.6904      2.0839      2.0067      1.9407      2.7053      1.9155      2.1340      1.2793      2.1416
 25      0.0000      0.2701      0.1210      0.4318      0.2950      0.1726      0.2483      0.5692      0.0000
 26      0.0001      0.1835      0.6038      0.0041      0.3659      0.0000      0.0619      0.0000      0.0874
 27      0.0000      0.0985      0.0000      0.0000      0.0000      0.0000      0.0000      0.0000      0.0000
 28      0.0000      0.0300      0.0000      0.0000      0.0000      0.0000      0.0000      0.0000      0.0000
 29      0.0000      0.0205      0.0000      0.0000      0.0000      0.0554      0.0000      0.0000      0.0000
 30      0.0000      0.0254      0.0000      0.1563      0.0000      0.0000      0.0000      0.0000      0.0000
 31      0.4402      1.6718      1.6087      1.6143      1.7137      1.5154      1.6713      1.6124      1.7047
 32      0.0134      1.4740      1.4497      0.8632      1.4310      1.2902      1.5786      1.3165      1.5217
 33      1.8491      1.5949      1.6342      1.6271      1.5445      1.7203      1.6830      1.5500      1.6290
 34      0.0000      0.0028      0.0000      0.0075      0.0000      0.0000      0.0000      0.0000      0.0000
 35      3.2937      3.8738      3.5344      4.1084      3.5905      3.8320      3.7979      3.8330      3.2328
 36      2.9128      2.7400      2.6826      2.5772      3.2392      2.6575      2.6992      3.0693      2.9050
 37      0.0001      0.1987      0.0302      0.0000      0.7399      0.8303      0.2145      0.0000      0.0168
 38     22.7798     18.7754     19.4855     19.7202     19.3127     18.8501     19.8224     19.3487     17.7954
 39      0.0000      0.2063      0.0000      0.3153      0.0000      0.5780      0.0289      0.0583      0.0000
 40      0.0000      0.1498      0.0000      0.0000      0.0000      0.0000      0.0000      0.1105      0.3192
 41      0.0000      0.4628      0.9044      0.4062      0.2891      0.0000      0.3946      0.0795      0.0000
 42      0.0000      0.2832      0.0000      0.1593      0.3112      0.0166      0.1930      1.0410      0.0000
 43      0.0000      0.2820      0.3698      0.8226      0.1575      0.0858      0.0000      0.0463      0.0000
 44      0.0000      0.1418      0.1727      0.0000      0.0000      0.1359      0.0000      0.0000      0.0000
 45      0.0000      0.0367      0.0000      0.1452      0.0000      0.0000      0.0000      0.0006      0.0000
 46      0.0000      0.0497      0.1186      0.0000      0.0000      0.0004      0.0000      0.0000      0.0000
