###################################################################
## OUTPUT of StarlightChains_v04.for    [Cid@UFSC - 01/Apr/2007] ##
###################################################################

## Some input info
2005eo.txt                               [arq_obs]
Base.CB07.vall.4m                        [arq_base]
Masks.EmLines.NEW.gm                     [arq_masks]
StCv04.C11.config                        [arq_config]
   66                                    [N_base]
    0                                    [N_YAV_components = # of components with extra extinction!]
    0                                    [i_FitPowerLaw (1/0 = Yes/No)]
-9.99                                    [alpha_PowerLaw]
CCM                                      [red_law_option]
 1.458241                                [q_norm = A(l_norm)/A(V)]

## (Re)Sampling Parameters
 3741.00                                 [l_ini (A)]
 7218.00                                 [l_fin (A)]
    1.00                                 [dl    (A)]     (OBS: dl_cushion =    50.00 A)

## Normalization info
 4020.00                                 [l_norm (A) - for base]
 4010.00                                 [llow_norm (A) - window for f_obs]
 4060.00                                 [lupp_norm (A) - window for f_obs]
1.093385E-16                             [fobs_norm (in input units)]

## S/N
 3691.00                                 [llow_SN (A) - window for S/N]
 7268.00                                 [lupp_SN (A) - window for S/N]
  13.398                                 [S/N in S/N window]
  15.116                                 [S/N in norm. window]
   0.000                                 [S/N_err in S/N window]
   0.000                                 [S/N_err in norm. window]
  1.0000                                 [fscale_chi2]

## etc...
    -2007302                             [idum_orig]
  2323                                   [NOl_eff]
  2116                                   [Nl_eff]
   207    NSIGMA                         [Ntot_cliped & clip_method]
  2139620                                [Nglobal_steps]
   7                                     [N_chains]
  32                                     [NEX0s_base = N_base in EX0s-fits]
 0   0   1        4   2.0   1.069E+02    [Clip-Bug, RC-Crash & Burn-In warning-flags, n_censored_weights, wei_nsig_threshold & wei_limit]
    21     20.501     20.005      0.496  [idt_all, wdt_TotTime, wdt_UsrTime & wdt_SysTime (sec)]

## Synthesis Results - Best model ##

 1.80820E+00                             [chi2/Nl_eff]
     3.02360                             [adev (%)]

   100.66804                             [sum-of-x (%)]
 3.00352E-16                             [Flux_tot (units of input spectrum!)]
 6.06495E-12                             [Mini_tot (???)]
 3.03217E-12                             [Mcor_tot (???)]

 185.51                                  [v0_min  (km/s)]
 210.68                                  [vd_min  (km/s)]
 0.7474                                  [AV_min  (mag)]
 0.0000                                  [YAV_min (mag)]

# j     x_j(%)      Mini_j(%)     Mcor_j(%)     age_j(yr)     Z_j      (L/M)_j    YAV?  Mstars   component_j        a/Fe...       SSP_chi2r SSP_adev(%)   SSP_AV   SSP_x(%)
  1      2.7759     1.2482E-02    2.4967E-02    1.000000E+06  0.00400  1.094E-02    0   1.0000   age020_m42            0.0000     7.7058E+00     6.2280   2.8174    88.8083
  2      0.2811     3.4514E-04    6.9028E-04    3.160000E+06  0.00400  4.007E-02    0   0.9999   age045_m42            0.0000     6.2750E+00     5.6353   2.1368    93.0211
  3      0.0000     0.0000E+00    0.0000E+00    5.010000E+06  0.00400  2.539E-02    0   0.9488   age055_m42            0.0000     6.4016E+00     5.6503   2.4360    91.6006
  4      0.0000     0.0000E+00    0.0000E+00    6.610000E+06  0.00400  2.620E-02    0   0.9220   age061_m42            0.0000     5.7823E+00     5.4376   2.0650    93.1870
  5      1.1119     4.1377E-03    7.3344E-03    1.000000E+07  0.00400  1.322E-02    0   0.8862   age070_m42            0.0000     3.3725E+00     4.0443   1.7855    95.3436
  6      0.4598     2.8693E-03    4.9190E-03    1.445000E+07  0.00400  7.883E-03    0   0.8571   age078_m42            0.0000     3.8836E+00     4.2755   2.1006    93.3900
  7      4.3790     4.1025E-02    6.7075E-02    2.512000E+07  0.00400  5.251E-03    0   0.8174   age090_m42            0.0000     3.0676E+00     3.8267   1.6613    95.7037
  8      2.2033     2.9704E-02    4.6645E-02    4.000000E+07  0.00400  3.649E-03    0   0.7851   age104_m42            0.0000     3.1633E+00     3.9223   1.4406    96.1992
  9      1.4881     2.3630E-02    3.6058E-02    5.500000E+07  0.00400  3.098E-03    0   0.7629   age110_m42            0.0000     4.2466E+00     4.5537   1.5995    95.8122
 10      0.0000     0.0000E+00    0.0000E+00    1.015200E+08  0.00400  2.228E-03    0   0.7207   age116_m42            0.0000     5.1426E+00     4.9994   1.6261    95.6553
 11      0.0014     6.1524E-05    8.1811E-05    2.861200E+08  0.00400  1.093E-03    0   0.6648   age125_m42            0.0000     4.6648E+00     4.6178   1.0674    98.0794
 12      0.0000     0.0000E+00    0.0000E+00    5.088000E+08  0.00400  6.597E-04    0   0.6365   age130_m42            0.0000     6.1101E+00     5.2185   1.0665    98.4069
 13      0.0000     0.0000E+00    0.0000E+00    1.434000E+09  0.00400  2.132E-04    0   0.5798   age139_m42            0.0000     6.8320E+00     5.3871   0.1108    99.6709
 14      0.0000     0.0000E+00    0.0000E+00    4.250000E+09  0.00400  5.895E-05    0   0.5377   age158_m42            0.0000     8.9298E+00     6.3229  -0.3471    96.4668
 15      0.0000     0.0000E+00    0.0000E+00    7.500000E+09  0.00400  3.510E-05    0   0.5212   age171_m42            0.0000     1.0770E+01     6.8207  -0.5355    95.7615
 16      0.0000     0.0000E+00    0.0000E+00    1.300000E+10  0.00400  2.005E-05    0   0.5034   age193_m42            0.0000     1.2696E+01     7.2867  -0.7017    95.2177
 17      2.7578     8.8962E+00    8.8384E+00    1.800000E+10  0.00400  1.525E-05    0   0.4967   age213_m42            0.0000     1.2365E+01     7.1976  -0.7264    94.8826
 18      3.9138     1.5552E-02    3.1107E-02    1.000000E+06  0.00800  1.238E-02    0   1.0000   age020_m52            0.0000     7.7323E+00     6.2367   2.8137    88.9846
 19      3.1073     4.9727E-03    9.9127E-03    3.160000E+06  0.00800  3.074E-02    0   0.9966   age045_m52            0.0000     7.6664E+00     6.1950   2.7392    89.6886
 20      0.0000     0.0000E+00    0.0000E+00    5.010000E+06  0.00800  2.668E-02    0   0.9443   age055_m52            0.0000     6.4794E+00     5.6719   2.5122    91.0530
 21      0.0000     0.0000E+00    0.0000E+00    6.610000E+06  0.00800  2.136E-02    0   0.9177   age061_m52            0.0000     3.2124E+00     4.0318   1.2816    96.6684
 22      0.7978     3.2304E-03    5.7034E-03    1.000000E+07  0.00800  1.215E-02    0   0.8827   age070_m52            0.0000     3.0418E+00     3.7467   1.9586    95.4101
 23      3.9779     2.2449E-02    3.8400E-02    1.445000E+07  0.00800  8.717E-03    0   0.8552   age078_m52            0.0000     3.6440E+00     4.1520   2.0701    94.5127
 24      0.0000     0.0000E+00    0.0000E+00    2.512000E+07  0.00800  5.592E-03    0   0.8162   age090_m52            0.0000     2.9299E+00     3.7183   1.7280    96.6654
 25      3.8543     4.8667E-02    7.6328E-02    4.000000E+07  0.00800  3.896E-03    0   0.7841   age104_m52            0.0000     3.2740E+00     3.9478   1.6489    96.9616
 26      0.0000     0.0000E+00    0.0000E+00    1.015200E+08  0.00800  2.148E-03    0   0.7226   age116_m52            0.0000     4.2840E+00     4.5705   1.5941    96.4324
 27      0.0006     2.7538E-05    3.6811E-05    2.861200E+08  0.00800  9.925E-04    0   0.6683   age125_m52            0.0000     5.9370E+00     5.0870   1.1323    99.2609
 28      0.0000     0.0000E+00    0.0000E+00    9.047900E+08  0.00800  3.141E-04    0   0.6138   age135_m52            0.0000     8.7329E+00     5.9183   0.3588   102.0408
 29      0.0000     0.0000E+00    0.0000E+00    1.434000E+09  0.00800  1.719E-04    0   0.5853   age139_m52            0.0000     8.2909E+00     5.9859  -0.2344   100.5520
 30      0.0000     0.0000E+00    0.0000E+00    2.500000E+09  0.00800  7.872E-05    0   0.5600   age150_m52            0.0000     1.1636E+01     7.0836  -0.5095    98.0630
 31      0.0000     0.0000E+00    0.0000E+00    4.250000E+09  0.00800  4.336E-05    0   0.5426   age158_m52            0.0000     1.2080E+01     7.1603  -0.5259    97.2138
 32      0.0000     0.0000E+00    0.0000E+00    6.250000E+09  0.00800  3.159E-05    0   0.5319   age166_m52            0.0000     1.5251E+01     7.9142  -0.7247    96.9880
 33      1.9384     7.0064E+00    7.1094E+00    1.300000E+10  0.00800  1.361E-05    0   0.5073   age193_m52            0.0000     2.2290E+01     8.8289  -1.0000    90.5920
 34      4.3695     2.1743E+01    2.1702E+01    1.800000E+10  0.00800  9.886E-06    0   0.4990   age213_m52            0.0000     2.9100E+01     9.8695  -1.0000    86.8997
 35      5.4998     1.7523E-02    3.5050E-02    1.000000E+06  0.02000  1.544E-02    0   1.0000   age020_m62            0.0000     7.8182E+00     6.2735   2.8078    89.2695
 36      1.3362     1.7472E-03    3.4452E-03    3.160000E+06  0.02000  3.762E-02    0   0.9858   age045_m62            0.0000     7.8601E+00     6.2903   2.7457    90.1023
 37      0.0000     0.0000E+00    0.0000E+00    5.010000E+06  0.02000  3.296E-02    0   0.9342   age055_m62            0.0000     6.5072E+00     5.7656   2.4013    92.4820
 38     32.6304     1.3910E-01    2.4654E-01    8.710000E+06  0.02000  1.154E-02    0   0.8861   age067_m62            0.0000     2.9485E+00     3.7469   1.3991    99.0620
 39      0.0000     0.0000E+00    0.0000E+00    1.445000E+07  0.02000  7.663E-03    0   0.8472   age078_m62            0.0000     2.3191E+00     3.3130   1.6069    97.6444
 40      0.0000     0.0000E+00    0.0000E+00    2.512000E+07  0.02000  4.532E-03    0   0.8099   age090_m62            0.0000     2.3659E+00     3.3072   1.6023    97.2321
 41      0.0000     0.0000E+00    0.0000E+00    5.500000E+07  0.02000  2.733E-03    0   0.7595   age110_m62            0.0000     3.1421E+00     3.9184   1.6261    96.5433
 42      0.0000     0.0000E+00    0.0000E+00    1.609000E+08  0.02000  1.369E-03    0   0.6985   age120_m62            0.0000     4.9715E+00     4.7804   1.4835    98.2289
 43      6.4658     3.5291E-01    4.7393E-01    2.861200E+08  0.02000  9.013E-04    0   0.6714   age125_m62            0.0000     6.6876E+00     5.2675   1.2483   100.3033
 44      2.7944     2.7341E-01    3.5268E-01    5.088000E+08  0.02000  5.028E-04    0   0.6449   age130_m62            0.0000     9.5689E+00     6.2520   0.8887   101.9625
 45      0.0000     0.0000E+00    0.0000E+00    9.047900E+08  0.02000  2.428E-04    0   0.6179   age135_m62            0.0000     9.9704E+00     6.4888   0.3018   101.3128
 46      0.0000     0.0000E+00    0.0000E+00    1.434000E+09  0.02000  1.263E-04    0   0.5908   age139_m62            0.0000     1.1127E+01     6.8374  -0.1493   100.1132
 47      0.0000     0.0000E+00    0.0000E+00    2.500000E+09  0.02000  5.985E-05    0   0.5673   age150_m62            0.0000     1.4844E+01     7.8571  -0.5212    98.8951
 48      0.0000     0.0000E+00    0.0000E+00    4.250000E+09  0.02000  3.271E-05    0   0.5468   age158_m62            0.0000     2.0298E+01     9.0790  -0.8240    97.8170
 49      0.0165     5.9782E-02    6.1785E-02    1.000000E+10  0.02000  1.360E-05    0   0.5167   age181_m62            0.0000     2.9397E+01    10.2000  -1.0000    92.1057
 50      0.3980     2.7482E+00    2.7556E+00    1.800000E+10  0.02000  7.124E-06    0   0.5013   age213_m62            0.0000     4.1618E+01    11.6397  -1.0000    85.0836
 51      1.9103     3.6257E-03    7.2506E-03    1.000000E+06  0.05000  2.592E-02    0   0.9998   age020_m72            0.0000     8.0437E+00     6.3501   2.7959    89.4464
 52      0.0015     1.5365E-06    2.9433E-06    3.160000E+06  0.05000  4.845E-02    0   0.9577   age045_m72            0.0000     7.5055E+00     6.1277   2.6401    90.8028
 53      0.0000     0.0000E+00    0.0000E+00    5.010000E+06  0.05000  3.072E-02    0   0.9147   age055_m72            0.0000     3.8126E+00     4.2667   2.1760    94.4141
 54      0.0000     0.0000E+00    0.0000E+00    6.610000E+06  0.05000  1.455E-02    0   0.8877   age061_m72            0.0000     6.8102E+00     5.7650   1.4369   100.2553
 55      0.0000     0.0000E+00    0.0000E+00    1.000000E+07  0.05000  9.074E-03    0   0.8524   age070_m72            0.0000     4.9376E+00     4.9053   2.3592    94.0913
 56      0.0000     0.0000E+00    0.0000E+00    2.512000E+07  0.05000  4.250E-03    0   0.7902   age090_m72            0.0000     3.7716E+00     4.2518   2.0769    95.0781
 57      0.0000     0.0000E+00    0.0000E+00    4.000000E+07  0.05000  3.087E-03    0   0.7618   age104_m72            0.0000     3.5613E+00     4.1635   1.8581    96.2909
 58      0.0046     1.3432E-04    1.9065E-04    1.015200E+08  0.05000  1.700E-03    0   0.7096   age116_m72            0.0000     4.3871E+00     4.4636   1.6224    97.9832
 59      6.8466     4.5614E-01    6.0517E-01    2.861200E+08  0.05000  7.384E-04    0   0.6633   age125_m72            0.0000     8.1653E+00     5.7606   1.1258   101.1039
 60      0.0000     0.0000E+00    0.0000E+00    5.088000E+08  0.05000  3.819E-04    0   0.6372   age130_m72            0.0000     1.0013E+01     6.5278   0.6422   102.2319
 61      0.0000     0.0000E+00    0.0000E+00    9.047900E+08  0.05000  1.676E-04    0   0.6110   age135_m72            0.0000     1.4125E+01     7.7766  -0.0611   100.6601
 62      0.0000     0.0000E+00    0.0000E+00    1.434000E+09  0.05000  8.837E-05    0   0.5874   age139_m72            0.0000     1.6125E+01     8.0918  -0.5174   100.0809
 63      0.0000     0.0000E+00    0.0000E+00    2.500000E+09  0.05000  4.233E-05    0   0.5598   age150_m72            0.0000     2.2149E+01     9.4682  -0.8251    98.5986
 64      0.0000     0.0000E+00    0.0000E+00    6.250000E+09  0.05000  1.435E-05    0   0.5249   age166_m72            0.0000     3.3801E+01    10.7546  -1.0000    88.8326
 65      0.0000     0.0000E+00    0.0000E+00    1.300000E+10  0.05000  6.513E-06    0   0.5036   age193_m72            0.0000     5.3718E+01    13.1939  -1.0000    81.2222
 66      5.3459     5.8092E+01    5.7459E+01    1.800000E+10  0.05000  4.527E-06    0   0.4945   age213_m72            0.0000     6.8821E+01    14.9588  -1.0000    76.2568


## Synthesis Results - Average & Chains ##

# j      x_j: min, <> & last-chain-values for 1 ...  7 chains
  1      2.7759      1.6812      1.4738      1.7262      1.6452      1.8555      2.1899      1.7837      1.9531
  2      0.2811      0.2117      0.0000      0.0000      0.0000      0.0000      0.0000      0.8076      0.3112
  3      0.0000      0.2791      0.4100      0.0593      0.0000      0.2046      0.4292      0.0000      1.1166
  4      0.0000      0.3226      0.1697      0.3229      0.0000      0.0000      0.2384      0.0000      0.0000
  5      1.1119      1.3320      1.1166      1.8495      1.9576      2.1996      2.0139      1.2504      0.5345
  6      0.4598      0.4574      0.4171      0.2913      0.8857      0.0427      0.0000      0.6706      0.5648
  7      4.3790      1.9482      1.8634      1.9378      2.7338      3.2898      2.1589      3.6589      2.1019
  8      2.2033      2.0550      3.1301      2.1670      2.5492      1.7924      4.3661      1.7292      2.4245
  9      1.4881      1.4709      1.8688      1.5787      1.5391      1.6667      1.4392      2.2366      0.9250
 10      0.0000      0.3886      1.0227      0.1011      0.3185      0.0000      0.0000      0.0000      1.3108
 11      0.0014      0.3905      0.0000      0.0059      0.0000      0.0000      0.0000      0.6087      0.8800
 12      0.0000      0.4248      0.0000      0.8216      0.4811      0.0000      1.0520      0.1428      0.0821
 13      0.0000      0.2508      0.0000      0.0000      0.0000      0.2751      0.0000      0.3489      0.0944
 14      0.0000      0.0483      0.0000      0.0093      0.0000      0.0000      0.1321      0.0000      0.0000
 15      0.0000      0.0402      0.0000      0.0000      0.0000      0.0424      0.0000      0.0000      0.0000
 16      0.0000      0.0407      0.0000      0.0000      0.0000      0.0000      0.0000      0.0000      0.0000
 17      2.7578      5.6999      5.7997      5.5207      5.2764      5.5960      5.7521      4.9156      5.7196
 18      3.9138      3.8987      3.3094      3.5491      3.4485      4.0306      4.0227      3.2378      4.3221
 19      3.1073      2.7036      2.5684      2.6438      2.8327      3.2010      2.8175      3.5407      2.6810
 20      0.0000      0.1196      0.0399      0.4444      0.3657      0.0000      0.0000      0.2916      0.0000
 21      0.0000      0.2074      0.4466      0.3102      0.6056      0.0000      0.0000      0.3972      0.0532
 22      0.7978      0.8300      1.2178      0.9363      1.3858      0.8691      1.0324      0.9184      0.9682
 23      3.9779      4.9624      4.6623      3.9618      4.4879      4.9734      5.2446      4.3464      4.4506
 24      0.0000      1.2940      0.4351      1.2946      0.6057      0.0349      1.4674      0.0000      3.7641
 25      3.8543      2.6979      2.2268      1.6731      2.5137      2.5879      4.5037      3.9968      2.6764
 26      0.0000      0.4403      0.0289      0.0000      0.9322      0.0000      0.0000      0.0000      0.0000
 27      0.0006      0.5418      0.7818      0.0000      2.1942      0.5963      1.4402      0.9933      0.0720
 28      0.0000      0.2303      0.0000      0.9929      0.0000      0.0000      1.2935      0.1211      0.0411
 29      0.0000      0.0619      0.0000      0.0323      0.0000      0.0000      0.0000      0.0000      0.0000
 30      0.0000      0.0365      0.0000      0.0000      0.0000      0.0000      0.0472      0.0000      0.0000
 31      0.0000      0.0572      0.0000      0.0000      0.1470      0.0000      0.0000      0.0000      0.0257
 32      0.0000      0.0397      0.0000      0.0000      0.0000      0.0737      0.0000      0.0000      0.0000
 33      1.9384      1.3637      1.5347      1.3006      1.5308      1.2715      1.3256      1.3108      1.6432
 34      4.3695      4.0090      3.9263      3.9873      3.8760      4.0179      4.0749      4.2023      4.0238
 35      5.4998      4.6263      5.4444      6.3638      4.4896      4.3223      4.6616      4.7487      4.3630
 36      1.3362      1.2079      0.0000      1.7415      1.0655      1.4096      1.3593      0.6075      1.0675
 37      0.0000      0.2088      0.0000      0.6726      0.3560      0.0000      0.0279      0.0000      0.0000
 38     32.6304     19.1800     19.9744     19.5026     21.5367     19.7478     19.5941     19.5622     19.5460
 39      0.0000      0.3652      0.0151      0.1163      0.0000      0.7298      0.1058      0.1259      0.2493
 40      0.0000      0.3987      0.3089      0.3698      0.4891      0.0019      0.0000      0.8639      0.0000
 41      0.0000      0.6105      1.9953      0.8469      0.0000      1.2759      0.0000      0.0000      0.9354
 42      0.0000      0.3408      0.0000      1.2900      0.6649      0.9569      0.0000      0.0000      0.3841
 43      6.4658      2.9499      3.7186      3.4326      2.9792      4.6744      1.8986      4.3766      3.6677
 44      2.7944      3.0493      3.4187      2.9586      2.7842      2.7081      2.0236      2.2599      1.7981
 45      0.0000      0.0851      0.0000      0.1652      0.1151      0.0000      0.0000      0.0000      0.0000
 46      0.0000      0.0498      0.1290      0.0000      0.1095      0.0000      0.0000      0.0314      0.0000
