###################################################################
## OUTPUT of StarlightChains_v04.for    [Cid@UFSC - 01/Apr/2007] ##
###################################################################

## Some input info
2005kk.txt                               [arq_obs]
Base.CB07.vall.4m                        [arq_base]
Masks.EmLines.NEW.gm                     [arq_masks]
StCv04.C11.config                        [arq_config]
   66                                    [N_base]
    0                                    [N_YAV_components = # of components with extra extinction!]
    0                                    [i_FitPowerLaw (1/0 = Yes/No)]
-9.99                                    [alpha_PowerLaw]
CCM                                      [red_law_option]
 1.458241                                [q_norm = A(l_norm)/A(V)]

## (Re)Sampling Parameters
 3741.00                                 [l_ini (A)]
 7218.00                                 [l_fin (A)]
    1.00                                 [dl    (A)]     (OBS: dl_cushion =    50.00 A)

## Normalization info
 4020.00                                 [l_norm (A) - for base]
 4010.00                                 [llow_norm (A) - window for f_obs]
 4060.00                                 [lupp_norm (A) - window for f_obs]
8.059202E-17                             [fobs_norm (in input units)]

## S/N
 3691.00                                 [llow_SN (A) - window for S/N]
 7268.00                                 [lupp_SN (A) - window for S/N]
   3.351                                 [S/N in S/N window]
   5.472                                 [S/N in norm. window]
   9.642                                 [S/N_err in S/N window]
  15.743                                 [S/N_err in norm. window]
  1.0000                                 [fscale_chi2]

## etc...
    -2007307                             [idum_orig]
  2382                                   [NOl_eff]
  2342                                   [Nl_eff]
    40    NSIGMA                         [Ntot_cliped & clip_method]
   872900                                [Nglobal_steps]
   7                                     [N_chains]
  17                                     [NEX0s_base = N_base in EX0s-fits]
 0   0   1       11   2.0   3.108E+01    [Clip-Bug, RC-Crash & Burn-In warning-flags, n_censored_weights, wei_nsig_threshold & wei_limit]
    11     10.833     10.336      0.497  [idt_all, wdt_TotTime, wdt_UsrTime & wdt_SysTime (sec)]

## Synthesis Results - Best model ##

 5.97198E-01                             [chi2/Nl_eff]
     5.90967                             [adev (%)]

    99.41710                             [sum-of-x (%)]
 6.97116E-17                             [Flux_tot (units of input spectrum!)]
 1.35748E-13                             [Mini_tot (???)]
 8.20564E-14                             [Mcor_tot (???)]

 -86.44                                  [v0_min  (km/s)]
 199.31                                  [vd_min  (km/s)]
-0.1036                                  [AV_min  (mag)]
 0.0000                                  [YAV_min (mag)]

# j     x_j(%)      Mini_j(%)     Mcor_j(%)     age_j(yr)     Z_j      (L/M)_j    YAV?  Mstars   component_j        a/Fe...       SSP_chi2r SSP_adev(%)   SSP_AV   SSP_x(%)
  1      0.0000     0.0000E+00    0.0000E+00    1.000000E+06  0.00400  1.094E-02    0   1.0000   age020_m42            0.0000     1.1010E+00     7.1976   1.9106    81.1799
  2      0.0000     0.0000E+00    0.0000E+00    3.160000E+06  0.00400  4.007E-02    0   0.9999   age045_m42            0.0000     7.5073E-01     6.3723   1.1346    88.9425
  3      0.0431     8.7660E-04    1.3759E-03    5.010000E+06  0.00400  2.539E-02    0   0.9488   age055_m42            0.0000     8.6915E-01     6.6488   1.4744    85.8983
  4      5.3922     1.0631E-01    1.6215E-01    6.610000E+06  0.00400  2.620E-02    0   0.9220   age061_m42            0.0000     7.2639E-01     6.2960   1.0583    89.2609
  5      0.0000     0.0000E+00    0.0000E+00    1.000000E+07  0.00400  1.322E-02    0   0.8862   age070_m42            0.0000     7.8239E-01     6.3243   0.7865    90.6233
  6      0.0000     0.0000E+00    0.0000E+00    1.445000E+07  0.00400  7.883E-03    0   0.8571   age078_m42            0.0000     8.5683E-01     6.5148   1.1246    87.8569
  7      0.0000     0.0000E+00    0.0000E+00    2.512000E+07  0.00400  5.251E-03    0   0.8174   age090_m42            0.0000     7.8465E-01     6.3632   0.6544    91.2043
  8      0.0621     8.7888E-03    1.1415E-02    4.000000E+07  0.00400  3.649E-03    0   0.7851   age104_m42            0.0000     7.3212E-01     6.2144   0.4176    92.3936
  9      0.0000     0.0000E+00    0.0000E+00    5.500000E+07  0.00400  3.098E-03    0   0.7629   age110_m42            0.0000     6.7199E-01     6.0563   0.5586    93.0331
 10      0.0000     0.0000E+00    0.0000E+00    1.015200E+08  0.00400  2.228E-03    0   0.7207   age116_m42            0.0000     6.4833E-01     6.0249   0.5685    93.7114
 11      0.0000     0.0000E+00    0.0000E+00    2.861200E+08  0.00400  1.093E-03    0   0.6648   age125_m42            0.0000     6.5742E-01     6.0743  -0.0101    96.9990
 12      0.0000     0.0000E+00    0.0000E+00    5.088000E+08  0.00400  6.597E-04    0   0.6365   age130_m42            0.0000     6.4646E-01     6.0426  -0.0333    98.4678
 13      0.0000     0.0000E+00    0.0000E+00    1.434000E+09  0.00400  2.132E-04    0   0.5798   age139_m42            0.0000     6.3285E-01     6.0947  -1.0000   100.2831
 14      4.7939     4.2007E+01    3.7366E+01    4.250000E+09  0.00400  5.895E-05    0   0.5377   age158_m42            0.0000     1.5145E+00     9.1058  -1.0000    80.2974
 15      0.0000     0.0000E+00    0.0000E+00    7.500000E+09  0.00400  3.510E-05    0   0.5212   age171_m42            0.0000     2.3056E+00    11.2999  -1.0000    73.4069
 16      0.0000     0.0000E+00    0.0000E+00    1.300000E+10  0.00400  2.005E-05    0   0.5034   age193_m42            0.0000     3.1454E+00    13.3123  -1.0000    67.7119
 17      0.0000     0.0000E+00    0.0000E+00    1.800000E+10  0.00400  1.525E-05    0   0.4967   age213_m42            0.0000     3.2525E+00    13.6120  -1.0000    66.6647
 18      0.0000     0.0000E+00    0.0000E+00    1.000000E+06  0.00800  1.238E-02    0   1.0000   age020_m52            0.0000     1.1029E+00     7.2028   1.9070    81.3352
 19      0.0000     0.0000E+00    0.0000E+00    3.160000E+06  0.00800  3.074E-02    0   0.9966   age045_m52            0.0000     1.0569E+00     7.1202   1.8239    82.3063
 20      0.0000     0.0000E+00    0.0000E+00    5.010000E+06  0.00800  2.668E-02    0   0.9443   age055_m52            0.0000     9.1219E-01     6.7428   1.5631    84.8587
 21     26.3547     6.3734E-01    9.6758E-01    6.610000E+06  0.00800  2.136E-02    0   0.9177   age061_m52            0.0000     8.1350E-01     6.3785   0.2941    91.2910
 22      0.0000     0.0000E+00    0.0000E+00    1.000000E+07  0.00800  1.215E-02    0   0.8827   age070_m52            0.0000     8.6834E-01     6.5877   0.9739    90.0254
 23      0.0086     5.0745E-04    7.1793E-04    1.445000E+07  0.00800  8.717E-03    0   0.8552   age078_m52            0.0000     8.2829E-01     6.4303   1.0852    89.2707
 24      0.0000     0.0000E+00    0.0000E+00    2.512000E+07  0.00800  5.592E-03    0   0.8162   age090_m52            0.0000     7.8087E-01     6.3613   0.7139    92.4632
 25      0.0018     2.3498E-04    3.0481E-04    4.000000E+07  0.00800  3.896E-03    0   0.7841   age104_m52            0.0000     7.1894E-01     6.1878   0.6148    93.7538
 26      0.0000     0.0000E+00    0.0000E+00    1.015200E+08  0.00800  2.148E-03    0   0.7226   age116_m52            0.0000     6.4594E-01     5.9885   0.5398    94.2755
 27      2.8577     1.4873E+00    1.6443E+00    2.861200E+08  0.00800  9.925E-04    0   0.6683   age125_m52            0.0000     6.3889E-01     6.0119   0.0282    99.5013
 28      0.0000     0.0000E+00    0.0000E+00    9.047900E+08  0.00800  3.141E-04    0   0.6138   age135_m52            0.0000     7.0985E-01     6.4155  -0.7922   104.7959
 29      0.0000     0.0000E+00    0.0000E+00    1.434000E+09  0.00800  1.719E-04    0   0.5853   age139_m52            0.0000     1.2512E+00     8.3185  -1.0000    88.0672
 30      0.0000     0.0000E+00    0.0000E+00    2.500000E+09  0.00800  7.872E-05    0   0.5600   age150_m52            0.0000     2.2864E+00    11.1689  -1.0000    76.2082
 31      0.0000     0.0000E+00    0.0000E+00    4.250000E+09  0.00800  4.336E-05    0   0.5426   age158_m52            0.0000     2.3664E+00    11.3181  -1.0000    74.9753
 32      0.0000     0.0000E+00    0.0000E+00    6.250000E+09  0.00800  3.159E-05    0   0.5319   age166_m52            0.0000     3.4407E+00    13.7386  -1.0000    68.3502
 33      0.0000     0.0000E+00    0.0000E+00    1.300000E+10  0.00800  1.361E-05    0   0.5073   age193_m52            0.0000     6.3329E+00    19.4268  -1.0000    54.1534
 34      0.0000     0.0000E+00    0.0000E+00    1.800000E+10  0.00800  9.886E-06    0   0.4990   age213_m52            0.0000     7.1199E+00    20.5208  -1.0000    51.1271
 35      0.0000     0.0000E+00    0.0000E+00    1.000000E+06  0.02000  1.544E-02    0   1.0000   age020_m62            0.0000     1.1103E+00     7.2300   1.9038    81.4895
 36      0.0000     0.0000E+00    0.0000E+00    3.160000E+06  0.02000  3.762E-02    0   0.9858   age045_m62            0.0000     1.0881E+00     7.2196   1.8389    82.3544
 37      0.0000     0.0000E+00    0.0000E+00    5.010000E+06  0.02000  3.296E-02    0   0.9342   age055_m62            0.0000     8.0392E-01     6.5372   1.4228    87.4591
 38      0.0000     0.0000E+00    0.0000E+00    8.710000E+06  0.02000  1.154E-02    0   0.8861   age067_m62            0.0000     1.5137E+00     8.9675   0.4548    90.8709
 39      0.0000     0.0000E+00    0.0000E+00    1.445000E+07  0.02000  7.663E-03    0   0.8472   age078_m62            0.0000     1.0028E+00     7.1023   0.6258    91.7609
 40      0.0000     0.0000E+00    0.0000E+00    2.512000E+07  0.02000  4.532E-03    0   0.8099   age090_m62            0.0000     1.0116E+00     7.1933   0.6132    91.7215
 41      0.0000     0.0000E+00    0.0000E+00    5.500000E+07  0.02000  2.733E-03    0   0.7595   age110_m62            0.0000     7.3631E-01     6.2257   0.6010    92.8991
 42      0.0170     6.4223E-03    7.4212E-03    1.609000E+08  0.02000  1.369E-03    0   0.6985   age120_m62            0.0000     6.4533E-01     5.9879   0.4081    97.0269
 43     18.7280     1.0733E+01    1.1922E+01    2.861200E+08  0.02000  9.013E-04    0   0.6714   age125_m62            0.0000     6.6850E-01     6.0638   0.1362   100.8571
 44     12.6827     1.3030E+01    1.3901E+01    5.088000E+08  0.02000  5.028E-04    0   0.6449   age130_m62            0.0000     7.3416E-01     6.4173  -0.2606   104.5741
 45      0.0000     0.0000E+00    0.0000E+00    9.047900E+08  0.02000  2.428E-04    0   0.6179   age135_m62            0.0000     7.5960E-01     6.7093  -0.8441   103.8592
 46      0.0000     0.0000E+00    0.0000E+00    1.434000E+09  0.02000  1.263E-04    0   0.5908   age139_m62            0.0000     1.1536E+00     7.8245  -1.0000    91.0192
 47      0.0000     0.0000E+00    0.0000E+00    2.500000E+09  0.02000  5.985E-05    0   0.5673   age150_m62            0.0000     2.4889E+00    11.4228  -1.0000    76.5534
 48      0.0000     0.0000E+00    0.0000E+00    4.250000E+09  0.02000  3.271E-05    0   0.5468   age158_m62            0.0000     4.1607E+00    14.9521  -1.0000    65.9416
 49      0.0000     0.0000E+00    0.0000E+00    1.000000E+10  0.02000  1.360E-05    0   0.5167   age181_m62            0.0000     6.4547E+00    18.9908  -1.0000    55.5268
 50      0.0000     0.0000E+00    0.0000E+00    1.800000E+10  0.02000  7.124E-06    0   0.5013   age213_m62            0.0000     7.9373E+00    21.2191  -1.0000    49.6720
 51      0.0000     0.0000E+00    0.0000E+00    1.000000E+06  0.05000  2.592E-02    0   0.9998   age020_m72            0.0000     1.1473E+00     7.3143   1.8988    81.3627
 52      0.0000     0.0000E+00    0.0000E+00    3.160000E+06  0.05000  4.845E-02    0   0.9577   age045_m72            0.0000     9.6585E-01     6.9554   1.7060    84.1173
 53      0.0000     0.0000E+00    0.0000E+00    5.010000E+06  0.05000  3.072E-02    0   0.9147   age055_m72            0.0000     1.0198E+00     7.0361   1.2232    87.9492
 54      0.0000     0.0000E+00    0.0000E+00    6.610000E+06  0.05000  1.455E-02    0   0.8877   age061_m72            0.0000     2.2282E+00    11.1262   0.5098    91.3602
 55      0.0000     0.0000E+00    0.0000E+00    1.000000E+07  0.05000  9.074E-03    0   0.8524   age070_m72            0.0000     1.1452E+00     7.5506   1.4078    87.7855
 56      0.0000     0.0000E+00    0.0000E+00    2.512000E+07  0.05000  4.250E-03    0   0.7902   age090_m72            0.0000     9.2986E-01     6.9230   1.0826    90.4351
 57      0.0000     0.0000E+00    0.0000E+00    4.000000E+07  0.05000  3.087E-03    0   0.7618   age104_m72            0.0000     9.0756E-01     6.9112   0.8427    92.4337
 58      0.0000     0.0000E+00    0.0000E+00    1.015200E+08  0.05000  1.700E-03    0   0.7096   age116_m72            0.0000     6.7579E-01     6.0836   0.5553    96.3619
 59     10.0030     6.9977E+00    7.6786E+00    2.861200E+08  0.05000  7.384E-04    0   0.6633   age125_m72            0.0000     6.9923E-01     6.2537  -0.0098   102.9673
 60     18.4723     2.4985E+01    2.6338E+01    5.088000E+08  0.05000  3.819E-04    0   0.6372   age130_m72            0.0000     7.3524E-01     6.6185  -0.5123   105.1695
 61      0.0000     0.0000E+00    0.0000E+00    9.047900E+08  0.05000  1.676E-04    0   0.6110   age135_m72            0.0000     1.1174E+00     7.7855  -1.0000    95.0989
 62      0.0000     0.0000E+00    0.0000E+00    1.434000E+09  0.05000  8.837E-05    0   0.5874   age139_m72            0.0000     2.5811E+00    11.5710  -1.0000    77.6492
 63      0.0000     0.0000E+00    0.0000E+00    2.500000E+09  0.05000  4.233E-05    0   0.5598   age150_m72            0.0000     4.2610E+00    14.9947  -1.0000    66.5048
 64      0.0000     0.0000E+00    0.0000E+00    6.250000E+09  0.05000  1.435E-05    0   0.5249   age166_m72            0.0000     7.1090E+00    20.0788  -1.0000    52.7034
 65      0.0000     0.0000E+00    0.0000E+00    1.300000E+10  0.05000  6.513E-06    0   0.5036   age193_m72            0.0000     9.0929E+00    22.9898  -1.0000    46.2656
 66      0.0000     0.0000E+00    0.0000E+00    1.800000E+10  0.05000  4.527E-06    0   0.4945   age213_m72            0.0000     1.0241E+01    24.5680  -1.0000    42.5585


## Synthesis Results - Average & Chains ##

# j      x_j: min, <> & last-chain-values for 1 ...  7 chains
  1      0.0000      0.2064      0.0000      0.0000      1.2543      0.5586      0.0000      1.5634      0.0000
  2      0.0000      1.1911      2.7424      0.0000      0.0000      0.0000      1.4749      0.4450      2.7457
  3      0.0431      0.2527      0.0000      1.9132      0.0000      0.0000      0.0000      0.0000      0.0005
  4      5.3922      0.7905      2.4607      1.6671      0.0000      0.6299      0.0000      0.0000      1.7706
  5      0.0000      0.9511      2.1607      3.6324      0.0683      1.5424      0.2119      0.8040      1.8512
  6      0.0000      0.3297      0.0000      0.0000      0.2057      0.0000      1.1923      0.0000      0.0000
  7      0.0000      0.8744      0.0000      0.0000      0.0000      0.0000      0.0000      0.0386      3.3339
  8      0.0621      1.4732      0.9081      2.1593      4.3674      4.1498      2.1003      0.8040      0.0000
  9      0.0000      1.4309      1.5122      0.4917      0.1469      0.6446      0.0000      0.0000      3.1778
 10      0.0000      2.5008      2.6748      0.0000      0.0000      2.5838      3.3693      0.0000      8.3333
 11      0.0000      0.9940      0.0000      0.0000      0.0000      0.0000      0.0000      0.0000      0.0000
 12      0.0000      3.1022      3.3749      0.0000      1.4813      0.0000      0.0000      4.9753      0.0000
 13      0.0000      0.1193      0.0000      0.0000      0.0000      0.6113      0.7715      0.0000      0.0000
 14      4.7939      0.0612      0.0000      0.6334      0.0000      0.0000      0.0000      0.1066      0.0000
 15      0.0000      0.0127      0.0000      0.0000      0.0000      0.0000      0.0000      0.0000      0.0000
 16      0.0000      0.0908      0.0000      0.0000      0.0000      0.0000      0.0000      0.0000      0.5973
 17      0.0000      0.0133      0.0000      0.0000      0.0000      0.0000      0.0000      0.0000      0.0000
 18      0.0000      0.3600      1.3328      0.0000      1.3335      1.4273      0.0000      0.6148      0.2645
 19      0.0000      0.4020      0.0000      0.0000      0.0000      0.0000      1.1190      0.2054      0.0000
 20      0.0000      0.2547      0.2538      0.0000      3.1081      0.1850      0.0000      0.0000      0.0000
 21     26.3547     12.8044     18.0704     15.5006     18.1278     15.7601     15.9773     16.4266     18.5887
 22      0.0000      0.7777      0.0000      0.0000      0.0000      0.0000      0.5252      0.0000      0.0000
 23      0.0086      0.6679      0.0000      2.7422      0.0000      0.1555      0.0000      0.0000      0.0000
 24      0.0000      0.5910      2.6172      0.0000      0.0000      0.0000      1.8783      0.0000      0.0000
 25      0.0018      0.9632      0.0000      2.1576      0.0000      0.9046      3.6054      2.1204      0.3385
 26      0.0000      4.7195      2.4520      0.0000      0.5695      9.2649      3.5501      8.2411      0.0000
 27      2.8577      6.6363      0.1457      6.6324      7.9727      0.0000      5.9031      6.9059      4.9664
 28      0.0000      0.5815      0.0000      0.0000      0.4726      0.0000      0.0173      0.0000      0.0000
 29      0.0000      0.0841      0.0000      0.0000      0.0000      0.0000      0.0000      0.0000      0.0000
 30      0.0000      0.0276      0.0000      0.0000      0.0000      0.0000      0.0000      0.0000      0.0000
 31      0.0000      0.0702      0.0000      0.0000      0.5375      0.0000      0.0000      0.0000      0.0000
 32      0.0000      0.0153      0.0000      0.0000      0.0000      0.0000      0.0000      0.0000      0.0000
 33      0.0000      0.0011      0.0000      0.0174      0.0000      0.0000      0.0000      0.0000      0.0000
 34      0.0000      0.0018      0.0000      0.0000      0.0000      0.0000      0.0000      0.0000      0.0000
 35      0.0000      0.1831      0.0000      0.0000      0.0000      0.0000      0.0000      0.7500      0.3427
 36      0.0000      0.1866      0.0000      0.0000      1.0533      0.0000      0.0000      1.0031      0.0000
 37      0.0000      0.5095      0.0000      2.8548      0.0000      1.9414      0.0000      0.0000      0.0000
 38      0.0000      0.2320      0.0000      0.0000      0.0000      0.0000      0.0000      0.0000      0.0000
 39      0.0000      0.3804      0.0000      0.0000      0.0000      0.0000      0.0000      0.0000      0.0000
 40      0.0000      0.4477      0.0000      0.1790      0.0000      0.0000      0.0000      0.0423      0.0000
 41      0.0000      0.9811      1.0342      0.4746      0.0000      0.1456      0.6384      3.0099      0.0000
 42      0.0170      1.8741      0.0000      3.6339      0.0000      0.0000      0.2789      0.0000      0.7877
 43     18.7280      8.6928      9.5986      5.1708     20.8404      7.8004      4.0869      3.7568     10.0059
 44     12.6827     14.4118     25.1660     21.5605     16.9263     14.5321     17.5995     14.1424     21.1716
 45      0.0000      0.2403      0.0000      0.0000      0.0000      0.0000      0.0000      0.0000      0.8789
 46      0.0000      0.1107      0.0000      0.1369      0.0000      0.0000      0.0000      0.0000      0.0000
