###################################################################
## OUTPUT of StarlightChains_v04.for    [Cid@UFSC - 01/Apr/2007] ##
###################################################################

## Some input info
2005ip.txt                               [arq_obs]
Base.CB07.vall.4m                        [arq_base]
Masks.EmLines.NEW.gm                     [arq_masks]
StCv04.C11.config                        [arq_config]
   66                                    [N_base]
    0                                    [N_YAV_components = # of components with extra extinction!]
    0                                    [i_FitPowerLaw (1/0 = Yes/No)]
-9.99                                    [alpha_PowerLaw]
CCM                                      [red_law_option]
 1.458241                                [q_norm = A(l_norm)/A(V)]

## (Re)Sampling Parameters
 3741.00                                 [l_ini (A)]
 7218.00                                 [l_fin (A)]
    1.00                                 [dl    (A)]     (OBS: dl_cushion =    50.00 A)

## Normalization info
 4020.00                                 [l_norm (A) - for base]
 4010.00                                 [llow_norm (A) - window for f_obs]
 4060.00                                 [lupp_norm (A) - window for f_obs]
6.305756E-16                             [fobs_norm (in input units)]

## S/N
 3691.00                                 [llow_SN (A) - window for S/N]
 7268.00                                 [lupp_SN (A) - window for S/N]
  11.188                                 [S/N in S/N window]
  11.500                                 [S/N in norm. window]
  16.324                                 [S/N_err in S/N window]
  16.779                                 [S/N_err in norm. window]
  1.0000                                 [fscale_chi2]

## etc...
    -2007304                             [idum_orig]
  2389                                   [NOl_eff]
  2383                                   [Nl_eff]
     6    NSIGMA                         [Ntot_cliped & clip_method]
  1912890                                [Nglobal_steps]
   7                                     [N_chains]
  30                                     [NEX0s_base = N_base in EX0s-fits]
 0   0   1        2   2.0   3.646E+01    [Clip-Bug, RC-Crash & Burn-In warning-flags, n_censored_weights, wei_nsig_threshold & wei_limit]
    16     16.284     15.790      0.494  [idt_all, wdt_TotTime, wdt_UsrTime & wdt_SysTime (sec)]

## Synthesis Results - Best model ##

 2.58709E-01                             [chi2/Nl_eff]
     2.30284                             [adev (%)]

   108.11965                             [sum-of-x (%)]
 1.14025E-15                             [Flux_tot (units of input spectrum!)]
 8.57299E-12                             [Mini_tot (???)]
 4.83981E-12                             [Mcor_tot (???)]

   3.96                                  [v0_min  (km/s)]
 152.79                                  [vd_min  (km/s)]
 0.3829                                  [AV_min  (mag)]
 0.0000                                  [YAV_min (mag)]

# j     x_j(%)      Mini_j(%)     Mcor_j(%)     age_j(yr)     Z_j      (L/M)_j    YAV?  Mstars   component_j        a/Fe...       SSP_chi2r SSP_adev(%)   SSP_AV   SSP_x(%)
  1      1.8042     2.0288E-02    3.5936E-02    1.000000E+06  0.00400  1.094E-02    0   1.0000   age020_m42            0.0000     1.1801E+00     4.9117   3.0155    90.4863
  2      0.0000     0.0000E+00    0.0000E+00    3.160000E+06  0.00400  4.007E-02    0   0.9999   age045_m42            0.0000     9.5669E-01     4.0452   2.2934    96.6303
  3      0.4006     1.9410E-03    3.2621E-03    5.010000E+06  0.00400  2.539E-02    0   0.9488   age055_m42            0.0000     9.9638E-01     4.2508   2.6077    94.4858
  4      0.0000     0.0000E+00    0.0000E+00    6.610000E+06  0.00400  2.620E-02    0   0.9220   age061_m42            0.0000     8.7428E-01     3.9155   2.2099    97.3272
  5      0.0000     0.0000E+00    0.0000E+00    1.000000E+07  0.00400  1.322E-02    0   0.8862   age070_m42            0.0000     6.7298E-01     3.6814   1.8522   103.0903
  6      0.0000     0.0000E+00    0.0000E+00    1.445000E+07  0.00400  7.883E-03    0   0.8571   age078_m42            0.0000     7.4235E-01     3.8504   2.1870   100.0686
  7      0.0000     0.0000E+00    0.0000E+00    2.512000E+07  0.00400  5.251E-03    0   0.8174   age090_m42            0.0000     6.7849E-01     3.7826   1.7082   104.3719
  8      0.0000     0.0000E+00    0.0000E+00    4.000000E+07  0.00400  3.649E-03    0   0.7851   age104_m42            0.0000     6.3321E-01     3.6377   1.4886   104.8753
  9      0.0022     8.5482E-05    1.1552E-04    5.500000E+07  0.00400  3.098E-03    0   0.7629   age110_m42            0.0000     6.7205E-01     3.6487   1.6772   103.1513
 10      0.0000     0.0000E+00    0.0000E+00    1.015200E+08  0.00400  2.228E-03    0   0.7207   age116_m42            0.0000     7.0646E-01     3.8161   1.7192   102.2930
 11      0.0000     0.0000E+00    0.0000E+00    2.861200E+08  0.00400  1.093E-03    0   0.6648   age125_m42            0.0000     7.2175E-01     4.1550   1.1227   106.8483
 12      0.0000     0.0000E+00    0.0000E+00    5.088000E+08  0.00400  6.597E-04    0   0.6365   age130_m42            0.0000     6.7271E-01     4.1288   1.1478   105.9822
 13      0.0000     0.0000E+00    0.0000E+00    1.434000E+09  0.00400  2.132E-04    0   0.5798   age139_m42            0.0000     4.0526E-01     3.3046   0.1906   107.4773
 14      5.1823     1.0814E+01    1.0300E+01    4.250000E+09  0.00400  5.895E-05    0   0.5377   age158_m42            0.0000     4.5275E-01     3.4503  -0.2009   101.0033
 15      4.8602     1.7034E+01    1.5726E+01    7.500000E+09  0.00400  3.510E-05    0   0.5212   age171_m42            0.0000     5.4891E-01     3.8598  -0.3676    99.3929
 16      0.0000     0.0000E+00    0.0000E+00    1.300000E+10  0.00400  2.005E-05    0   0.5034   age193_m42            0.0000     6.7613E-01     4.3059  -0.5132    98.0092
 17      0.0000     0.0000E+00    0.0000E+00    1.800000E+10  0.00400  1.525E-05    0   0.4967   age213_m42            0.0000     6.5518E-01     4.2281  -0.5418    97.8141
 18      4.4562     4.4281E-02    7.8436E-02    1.000000E+06  0.00800  1.238E-02    0   1.0000   age020_m52            0.0000     1.1781E+00     4.9137   3.0126    90.6300
 19      4.5633     1.8262E-02    3.2238E-02    3.160000E+06  0.00800  3.074E-02    0   0.9966   age045_m52            0.0000     1.1557E+00     4.8316   2.9380    91.3568
 20      0.0000     0.0000E+00    0.0000E+00    5.010000E+06  0.00800  2.668E-02    0   0.9443   age055_m52            0.0000     9.8175E-01     4.2847   2.6858    93.8270
 21      0.1266     7.2910E-04    1.1852E-03    6.610000E+06  0.00800  2.136E-02    0   0.9177   age061_m52            0.0000     4.8392E-01     3.1917   1.3570   104.0520
 22      0.2135     2.1617E-03    3.3800E-03    1.000000E+07  0.00800  1.215E-02    0   0.8827   age070_m52            0.0000     6.9386E-01     3.9667   2.0103   103.9240
 23      5.2170     7.3624E-02    1.1153E-01    1.445000E+07  0.00800  8.717E-03    0   0.8552   age078_m52            0.0000     6.8039E-01     3.7074   2.1500   101.5978
 24      0.0000     0.0000E+00    0.0000E+00    2.512000E+07  0.00800  5.592E-03    0   0.8162   age090_m52            0.0000     6.4662E-01     3.7820   1.7677   105.8761
 25      0.0000     0.0000E+00    0.0000E+00    4.000000E+07  0.00800  3.896E-03    0   0.7841   age104_m52            0.0000     6.3785E-01     3.7020   1.6960   105.9212
 26      0.0002     1.3192E-05    1.6885E-05    1.015200E+08  0.00800  2.148E-03    0   0.7226   age116_m52            0.0000     6.2526E-01     3.6378   1.6695   104.0049
 27      0.0000     0.0000E+00    0.0000E+00    2.861200E+08  0.00800  9.925E-04    0   0.6683   age125_m52            0.0000     6.0536E-01     3.9642   1.2091   107.1845
 28      0.0000     0.0000E+00    0.0000E+00    9.047900E+08  0.00800  3.141E-04    0   0.6138   age135_m52            0.0000     5.2779E-01     3.9457   0.4558   109.4549
 29      0.0000     0.0000E+00    0.0000E+00    1.434000E+09  0.00800  1.719E-04    0   0.5853   age139_m52            0.0000     4.5326E-01     3.5381  -0.1209   107.1094
 30      0.0000     0.0000E+00    0.0000E+00    2.500000E+09  0.00800  7.872E-05    0   0.5600   age150_m52            0.0000     5.7233E-01     4.1272  -0.3351   101.6464
 31      0.0000     0.0000E+00    0.0000E+00    4.250000E+09  0.00800  4.336E-05    0   0.5426   age158_m52            0.0000     6.0296E-01     4.1850  -0.3471   100.5312
 32      2.0036     7.8024E+00    7.3513E+00    6.250000E+09  0.00800  3.159E-05    0   0.5319   age166_m52            0.0000     7.9623E-01     4.9147  -0.5187    99.1657
 33      0.4286     3.8737E+00    3.4809E+00    1.300000E+10  0.00800  1.361E-05    0   0.5073   age193_m52            0.0000     1.1105E+00     5.9232  -0.9505    96.9387
 34      0.0000     0.0000E+00    0.0000E+00    1.800000E+10  0.00800  9.886E-06    0   0.4990   age213_m52            0.0000     1.3970E+00     6.8178  -1.0000    93.9669
 35      0.0000     0.0000E+00    0.0000E+00    1.000000E+06  0.02000  1.544E-02    0   1.0000   age020_m62            0.0000     1.1858E+00     4.9407   3.0079    90.8697
 36      4.6608     1.5241E-02    2.6613E-02    3.160000E+06  0.02000  3.762E-02    0   0.9858   age045_m62            0.0000     1.1866E+00     4.9361   2.9490    91.5885
 37      0.7646     2.8536E-03    4.7221E-03    5.010000E+06  0.02000  3.296E-02    0   0.9342   age055_m62            0.0000     9.6376E-01     4.1583   2.5766    95.2721
 38     16.0037     1.7060E-01    2.6777E-01    8.710000E+06  0.02000  1.154E-02    0   0.8861   age067_m62            0.0000     1.4362E+00     6.8849   1.3214   114.4432
 39      1.9928     3.1992E-02    4.8009E-02    1.445000E+07  0.02000  7.663E-03    0   0.8472   age078_m62            0.0000     7.8651E-01     4.6002   1.6128   108.6663
 40      0.1639     4.4487E-03    6.3822E-03    2.512000E+07  0.02000  4.532E-03    0   0.8099   age090_m62            0.0000     8.8677E-01     4.8432   1.5978   108.7779
 41      0.0000     0.0000E+00    0.0000E+00    5.500000E+07  0.02000  2.733E-03    0   0.7595   age110_m62            0.0000     5.8723E-01     3.5881   1.6777   105.2076
 42      0.0000     0.0000E+00    0.0000E+00    1.609000E+08  0.02000  1.369E-03    0   0.6985   age120_m62            0.0000     6.1546E-01     3.8300   1.5580   106.0253
 43      0.0000     0.0000E+00    0.0000E+00    2.861200E+08  0.02000  9.013E-04    0   0.6714   age125_m62            0.0000     6.1123E-01     4.1028   1.3265   108.1300
 44      0.0000     0.0000E+00    0.0000E+00    5.088000E+08  0.02000  5.028E-04    0   0.6449   age130_m62            0.0000     6.2894E-01     4.2760   0.9993   108.4836
 45      0.0000     0.0000E+00    0.0000E+00    9.047900E+08  0.02000  2.428E-04    0   0.6179   age135_m62            0.0000     5.0458E-01     3.9091   0.4365   106.7886
 46      2.5683     2.5015E+00    2.6179E+00    1.434000E+09  0.02000  1.263E-04    0   0.5908   age139_m62            0.0000     5.2045E-01     3.9339   0.0053   104.6287
 47      1.1202     2.3024E+00    2.3136E+00    2.500000E+09  0.02000  5.985E-05    0   0.5673   age150_m62            0.0000     7.6621E-01     4.8669  -0.3175   101.1953
 48      0.2578     9.6954E-01    9.3907E-01    4.250000E+09  0.02000  3.271E-05    0   0.5468   age158_m62            0.0000     1.1473E+00     6.1224  -0.5759    98.2574
 49      0.0000     0.0000E+00    0.0000E+00    1.000000E+10  0.02000  1.360E-05    0   0.5167   age181_m62            0.0000     1.6570E+00     7.5124  -0.8735    95.6996
 50      0.0000     0.0000E+00    0.0000E+00    1.800000E+10  0.02000  7.124E-06    0   0.5013   age213_m62            0.0000     2.1126E+00     8.6522  -1.0000    91.4759
 51      0.0000     0.0000E+00    0.0000E+00    1.000000E+06  0.05000  2.592E-02    0   0.9998   age020_m72            0.0000     1.1970E+00     5.0160   2.9954    91.0510
 52      1.6966     4.3078E-03    7.3078E-03    3.160000E+06  0.05000  4.845E-02    0   0.9577   age045_m72            0.0000     1.1359E+00     4.6621   2.8411    92.4359
 53      1.7120     6.8556E-03    1.1108E-02    5.010000E+06  0.05000  3.072E-02    0   0.9147   age055_m72            0.0000     8.8616E-01     4.3816   2.2550   101.7820
 54      0.0000     0.0000E+00    0.0000E+00    6.610000E+06  0.05000  1.455E-02    0   0.8877   age061_m72            0.0000     3.5952E+00     9.7925   1.3246   118.4711
 55      0.0000     0.0000E+00    0.0000E+00    1.000000E+07  0.05000  9.074E-03    0   0.8524   age070_m72            0.0000     1.5334E+00     5.1912   2.4465   101.3339
 56      0.0000     0.0000E+00    0.0000E+00    2.512000E+07  0.05000  4.250E-03    0   0.7902   age090_m72            0.0000     1.0984E+00     4.6023   2.1359   103.6249
 57      0.0000     0.0000E+00    0.0000E+00    4.000000E+07  0.05000  3.087E-03    0   0.7618   age104_m72            0.0000     1.1347E+00     4.7816   1.8951   106.0251
 58      0.0000     0.0000E+00    0.0000E+00    1.015200E+08  0.05000  1.700E-03    0   0.7096   age116_m72            0.0000     6.8760E-01     4.0576   1.6786   106.7126
 59      0.0000     0.0000E+00    0.0000E+00    2.861200E+08  0.05000  7.384E-04    0   0.6633   age125_m72            0.0000     5.7633E-01     4.0912   1.2187   108.4191
 60      0.0000     0.0000E+00    0.0000E+00    5.088000E+08  0.05000  3.819E-04    0   0.6372   age130_m72            0.0000     5.1912E-01     3.9332   0.7701   108.0031
 61     33.2941     2.4438E+01    2.6449E+01    9.047900E+08  0.05000  1.676E-04    0   0.6110   age135_m72            0.0000     7.3390E-01     4.8716   0.1365   103.1915
 62      8.3481     1.1621E+01    1.2092E+01    1.434000E+09  0.05000  8.837E-05    0   0.5874   age139_m72            0.0000     8.3651E-01     5.1239  -0.3137   102.4933
 63      6.2784     1.8246E+01    1.8093E+01    2.500000E+09  0.05000  4.233E-05    0   0.5598   age150_m72            0.0000     1.2851E+00     6.5438  -0.5619    98.4626
 64      0.0000     0.0000E+00    0.0000E+00    6.250000E+09  0.05000  1.435E-05    0   0.5249   age166_m72            0.0000     1.8425E+00     7.9521  -0.9551    94.6691
 65      0.0000     0.0000E+00    0.0000E+00    1.300000E+10  0.05000  6.513E-06    0   0.5036   age193_m72            0.0000     2.7321E+00     9.8880  -1.0000    85.9123
 66      0.0000     0.0000E+00    0.0000E+00    1.800000E+10  0.05000  4.527E-06    0   0.4945   age213_m72            0.0000     3.6439E+00    11.3994  -1.0000    79.6184


## Synthesis Results - Average & Chains ##

# j      x_j: min, <> & last-chain-values for 1 ...  7 chains
  1      1.8042      1.3273      1.4053      1.6217      0.2874      0.9614      1.9560      0.5996      0.8604
  2      0.0000      0.4902      0.0000      0.0000      0.2674      0.0000      0.0000      0.0000      0.7442
  3      0.4006      1.2850      0.6341      1.7947      2.2832      1.7470      0.3096      1.7739      1.6224
  4      0.0000      1.6203      1.5169      0.1188      1.0865      2.4908      1.8871      1.9453      2.4390
  5      0.0000      0.3909      0.5133      0.0000      0.0112      0.0000      0.0000      0.6603      0.1340
  6      0.0000      0.4754      0.5981      0.0000      0.5189      0.8881      0.8463      0.0000      0.4025
  7      0.0000      0.3139      0.6811      0.0000      0.0000      0.0000      0.2067      0.0251      0.0645
  8      0.0000      1.0330      1.7345      0.0000      1.1793      0.7832      1.3177      1.0489      0.9064
  9      0.0022      1.0337      1.4987      0.4330      0.5937      0.7359      1.0515      0.0000      1.0390
 10      0.0000      0.2680      0.0599      0.0000      0.0000      0.2979      0.0000      0.0000      0.0479
 11      0.0000      0.4086      0.2093      0.0000      0.7892      0.0444      0.0000      0.0000      0.0000
 12      0.0000      0.3732      0.0000      0.0000      0.0000      0.0000      0.0000      0.1972      0.0000
 13      0.0000      0.6718      0.0000      0.0000      0.4782      0.0142      0.0000      0.0000      0.3919
 14      5.1823      6.3698      6.3140      6.8965      6.8982      6.6492      6.2041      7.0694      4.0697
 15      4.8602      3.4420      3.6011      3.7867      3.2360      5.0271      3.8429      3.0268      4.6725
 16      0.0000      0.1077      0.0983      0.0000      0.0413      0.0000      0.0000      0.0000      0.2780
 17      0.0000      0.2394      0.8125      0.0000      0.3255      0.0000      0.4305      0.1351      0.0508
 18      4.4562      3.0797      3.1039      3.7272      2.7995      3.2579      4.0422      3.1495      2.7741
 19      4.5633      2.5943      2.8633      2.5578      2.6422      2.2808      2.5182      2.3440      2.6445
 20      0.0000      0.4797      0.0000      0.0008      0.4559      0.9392      0.1784      0.0087      1.0702
 21      0.1266      2.7386      4.4044      2.3816      1.7973      2.4600      2.8820      6.0734      3.3391
 22      0.2135      0.4550      0.4052      0.5801      0.3230      2.8789      2.3139      0.0000      0.3830
 23      5.2170      4.5593      4.0572      5.4674      4.8440      4.0834      3.9645      5.3553      5.5701
 24      0.0000      0.3775      0.0969      0.2062      0.6485      0.0000      0.0000      0.7060      0.1658
 25      0.0000      0.4124      0.0000      0.4221      0.9142      0.0000      0.0000      1.2694      0.1669
 26      0.0002      0.2455      0.0653      0.4119      0.0000      0.0361      0.0000      0.0000      0.0000
 27      0.0000      0.4129      0.0000      0.0000      0.7531      0.1292      0.0000      0.0000      0.0000
 28      0.0000      0.4185      0.0000      0.0000      0.0000      0.0000      0.0000      0.0000      0.2384
 29      0.0000      0.3648      0.0000      0.0967      0.0000      2.5169      0.0000      0.0436      0.0000
 30      0.0000      0.1818      0.3072      0.0000      0.5260      0.0000      0.0000      0.5182      0.0000
 31      0.0000      0.1859      0.0000      0.0000      0.1689      0.0000      0.1398      0.0000      0.0000
 32      2.0036      2.5483      3.0315      2.4094      2.3004      2.7547      3.1234      2.3609      2.7581
 33      0.4286      0.0553      0.0000      0.5554      0.0000      0.0000      0.0753      0.0033      0.0000
 34      0.0000      0.0601      0.0000      0.0000      0.0000      0.0300      0.1683      0.0000      0.0000
 35      0.0000      0.6735      1.4184      0.3040      2.0638      1.1750      0.3964      0.0000      1.7614
 36      4.6608      3.3566      3.6908      4.1512      3.8262      3.5117      3.1219      3.2373      2.9880
 37      0.7646      2.9576      3.6088      2.8100      2.2747      3.0383      4.1773      3.1996      2.6207
 38     16.0037      5.2008      5.9594      8.7349      5.4261      6.1009      5.0951      5.4461      4.6649
 39      1.9928      2.0981      1.2391      3.3306      2.6489      1.2218      4.6501      1.8736      1.9008
 40      0.1639      0.3932      1.2260      0.5367      0.9515      0.8153      0.0000      0.0000      0.4056
 41      0.0000      0.2852      0.0055      0.0000      0.0000      0.3863      0.2548      0.0000      0.0000
 42      0.0000      0.5114      0.4394      0.1048      0.0410      0.0000      0.1184      0.0000      0.0376
 43      0.0000      0.1963      0.0000      0.0000      0.0000      0.0000      0.0000      0.5827      0.0205
 44      0.0000      0.3586      0.0000      0.1707      0.0000      0.0000      0.0000      0.0000      0.0000
 45      0.0000      0.5924      0.3694      0.0000      0.0000      0.7525      0.0000      0.0000      0.0000
 46      2.5683     12.5333     11.4890     12.3839     12.8031     10.0513     12.6053     10.7871     12.3285
