###################################################################
## OUTPUT of StarlightChains_v04.for    [Cid@UFSC - 01/Apr/2007] ##
###################################################################

## Some input info
2005bz.txt                               [arq_obs]
Base.CB07.vall.4m                        [arq_base]
Masks.EmLines.NEW.gm                     [arq_masks]
StCv04.C11.config                        [arq_config]
   66                                    [N_base]
    0                                    [N_YAV_components = # of components with extra extinction!]
    0                                    [i_FitPowerLaw (1/0 = Yes/No)]
-9.99                                    [alpha_PowerLaw]
CCM                                      [red_law_option]
 1.458241                                [q_norm = A(l_norm)/A(V)]

## (Re)Sampling Parameters
 3741.00                                 [l_ini (A)]
 7218.00                                 [l_fin (A)]
    1.00                                 [dl    (A)]     (OBS: dl_cushion =    50.00 A)

## Normalization info
 4020.00                                 [l_norm (A) - for base]
 4010.00                                 [llow_norm (A) - window for f_obs]
 4060.00                                 [lupp_norm (A) - window for f_obs]
1.016248E-16                             [fobs_norm (in input units)]

## S/N
 3691.00                                 [llow_SN (A) - window for S/N]
 7268.00                                 [lupp_SN (A) - window for S/N]
   3.998                                 [S/N in S/N window]
   6.266                                 [S/N in norm. window]
   9.437                                 [S/N_err in S/N window]
  14.791                                 [S/N_err in norm. window]
  1.0000                                 [fscale_chi2]

## etc...
    -2007297                             [idum_orig]
  2384                                   [NOl_eff]
  2379                                   [Nl_eff]
     5    NSIGMA                         [Ntot_cliped & clip_method]
  1319640                                [Nglobal_steps]
   7                                     [N_chains]
  24                                     [NEX0s_base = N_base in EX0s-fits]
 0   0   1        2   2.0   2.512E+01    [Clip-Bug, RC-Crash & Burn-In warning-flags, n_censored_weights, wei_nsig_threshold & wei_limit]
    12     11.678     11.184      0.493  [idt_all, wdt_TotTime, wdt_UsrTime & wdt_SysTime (sec)]

## Synthesis Results - Best model ##

 4.26574E-01                             [chi2/Nl_eff]
     5.30373                             [adev (%)]

    97.35520                             [sum-of-x (%)]
 1.01362E-16                             [Flux_tot (units of input spectrum!)]
 2.58032E-13                             [Mini_tot (???)]
 1.48071E-13                             [Mcor_tot (???)]

   4.66                                  [v0_min  (km/s)]
 302.44                                  [vd_min  (km/s)]
 0.0180                                  [AV_min  (mag)]
 0.0000                                  [YAV_min (mag)]

# j     x_j(%)      Mini_j(%)     Mcor_j(%)     age_j(yr)     Z_j      (L/M)_j    YAV?  Mstars   component_j        a/Fe...       SSP_chi2r SSP_adev(%)   SSP_AV   SSP_x(%)
  1      0.0000     0.0000E+00    0.0000E+00    1.000000E+06  0.00400  1.094E-02    0   1.0000   age020_m42            0.0000     8.7468E-01     7.1240   2.0910    79.9488
  2      0.0000     0.0000E+00    0.0000E+00    3.160000E+06  0.00400  4.007E-02    0   0.9999   age045_m42            0.0000     6.1314E-01     6.2773   1.3008    88.1753
  3      0.0000     0.0000E+00    0.0000E+00    5.010000E+06  0.00400  2.539E-02    0   0.9488   age055_m42            0.0000     6.8452E-01     6.5111   1.6458    84.9676
  4      1.4458     2.2267E-02    3.5776E-02    6.610000E+06  0.00400  2.620E-02    0   0.9220   age061_m42            0.0000     5.7851E-01     6.1200   1.2195    88.7066
  5      0.0000     0.0000E+00    0.0000E+00    1.000000E+07  0.00400  1.322E-02    0   0.8862   age070_m42            0.0000     5.0618E-01     5.6002   0.9488    90.2011
  6      0.0000     0.0000E+00    0.0000E+00    1.445000E+07  0.00400  7.883E-03    0   0.8571   age078_m42            0.0000     5.7446E-01     5.8697   1.2918    87.2120
  7      5.3036     4.0754E-01    5.8051E-01    2.512000E+07  0.00400  5.251E-03    0   0.8174   age090_m42            0.0000     4.9192E-01     5.5076   0.8161    90.8540
  8      0.0050     5.5345E-04    7.5720E-04    4.000000E+07  0.00400  3.649E-03    0   0.7851   age104_m42            0.0000     4.6752E-01     5.4305   0.5776    92.1083
  9      0.0000     0.0000E+00    0.0000E+00    5.500000E+07  0.00400  3.098E-03    0   0.7629   age110_m42            0.0000     4.8317E-01     5.6070   0.7153    92.7912
 10      0.0000     0.0000E+00    0.0000E+00    1.015200E+08  0.00400  2.228E-03    0   0.7207   age116_m42            0.0000     5.1532E-01     5.7952   0.7221    93.5498
 11      0.0042     1.5583E-03    1.8053E-03    2.861200E+08  0.00400  1.093E-03    0   0.6648   age125_m42            0.0000     4.9235E-01     5.6650   0.1374    97.1201
 12      0.0000     0.0000E+00    0.0000E+00    5.088000E+08  0.00400  6.597E-04    0   0.6365   age130_m42            0.0000     5.8005E-01     6.0589   0.1126    98.5980
 13     28.9945     5.4875E+01    5.5444E+01    1.434000E+09  0.00400  2.132E-04    0   0.5798   age139_m42            0.0000     6.1649E-01     6.3754  -0.8622   100.7733
 14      0.0000     0.0000E+00    0.0000E+00    4.250000E+09  0.00400  5.895E-05    0   0.5377   age158_m42            0.0000     1.0520E+00     7.6213  -1.0000    85.8156
 15      0.0000     0.0000E+00    0.0000E+00    7.500000E+09  0.00400  3.510E-05    0   0.5212   age171_m42            0.0000     1.6273E+00     9.2929  -1.0000    78.8294
 16      0.0000     0.0000E+00    0.0000E+00    1.300000E+10  0.00400  2.005E-05    0   0.5034   age193_m42            0.0000     2.2885E+00    11.1100  -1.0000    72.9960
 17      0.0000     0.0000E+00    0.0000E+00    1.800000E+10  0.00400  1.525E-05    0   0.4967   age213_m42            0.0000     2.3495E+00    11.3476  -1.0000    71.9332
 18      2.7689     9.0247E-02    1.5727E-01    1.000000E+06  0.00800  1.238E-02    0   1.0000   age020_m52            0.0000     8.7453E-01     7.1268   2.0879    80.0871
 19      0.0000     0.0000E+00    0.0000E+00    3.160000E+06  0.00800  3.074E-02    0   0.9966   age045_m52            0.0000     8.4454E-01     7.0587   2.0043    81.0634
 20      0.0000     0.0000E+00    0.0000E+00    5.010000E+06  0.00800  2.668E-02    0   0.9443   age055_m52            0.0000     7.1339E-01     6.5959   1.7367    83.8617
 21      0.0000     0.0000E+00    0.0000E+00    6.610000E+06  0.00800  2.136E-02    0   0.9177   age061_m52            0.0000     5.4628E-01     5.6849   0.4651    90.5268
 22      3.0895     1.0260E-01    1.5782E-01    1.000000E+07  0.00800  1.215E-02    0   0.8827   age070_m52            0.0000     5.4618E-01     5.7229   1.1405    89.4643
 23      4.1127     1.9037E-01    2.8371E-01    1.445000E+07  0.00800  8.717E-03    0   0.8552   age078_m52            0.0000     5.4986E-01     5.7772   1.2514    88.6726
 24      3.4894     2.5178E-01    3.5812E-01    2.512000E+07  0.00800  5.592E-03    0   0.8162   age090_m52            0.0000     4.8593E-01     5.4918   0.8751    92.1463
 25      0.0008     8.6309E-05    1.1793E-04    4.000000E+07  0.00800  3.896E-03    0   0.7841   age104_m52            0.0000     4.6647E-01     5.4685   0.7737    93.4820
 26      9.1188     1.7129E+00    2.1570E+00    1.015200E+08  0.00800  2.148E-03    0   0.7226   age116_m52            0.0000     4.7643E-01     5.5950   0.6938    94.1284
 27      0.0000     0.0000E+00    0.0000E+00    2.861200E+08  0.00800  9.925E-04    0   0.6683   age125_m52            0.0000     5.8475E-01     6.0455   0.1758    99.5909
 28      0.0000     0.0000E+00    0.0000E+00    9.047900E+08  0.00800  3.141E-04    0   0.6138   age135_m52            0.0000     7.8111E-01     7.0522  -0.6381   104.5030
 29      0.0000     0.0000E+00    0.0000E+00    1.434000E+09  0.00800  1.719E-04    0   0.5853   age139_m52            0.0000     8.9962E-01     7.2344  -1.0000    93.9214
 30      0.0000     0.0000E+00    0.0000E+00    2.500000E+09  0.00800  7.872E-05    0   0.5600   age150_m52            0.0000     1.6667E+00     9.3782  -1.0000    81.7846
 31      0.0000     0.0000E+00    0.0000E+00    4.250000E+09  0.00800  4.336E-05    0   0.5426   age158_m52            0.0000     1.7286E+00     9.4803  -1.0000    80.4657
 32      0.0000     0.0000E+00    0.0000E+00    6.250000E+09  0.00800  3.159E-05    0   0.5319   age166_m52            0.0000     2.6036E+00    11.6769  -1.0000    73.7227
 33      1.0505     3.1143E+01    2.7532E+01    1.300000E+10  0.00800  1.361E-05    0   0.5073   age193_m52            0.0000     5.0263E+00    16.9772  -1.0000    59.0683
 34      0.0000     0.0000E+00    0.0000E+00    1.800000E+10  0.00800  9.886E-06    0   0.4990   age213_m52            0.0000     5.7701E+00    18.1382  -1.0000    55.8463
 35      0.0000     0.0000E+00    0.0000E+00    1.000000E+06  0.02000  1.544E-02    0   1.0000   age020_m62            0.0000     8.8049E-01     7.1509   2.0851    80.2245
 36      0.0000     0.0000E+00    0.0000E+00    3.160000E+06  0.02000  3.762E-02    0   0.9858   age045_m62            0.0000     8.6958E-01     7.1580   2.0207    81.0545
 37      0.0000     0.0000E+00    0.0000E+00    5.010000E+06  0.02000  3.296E-02    0   0.9342   age055_m62            0.0000     6.5019E-01     6.4503   1.5899    86.6635
 38     13.9689     4.8843E-01    7.5420E-01    8.710000E+06  0.02000  1.154E-02    0   0.8861   age067_m62            0.0000     9.3671E-01     7.2110   0.6287    90.3415
 39      0.0000     0.0000E+00    0.0000E+00    1.445000E+07  0.02000  7.663E-03    0   0.8472   age078_m62            0.0000     6.0183E-01     5.8735   0.7938    91.2239
 40      0.0000     0.0000E+00    0.0000E+00    2.512000E+07  0.02000  4.532E-03    0   0.8099   age090_m62            0.0000     5.9540E-01     5.8972   0.7788    91.3064
 41      0.0006     8.3069E-05    1.0994E-04    5.500000E+07  0.02000  2.733E-03    0   0.7595   age110_m62            0.0000     4.7202E-01     5.4801   0.7608    92.6040
 42      0.0002     5.2983E-05    6.4493E-05    1.609000E+08  0.02000  1.369E-03    0   0.6985   age120_m62            0.0000     5.2337E-01     5.7669   0.5577    97.0660
 43     23.8447     1.0675E+01    1.2490E+01    2.861200E+08  0.02000  9.013E-04    0   0.6714   age125_m62            0.0000     6.4852E-01     6.2316   0.2824   101.0389
 44      0.0000     0.0000E+00    0.0000E+00    5.088000E+08  0.02000  5.028E-04    0   0.6449   age130_m62            0.0000     8.4484E-01     7.1745  -0.1115   104.4878
 45      0.0000     0.0000E+00    0.0000E+00    9.047900E+08  0.02000  2.428E-04    0   0.6179   age135_m62            0.0000     8.7086E-01     7.4518  -0.6843   103.2197
 46      0.0000     0.0000E+00    0.0000E+00    1.434000E+09  0.02000  1.263E-04    0   0.5908   age139_m62            0.0000     9.9663E-01     7.6409  -1.0000    96.6849
 47      0.0000     0.0000E+00    0.0000E+00    2.500000E+09  0.02000  5.985E-05    0   0.5673   age150_m62            0.0000     1.9057E+00     9.8542  -1.0000    82.1100
 48      0.0000     0.0000E+00    0.0000E+00    4.250000E+09  0.02000  3.271E-05    0   0.5468   age158_m62            0.0000     3.2762E+00    12.9999  -1.0000    71.2582
 49      0.0000     0.0000E+00    0.0000E+00    1.000000E+10  0.02000  1.360E-05    0   0.5167   age181_m62            0.0000     5.2633E+00    16.7869  -1.0000    60.4490
 50      0.0000     0.0000E+00    0.0000E+00    1.800000E+10  0.02000  7.124E-06    0   0.5013   age213_m62            0.0000     6.5989E+00    18.9817  -1.0000    54.2685
 51      0.0000     0.0000E+00    0.0000E+00    1.000000E+06  0.05000  2.592E-02    0   0.9998   age020_m72            0.0000     9.0859E-01     7.2155   2.0820    80.0319
 52      0.0000     0.0000E+00    0.0000E+00    3.160000E+06  0.05000  4.845E-02    0   0.9577   age045_m72            0.0000     7.8031E-01     6.9255   1.8810    83.0373
 53      0.0000     0.0000E+00    0.0000E+00    5.010000E+06  0.05000  3.072E-02    0   0.9147   age055_m72            0.0000     6.7956E-01     6.2844   1.3949    87.0804
 54      0.0000     0.0000E+00    0.0000E+00    6.610000E+06  0.05000  1.455E-02    0   0.8877   age061_m72            0.0000     1.4709E+00     9.2760   0.6837    90.7336
 55      0.0000     0.0000E+00    0.0000E+00    1.000000E+07  0.05000  9.074E-03    0   0.8524   age070_m72            0.0000     7.9037E-01     6.8708   1.5786    86.8566
 56      0.0000     0.0000E+00    0.0000E+00    2.512000E+07  0.05000  4.250E-03    0   0.7902   age090_m72            0.0000     6.0317E-01     6.1341   1.2447    89.9340
 57      0.0000     0.0000E+00    0.0000E+00    4.000000E+07  0.05000  3.087E-03    0   0.7618   age104_m72            0.0000     5.7080E-01     6.0230   1.0011    92.1372
 58      0.1534     3.6421E-02    4.5037E-02    1.015200E+08  0.05000  1.700E-03    0   0.7096   age116_m72            0.0000     4.9936E-01     5.6512   0.7057    96.4111
 59      0.0037     2.0470E-03    2.3660E-03    2.861200E+08  0.05000  7.384E-04    0   0.6633   age125_m72            0.0000     7.5846E-01     6.7342   0.1397   102.9241
 60      0.0000     0.0000E+00    0.0000E+00    5.088000E+08  0.05000  3.819E-04    0   0.6372   age130_m72            0.0000     8.6258E-01     7.4321  -0.3543   104.6483
 61      0.0000     0.0000E+00    0.0000E+00    9.047900E+08  0.05000  1.676E-04    0   0.6110   age135_m72            0.0000     1.1608E+00     8.5241  -1.0000   100.6167
 62      0.0000     0.0000E+00    0.0000E+00    1.434000E+09  0.05000  8.837E-05    0   0.5874   age139_m72            0.0000     2.0073E+00    10.0769  -1.0000    83.3146
 63      0.0000     0.0000E+00    0.0000E+00    2.500000E+09  0.05000  4.233E-05    0   0.5598   age150_m72            0.0000     3.4014E+00    13.1589  -1.0000    71.8456
 64      0.0000     0.0000E+00    0.0000E+00    6.250000E+09  0.05000  1.435E-05    0   0.5249   age166_m72            0.0000     5.8225E+00    17.8424  -1.0000    57.5026
 65      0.0000     0.0000E+00    0.0000E+00    1.300000E+10  0.05000  6.513E-06    0   0.5036   age193_m72            0.0000     7.6196E+00    20.7582  -1.0000    50.7114
 66      0.0000     0.0000E+00    0.0000E+00    1.800000E+10  0.05000  4.527E-06    0   0.4945   age213_m72            0.0000     8.6703E+00    22.3843  -1.0000    46.7624


## Synthesis Results - Average & Chains ##

# j      x_j: min, <> & last-chain-values for 1 ...  7 chains
  1      0.0000      0.4325      0.0000      0.6840      4.9128      0.2557      0.0000      0.0000      0.0000
  2      0.0000      0.6731      4.4657      0.0000      0.0000      0.0000      0.0000      0.2788      2.1813
  3      0.0000      0.3045      0.2697      0.0000      1.6077      0.0000      0.0000      0.0000      0.0000
  4      1.4458      0.5163      0.7109      0.0000      0.0000      1.4149      0.6314      5.0277      0.0000
  5      0.0000      0.8452      0.0000      4.6502      0.0000      0.8574      0.0000      0.9730      1.1979
  6      0.0000      0.4835      0.0000      0.0000      0.0000      3.0858      0.0000      0.0000      0.9159
  7      5.3036      1.8618      3.1516      1.9709      0.6733      0.2036      2.2040      0.0000      0.8382
  8      0.0050      4.0557      4.2512      4.0921     10.3757      3.9233      6.8192      3.0082      9.2154
  9      0.0000      0.9604      0.0000      0.5223      0.0000      1.4872      0.0000      0.0548      0.0000
 10      0.0000      0.7328      0.0000      0.0000      0.0000      0.0000      0.0000      0.0000      0.1865
 11      0.0042      5.1159      3.3293      4.2511      9.2002      4.9044      1.5274      0.0000      0.0000
 12      0.0000      4.1460      1.6626      0.0000      0.0000      2.2906      0.0000      0.0000      1.0056
 13     28.9945      3.3056      1.5585      3.4769      4.0982      4.2737      4.1247      4.7067      3.8219
 14      0.0000      0.0845      0.0000      0.0000      0.0000      0.0000      0.1454      0.0885      0.0000
 15      0.0000      0.1476      0.3009      0.6840      0.5045      0.4729      0.0000      0.9215      0.0000
 16      0.0000      0.1664      0.4309      0.0000      1.1336      0.0950      0.4440      0.0000      0.7011
 17      0.0000      0.0838      0.0000      0.0000      0.0000      0.0000      0.0000      0.0000      0.7169
 18      2.7689      0.1872      0.0000      0.0000      0.3216      0.6564      0.6215      0.0000      0.0000
 19      0.0000      0.2045      0.0000      0.0000      0.0000      0.0000      0.0000      0.0000      0.0000
 20      0.0000      0.1710      0.0000      0.0000      0.3169      0.0000      0.0000      0.0000      0.0000
 21      0.0000      3.5084      3.7329      5.9178      1.3551      0.0000      4.3536      0.4690      4.0798
 22      3.0895      0.4912      0.0000      1.3036      0.0000      0.0000      1.0800      0.0000      2.4150
 23      4.1127      0.5226      0.0000      0.1051      2.4934      0.0000      2.6245      0.0000      0.0000
 24      3.4894      0.7276      0.0000      0.0000      0.1165      0.0000      2.2846      0.0000      0.0000
 25      0.0008      1.3431      1.7017      3.2637      0.0000      0.0000      0.7796      0.5854      0.0000
 26      9.1188      2.1830      0.0000      1.6483      0.0000      4.5415      4.2433      6.7097      0.0000
 27      0.0000      3.3170      0.0000      0.0000      0.0000      9.9740      6.2349      3.1924      0.0000
 28      0.0000      1.7154      5.4407      0.0000      0.0000      1.3943      0.0000      4.6559      1.9261
 29      0.0000      1.0922      1.6226      2.0403      3.0133      2.0948      0.0000      3.6884      1.2431
 30      0.0000      0.5557      1.1759      0.0000      0.0000      0.7960      0.7716      0.0000      0.3977
 31      0.0000      0.0859      0.0000      0.0000      1.2048      0.0000      0.0000      0.0000      0.0000
 32      0.0000      0.1127      0.0000      0.8224      0.0000      0.0000      0.0000      0.0000      0.0000
 33      1.0505      0.1585      0.4064      0.1514      0.7056      0.0000      0.8070      0.0000      0.0000
 34      0.0000      0.0335      0.0000      0.0000      0.0000      0.0000      0.4475      0.0000      0.0000
 35      0.0000      0.2360      0.0000      0.2378      0.0000      0.0000      0.0000      1.2478      0.0000
 36      0.0000      0.1561      0.0000      0.0000      0.0679      1.8243      0.0000      0.0000      0.0000
 37      0.0000      0.2517      0.0000      0.0300      0.0000      0.0000      0.0000      1.9583      0.0000
 38     13.9689     16.2449     20.2195     15.5608     11.4084     20.3322     15.6866     14.3899     16.9213
 39      0.0000      0.8969      2.5654      0.0000      0.0000      0.0000      0.0000      0.8778      0.9531
 40      0.0000      0.9398      0.0000      0.0000      0.0000      0.0000      0.2961      1.4362      0.0000
 41      0.0006      1.0325      0.5237      0.0000      0.0000      0.3417      2.1359      0.0000      0.0000
 42      0.0002      2.2040      0.9890      1.5287      8.7944      2.5544      2.4529      0.0000      3.8341
 43     23.8447     19.3852     26.2508     35.4315     28.1741     19.5586     22.5657     30.9523     26.2029
 44      0.0000      3.0352      5.4997      0.0000      0.0000      2.6158      0.0000      0.0000      0.0000
 45      0.0000      0.6115      0.0000      0.0000      0.0000      0.0000      0.0000      1.3045      0.0000
 46      0.0000      0.5200      0.0000      0.4936      0.9501      1.9075      1.4839      0.6859      1.4382
