###################################################################
## OUTPUT of StarlightChains_v04.for    [Cid@UFSC - 01/Apr/2007] ##
###################################################################

## Some input info
2005dp.txt                               [arq_obs]
Base.CB07.vall.4m                        [arq_base]
Masks.EmLines.NEW.gm                     [arq_masks]
StCv04.C11.config                        [arq_config]
   66                                    [N_base]
    0                                    [N_YAV_components = # of components with extra extinction!]
    0                                    [i_FitPowerLaw (1/0 = Yes/No)]
-9.99                                    [alpha_PowerLaw]
CCM                                      [red_law_option]
 1.458241                                [q_norm = A(l_norm)/A(V)]

## (Re)Sampling Parameters
 3741.00                                 [l_ini (A)]
 7218.00                                 [l_fin (A)]
    1.00                                 [dl    (A)]     (OBS: dl_cushion =    50.00 A)

## Normalization info
 4020.00                                 [l_norm (A) - for base]
 4010.00                                 [llow_norm (A) - window for f_obs]
 4060.00                                 [lupp_norm (A) - window for f_obs]
2.301287E-16                             [fobs_norm (in input units)]

## S/N
 3691.00                                 [llow_SN (A) - window for S/N]
 7268.00                                 [lupp_SN (A) - window for S/N]
   4.367                                 [S/N in S/N window]
   6.450                                 [S/N in norm. window]
  10.847                                 [S/N_err in S/N window]
  16.021                                 [S/N_err in norm. window]
  1.0000                                 [fscale_chi2]

## etc...
    -2007300                             [idum_orig]
  2384                                   [NOl_eff]
  2384                                   [Nl_eff]
     0    NSIGMA                         [Ntot_cliped & clip_method]
   625240                                [Nglobal_steps]
   7                                     [N_chains]
  11                                     [NEX0s_base = N_base in EX0s-fits]
 0   0   1        3   2.0   2.567E+01    [Clip-Bug, RC-Crash & Burn-In warning-flags, n_censored_weights, wei_nsig_threshold & wei_limit]
    11     10.614     10.118      0.496  [idt_all, wdt_TotTime, wdt_UsrTime & wdt_SysTime (sec)]

## Synthesis Results - Best model ##

 2.00736E-01                             [chi2/Nl_eff]
     3.33121                             [adev (%)]

    98.94342                             [sum-of-x (%)]
 4.67609E-16                             [Flux_tot (units of input spectrum!)]
 1.04195E-13                             [Mini_tot (???)]
 7.45890E-14                             [Mcor_tot (???)]

  55.26                                  [v0_min  (km/s)]
 304.95                                  [vd_min  (km/s)]
 0.5358                                  [AV_min  (mag)]
 0.0000                                  [YAV_min (mag)]

# j     x_j(%)      Mini_j(%)     Mcor_j(%)     age_j(yr)     Z_j      (L/M)_j    YAV?  Mstars   component_j        a/Fe...       SSP_chi2r SSP_adev(%)   SSP_AV   SSP_x(%)
  1      0.0000     0.0000E+00    0.0000E+00    1.000000E+06  0.00400  1.094E-02    0   1.0000   age020_m42            0.0000     3.5460E-01     4.5340   1.9764    90.2284
  2      0.0000     0.0000E+00    0.0000E+00    3.160000E+06  0.00400  4.007E-02    0   0.9999   age045_m42            0.0000     2.5722E-01     3.7161   1.2862    94.8818
  3      0.0000     0.0000E+00    0.0000E+00    5.010000E+06  0.00400  2.539E-02    0   0.9488   age055_m42            0.0000     2.7632E-01     3.8680   1.5899    93.2671
  4      0.0000     0.0000E+00    0.0000E+00    6.610000E+06  0.00400  2.620E-02    0   0.9220   age061_m42            0.0000     2.4373E-01     3.6024   1.2136    95.0900
  5      0.0000     0.0000E+00    0.0000E+00    1.000000E+07  0.00400  1.322E-02    0   0.8862   age070_m42            0.0000     2.2273E-01     3.4641   0.9268    97.4856
  6      0.0000     0.0000E+00    0.0000E+00    1.445000E+07  0.00400  7.883E-03    0   0.8571   age078_m42            0.0000     2.3399E-01     3.6174   1.2455    95.3624
  7      0.0000     0.0000E+00    0.0000E+00    2.512000E+07  0.00400  5.251E-03    0   0.8174   age090_m42            0.0000     2.3085E-01     3.5302   0.7983    97.9729
  8      0.0047     5.8634E-03    6.4305E-03    4.000000E+07  0.00400  3.649E-03    0   0.7851   age104_m42            0.0000     2.2370E-01     3.4721   0.5759    98.5532
  9      0.0000     0.0000E+00    0.0000E+00    5.500000E+07  0.00400  3.098E-03    0   0.7629   age110_m42            0.0000     2.3046E-01     3.5252   0.7390    98.0711
 10     21.2238     4.3207E+01    4.3499E+01    1.015200E+08  0.00400  2.228E-03    0   0.7207   age116_m42            0.0000     2.5152E-01     3.7664   0.7664    97.9064
 11      0.0000     0.0000E+00    0.0000E+00    2.861200E+08  0.00400  1.093E-03    0   0.6648   age125_m42            0.0000     3.0271E-01     4.2122   0.2039   100.6416
 12      0.0000     0.0000E+00    0.0000E+00    5.088000E+08  0.00400  6.597E-04    0   0.6365   age130_m42            0.0000     3.3598E-01     4.4265   0.2021   101.0336
 13      0.0000     0.0000E+00    0.0000E+00    1.434000E+09  0.00400  2.132E-04    0   0.5798   age139_m42            0.0000     4.0729E-01     4.7773  -0.7639   102.7169
 14      0.0000     0.0000E+00    0.0000E+00    4.250000E+09  0.00400  5.895E-05    0   0.5377   age158_m42            0.0000     7.9428E-01     6.0859  -1.0000    91.8378
 15      0.0000     0.0000E+00    0.0000E+00    7.500000E+09  0.00400  3.510E-05    0   0.5212   age171_m42            0.0000     1.5028E+00     8.4761  -1.0000    84.8720
 16      0.0000     0.0000E+00    0.0000E+00    1.300000E+10  0.00400  2.005E-05    0   0.5034   age193_m42            0.0000     2.3881E+00    10.8333  -1.0000    78.9984
 17      0.0000     0.0000E+00    0.0000E+00    1.800000E+10  0.00400  1.525E-05    0   0.4967   age213_m42            0.0000     2.5060E+00    11.1355  -1.0000    77.8974
 18      0.0000     0.0000E+00    0.0000E+00    1.000000E+06  0.00800  1.238E-02    0   1.0000   age020_m52            0.0000     3.5624E-01     4.5404   1.9719    90.4353
 19      0.0000     0.0000E+00    0.0000E+00    3.160000E+06  0.00800  3.074E-02    0   0.9966   age045_m52            0.0000     3.4662E-01     4.4511   1.8979    91.1321
 20      0.0000     0.0000E+00    0.0000E+00    5.010000E+06  0.00800  2.668E-02    0   0.9443   age055_m52            0.0000     2.8504E-01     3.9619   1.6672    92.6618
 21     65.5055     1.3910E+01    1.7832E+01    6.610000E+06  0.00800  2.136E-02    0   0.9177   age061_m52            0.0000     2.0840E-01     3.4950   0.4175    99.0048
 22      0.0000     0.0000E+00    0.0000E+00    1.000000E+07  0.00800  1.215E-02    0   0.8827   age070_m52            0.0000     2.4516E-01     3.7291   1.1004    97.5665
 23      0.0000     0.0000E+00    0.0000E+00    1.445000E+07  0.00800  8.717E-03    0   0.8552   age078_m52            0.0000     2.2619E-01     3.5347   1.2136    96.5691
 24      0.0000     0.0000E+00    0.0000E+00    2.512000E+07  0.00800  5.592E-03    0   0.8162   age090_m52            0.0000     2.3863E-01     3.5883   0.8650    99.0114
 25      0.0000     0.0000E+00    0.0000E+00    4.000000E+07  0.00800  3.896E-03    0   0.7841   age104_m52            0.0000     2.3889E-01     3.5859   0.7859    99.3749
 26      0.0000     0.0000E+00    0.0000E+00    1.015200E+08  0.00800  2.148E-03    0   0.7226   age116_m52            0.0000     2.3711E-01     3.6522   0.7317    98.8372
 27      0.0000     0.0000E+00    0.0000E+00    2.861200E+08  0.00800  9.925E-04    0   0.6683   age125_m52            0.0000     3.3265E-01     4.4006   0.2688   101.8984
 28      0.0000     0.0000E+00    0.0000E+00    9.047900E+08  0.00800  3.141E-04    0   0.6138   age135_m52            0.0000     5.3559E-01     5.3216  -0.5111   105.1634
 29      0.0000     0.0000E+00    0.0000E+00    1.434000E+09  0.00800  1.719E-04    0   0.5853   age139_m52            0.0000     6.1197E-01     5.5947  -1.0000    99.9141
 30      0.0000     0.0000E+00    0.0000E+00    2.500000E+09  0.00800  7.872E-05    0   0.5600   age150_m52            0.0000     1.4399E+00     8.4074  -1.0000    87.8900
 31      0.0000     0.0000E+00    0.0000E+00    4.250000E+09  0.00800  4.336E-05    0   0.5426   age158_m52            0.0000     1.5440E+00     8.5803  -1.0000    86.5556
 32      0.0000     0.0000E+00    0.0000E+00    6.250000E+09  0.00800  3.159E-05    0   0.5319   age166_m52            0.0000     2.6401E+00    11.4187  -1.0000    79.7564
 33      0.0000     0.0000E+00    0.0000E+00    1.300000E+10  0.00800  1.361E-05    0   0.5073   age193_m52            0.0000     6.0988E+00    17.7342  -1.0000    64.6294
 34      0.0000     0.0000E+00    0.0000E+00    1.800000E+10  0.00800  9.886E-06    0   0.4990   age213_m52            0.0000     7.1011E+00    19.0339  -1.0000    61.2382
 35      0.0000     0.0000E+00    0.0000E+00    1.000000E+06  0.02000  1.544E-02    0   1.0000   age020_m62            0.0000     3.6153E-01     4.5750   1.9668    90.6949
 36      0.0000     0.0000E+00    0.0000E+00    3.160000E+06  0.02000  3.762E-02    0   0.9858   age045_m62            0.0000     3.6025E-01     4.5654   1.9061    91.4994
 37      8.7001     1.1973E+00    1.5624E+00    5.010000E+06  0.02000  3.296E-02    0   0.9342   age055_m62            0.0000     2.6772E-01     3.7600   1.5557    94.1693
 38      0.0000     0.0000E+00    0.0000E+00    8.710000E+06  0.02000  1.154E-02    0   0.8861   age067_m62            0.0000     6.0902E-01     6.3173   0.5302   101.5683
 39      0.0000     0.0000E+00    0.0000E+00    1.445000E+07  0.02000  7.663E-03    0   0.8472   age078_m62            0.0000     3.1388E-01     4.3558   0.7436   100.0488
 40      0.0000     0.0000E+00    0.0000E+00    2.512000E+07  0.02000  4.532E-03    0   0.8099   age090_m62            0.0000     3.4837E-01     4.5248   0.7390    99.6549
 41      0.0000     0.0000E+00    0.0000E+00    5.500000E+07  0.02000  2.733E-03    0   0.7595   age110_m62            0.0000     2.3375E-01     3.5345   0.7633    98.9104
 42      0.0000     0.0000E+00    0.0000E+00    1.609000E+08  0.02000  1.369E-03    0   0.6985   age120_m62            0.0000     2.7805E-01     4.0216   0.6216   100.6716
 43      0.0000     0.0000E+00    0.0000E+00    2.861200E+08  0.02000  9.013E-04    0   0.6714   age125_m62            0.0000     3.5596E-01     4.5208   0.3827   102.9560
 44      0.0000     0.0000E+00    0.0000E+00    5.088000E+08  0.02000  5.028E-04    0   0.6449   age130_m62            0.0000     4.9315E-01     5.2152   0.0214   104.8447
 45      0.0000     0.0000E+00    0.0000E+00    9.047900E+08  0.02000  2.428E-04    0   0.6179   age135_m62            0.0000     5.8776E-01     5.4272  -0.5685   104.4186
 46      0.0000     0.0000E+00    0.0000E+00    1.434000E+09  0.02000  1.263E-04    0   0.5908   age139_m62            0.0000     7.0306E-01     5.6577  -1.0000   102.5182
 47      0.0000     0.0000E+00    0.0000E+00    2.500000E+09  0.02000  5.985E-05    0   0.5673   age150_m62            0.0000     1.6762E+00     8.8743  -1.0000    88.2541
 48      0.0000     0.0000E+00    0.0000E+00    4.250000E+09  0.02000  3.271E-05    0   0.5468   age158_m62            0.0000     3.4231E+00    12.9917  -1.0000    77.2426
 49      0.0000     0.0000E+00    0.0000E+00    1.000000E+10  0.02000  1.360E-05    0   0.5167   age181_m62            0.0000     6.1407E+00    17.5087  -1.0000    66.0748
 50      0.0000     0.0000E+00    0.0000E+00    1.800000E+10  0.02000  7.124E-06    0   0.5013   age213_m62            0.0000     8.0461E+00    20.0150  -1.0000    59.5834
 51      0.0000     0.0000E+00    0.0000E+00    1.000000E+06  0.05000  2.592E-02    0   0.9998   age020_m72            0.0000     3.7908E-01     4.6868   1.9549    90.8615
 52      0.0000     0.0000E+00    0.0000E+00    3.160000E+06  0.05000  4.845E-02    0   0.9577   age045_m72            0.0000     3.2756E-01     4.2502   1.7997    92.2702
 53      0.0000     0.0000E+00    0.0000E+00    5.010000E+06  0.05000  3.072E-02    0   0.9147   age055_m72            0.0000     3.0592E-01     4.2696   1.3274    96.3719
 54      0.0000     0.0000E+00    0.0000E+00    6.610000E+06  0.05000  1.455E-02    0   0.8877   age061_m72            0.0000     1.1577E+00     8.7183   0.5818   102.7455
 55      0.0000     0.0000E+00    0.0000E+00    1.000000E+07  0.05000  9.074E-03    0   0.8524   age070_m72            0.0000     4.2788E-01     4.8786   1.5219    95.8577
 56      0.0000     0.0000E+00    0.0000E+00    2.512000E+07  0.05000  4.250E-03    0   0.7902   age090_m72            0.0000     3.3878E-01     4.2301   1.2283    97.1671
 57      0.0000     0.0000E+00    0.0000E+00    4.000000E+07  0.05000  3.087E-03    0   0.7618   age104_m72            0.0000     3.6131E-01     4.3060   1.0049    98.5657
 58      0.0000     0.0000E+00    0.0000E+00    1.015200E+08  0.05000  1.700E-03    0   0.7096   age116_m72            0.0000     2.8424E-01     4.0575   0.7610   100.4370
 59      0.0000     0.0000E+00    0.0000E+00    2.861200E+08  0.05000  7.384E-04    0   0.6633   age125_m72            0.0000     4.2538E-01     4.8987   0.2597   103.8878
 60      3.5093     4.1680E+01    3.7100E+01    5.088000E+08  0.05000  3.819E-04    0   0.6372   age130_m72            0.0000     5.3658E-01     5.3272  -0.2288   105.3160
 61      0.0000     0.0000E+00    0.0000E+00    9.047900E+08  0.05000  1.676E-04    0   0.6110   age135_m72            0.0000     8.4827E-01     6.2673  -0.9297   103.7241
 62      0.0000     0.0000E+00    0.0000E+00    1.434000E+09  0.05000  8.837E-05    0   0.5874   age139_m72            0.0000     1.7558E+00     9.0981  -1.0000    89.4888
 63      0.0000     0.0000E+00    0.0000E+00    2.500000E+09  0.05000  4.233E-05    0   0.5598   age150_m72            0.0000     3.5151E+00    13.1036  -1.0000    77.8834
 64      0.0000     0.0000E+00    0.0000E+00    6.250000E+09  0.05000  1.435E-05    0   0.5249   age166_m72            0.0000     6.9828E+00    18.7119  -1.0000    62.9830
 65      0.0000     0.0000E+00    0.0000E+00    1.300000E+10  0.05000  6.513E-06    0   0.5036   age193_m72            0.0000     9.6405E+00    21.9713  -1.0000    55.8410
 66      0.0000     0.0000E+00    0.0000E+00    1.800000E+10  0.05000  4.527E-06    0   0.4945   age213_m72            0.0000     1.1260E+01    23.7450  -1.0000    51.6249


## Synthesis Results - Average & Chains ##

# j      x_j: min, <> & last-chain-values for 1 ...  7 chains
  1      0.0000      0.5126      2.5771      0.2765      0.0000      0.0000      0.0000      2.5462      0.0000
  2      0.0000      1.4478      1.1338      4.3641      0.6181      0.0000      1.3502      0.0000      0.0000
  3      0.0000      0.4198      0.0000      0.0000      0.0000      3.0124      0.0000      0.0000      0.0000
  4      0.0000      1.6292      0.0000      0.0000      1.1032      2.3971      5.2540      0.0000      0.0000
  5      0.0000      1.7259      2.0967      2.1394      4.6697      1.5879      3.4321      0.0000      2.0263
  6      0.0000      0.8861      0.0000      1.3951      0.0000      0.0000      0.0000      0.0000      0.0000
  7      0.0000      2.9355      2.0457      0.0000      0.0000      2.2011      0.9027      5.5553      0.0000
  8      0.0047      3.3868      5.8622      4.4052      2.2740      0.0000      4.0198      2.5693      0.3259
  9      0.0000      3.7700     10.5170      8.7236      5.0479      4.4013      2.8565      4.2883      1.8129
 10     21.2238      3.8222      9.0784      4.6107      6.5845      6.7007      8.4827      0.0000      0.0000
 11      0.0000      0.3220      0.0000      0.0000      0.0000      0.0000      0.0000      0.0000      0.0000
 12      0.0000      0.5438      0.0000      0.0233      0.0000      0.0000      0.0000      0.0000      0.0000
 13      0.0000      0.2254      0.0000      0.0000      0.0000      0.0000      0.1187      0.0000      0.0000
 14      0.0000      0.0331      0.0000      0.0000      0.0000      0.0000      0.0000      0.0000      0.0000
 15      0.0000      0.0120      0.0000      0.0000      0.0000      0.0000      0.0000      0.0000      0.0000
 16      0.0000      0.0173      0.0216      0.0000      0.0000      0.0000      0.0000      0.0000      0.0000
 17      0.0000      0.0240      0.0000      0.0000      0.0000      0.0000      0.0000      0.0000      0.0000
 18      0.0000      0.3931      0.0000      0.0000      1.2945      1.1845      0.0000      0.0000      0.0000
 19      0.0000      0.4301      0.0000      0.0000      3.2545      0.0000      0.0000      1.8905      1.2450
 20      0.0000      1.3962      2.5019      1.6629      0.0000      0.0000      0.4569      2.7809      1.9583
 21     65.5055     44.4870     51.4992     49.7601     53.0345     58.0919     51.1152     53.8058     59.1475
 22      0.0000      0.5728      0.0000      0.0000      0.0000      0.4520      0.0000      0.3762      0.0000
 23      0.0000      0.5944      0.0000      0.0000      0.8996      0.0000      0.0000      0.0000      7.9066
 24      0.0000      1.6715      0.0000      0.6971      0.0000      0.0000      0.0765      0.0000      2.0284
 25      0.0000      1.7057      0.0000      0.0000      4.8680      0.0000      0.0000      0.0000      0.0000
 26      0.0000      1.6844      0.0000      0.0000      0.0000      1.8927      0.0000      0.0000      7.0243
 27      0.0000      1.3412      0.0000      0.0000      0.0000      0.0000      0.0000      0.0000      0.0000
 28      0.0000      0.1264      0.0000      0.0000      0.0000      0.0000      0.0000      0.0000      0.0000
 29      0.0000      0.0152      0.0000      0.0000      0.0000      0.0000      0.0000      0.0000      0.0000
 30      0.0000      0.0437      0.0000      0.0000      0.0000      0.0794      0.0000      0.3696      0.0000
 31      0.0000      0.0405      0.0000      0.5961      0.0000      0.0000      0.0000      0.0000      0.0000
 32      0.0000      0.0100      0.0000      0.0000      0.0000      0.0000      0.0000      0.0000      0.0000
 33      0.0000      0.0044      0.0000      0.0000      0.0000      0.0000      0.0051      0.0000      0.0000
 34      0.0000      0.0017      0.0000      0.0000      0.0000      0.0000      0.0000      0.0000      0.0000
 35      0.0000      0.6512      0.0000      2.1762      2.2661      0.0254      0.0000      2.2654      2.3307
 36      0.0000      1.4051      0.0000      0.6474      0.0000      0.0000      0.0889      2.8127      0.0000
 37      8.7001      0.4502      2.1747      0.0000      0.0000      0.0000      2.1030      1.3909      0.0000
 38      0.0000      0.4713      0.0000      0.0871      0.0000      0.0000      0.8506      0.0000      0.0000
 39      0.0000      1.0570      0.0807      0.0000      0.0000      0.0000      0.0000      0.0000      0.0000
 40      0.0000      0.5428      0.0000      0.0000      2.4788      1.6925      0.0000      0.0000      0.0000
 41      0.0000      1.9618      0.0000      1.9322      0.0000      0.0000      0.9480      0.1434      0.5640
 42      0.0000      1.9954      0.0000      0.7242      0.6961      3.8545      6.8292      1.9229      0.0000
 43      0.0000      2.7324      0.0000      3.1585      2.1333      2.8099      1.5593      5.0359      8.7023
 44      0.0000      2.8294      0.0000      2.9242      2.4973      3.3424      0.3004      3.5818      4.2577
 45      0.0000      0.0897      0.0000      0.0000      0.0000      0.0000      0.0000      0.0000      0.0000
 46      0.0000      0.0582      0.0000      0.0000      0.0994      0.0000      0.0000      0.0000      0.0000
