###################################################################
## OUTPUT of StarlightChains_v04.for    [Cid@UFSC - 01/Apr/2007] ##
###################################################################

## Some input info
2005eq.txt                               [arq_obs]
Base.CB07.vall.4m                        [arq_base]
Masks.EmLines.NEW.gm                     [arq_masks]
StCv04.C11.config                        [arq_config]
   66                                    [N_base]
    0                                    [N_YAV_components = # of components with extra extinction!]
    0                                    [i_FitPowerLaw (1/0 = Yes/No)]
-9.99                                    [alpha_PowerLaw]
CCM                                      [red_law_option]
 1.458241                                [q_norm = A(l_norm)/A(V)]

## (Re)Sampling Parameters
 3741.00                                 [l_ini (A)]
 7218.00                                 [l_fin (A)]
    1.00                                 [dl    (A)]     (OBS: dl_cushion =    50.00 A)

## Normalization info
 4020.00                                 [l_norm (A) - for base]
 4010.00                                 [llow_norm (A) - window for f_obs]
 4060.00                                 [lupp_norm (A) - window for f_obs]
8.031973E-15                             [fobs_norm (in input units)]

## S/N
 3691.00                                 [llow_SN (A) - window for S/N]
 7268.00                                 [lupp_SN (A) - window for S/N]
   8.626                                 [S/N in S/N window]
   9.860                                 [S/N in norm. window]
  10.000                                 [S/N_err in S/N window]
  11.430                                 [S/N_err in norm. window]
  1.0000                                 [fscale_chi2]

## etc...
    -2007303                             [idum_orig]
  2325                                   [NOl_eff]
  2307                                   [Nl_eff]
    18    NSIGMA                         [Ntot_cliped & clip_method]
  1512560                                [Nglobal_steps]
   7                                     [N_chains]
  26                                     [NEX0s_base = N_base in EX0s-fits]
 0   0   1       62   2.0   1.497E+01    [Clip-Bug, RC-Crash & Burn-In warning-flags, n_censored_weights, wei_nsig_threshold & wei_limit]
    12     11.907     11.411      0.496  [idt_all, wdt_TotTime, wdt_UsrTime & wdt_SysTime (sec)]

## Synthesis Results - Best model ##

 4.76309E-01                             [chi2/Nl_eff]
     4.98513                             [adev (%)]

    99.89497                             [sum-of-x (%)]
 9.02042E-15                             [Flux_tot (units of input spectrum!)]
 1.23544E-10                             [Mini_tot (???)]
 6.53039E-11                             [Mcor_tot (???)]

 -26.90                                  [v0_min  (km/s)]
 164.22                                  [vd_min  (km/s)]
 0.0872                                  [AV_min  (mag)]
 0.0000                                  [YAV_min (mag)]

# j     x_j(%)      Mini_j(%)     Mcor_j(%)     age_j(yr)     Z_j      (L/M)_j    YAV?  Mstars   component_j        a/Fe...       SSP_chi2r SSP_adev(%)   SSP_AV   SSP_x(%)
  1      0.0000     0.0000E+00    0.0000E+00    1.000000E+06  0.00400  1.094E-02    0   1.0000   age020_m42            0.0000     8.7982E-01     6.7724   2.8471    86.0886
  2      0.0000     0.0000E+00    0.0000E+00    3.160000E+06  0.00400  4.007E-02    0   0.9999   age045_m42            0.0000     7.2107E-01     6.1934   2.1006    92.8913
  3      0.0000     0.0000E+00    0.0000E+00    5.010000E+06  0.00400  2.539E-02    0   0.9488   age055_m42            0.0000     7.6500E-01     6.3241   2.4295    90.2472
  4      0.0000     0.0000E+00    0.0000E+00    6.610000E+06  0.00400  2.620E-02    0   0.9220   age061_m42            0.0000     7.1693E-01     6.0593   2.0258    93.1539
  5      0.0000     0.0000E+00    0.0000E+00    1.000000E+07  0.00400  1.322E-02    0   0.8862   age070_m42            0.0000     6.9349E-01     5.8198   1.7486    94.8839
  6      0.0000     0.0000E+00    0.0000E+00    1.445000E+07  0.00400  7.883E-03    0   0.8571   age078_m42            0.0000     7.3159E-01     5.9876   2.0806    92.2614
  7      0.0000     0.0000E+00    0.0000E+00    2.512000E+07  0.00400  5.251E-03    0   0.8174   age090_m42            0.0000     7.0208E-01     5.8523   1.6187    95.4012
  8      0.0000     0.0000E+00    0.0000E+00    4.000000E+07  0.00400  3.649E-03    0   0.7851   age104_m42            0.0000     6.7200E-01     5.7310   1.3858    96.4618
  9      0.0000     0.0000E+00    0.0000E+00    5.500000E+07  0.00400  3.098E-03    0   0.7629   age110_m42            0.0000     7.0305E-01     5.7654   1.5357    96.6521
 10      0.0000     0.0000E+00    0.0000E+00    1.015200E+08  0.00400  2.228E-03    0   0.7207   age116_m42            0.0000     7.4685E-01     5.8655   1.5535    96.9713
 11      0.0000     0.0000E+00    0.0000E+00    2.861200E+08  0.00400  1.093E-03    0   0.6648   age125_m42            0.0000     7.3058E-01     5.8342   0.9798   100.1726
 12      0.0000     0.0000E+00    0.0000E+00    5.088000E+08  0.00400  6.597E-04    0   0.6365   age130_m42            0.0000     7.8383E-01     5.9173   0.9651   101.2831
 13      5.6417     1.9341E+00    2.1215E+00    1.434000E+09  0.00400  2.132E-04    0   0.5798   age139_m42            0.0000     6.6837E-01     5.4012  -0.0169   103.9404
 14     38.0579     4.7187E+01    4.8000E+01    4.250000E+09  0.00400  5.895E-05    0   0.5377   age158_m42            0.0000     6.4946E-01     5.6718  -0.4582   100.0561
 15     18.8804     3.9316E+01    3.8766E+01    7.500000E+09  0.00400  3.510E-05    0   0.5212   age171_m42            0.0000     7.4467E-01     6.0914  -0.6463    99.4442
 16      0.0069     2.5173E-02    2.3973E-02    1.300000E+10  0.00400  2.005E-05    0   0.5034   age193_m42            0.0000     8.5630E-01     6.5128  -0.8103    98.9147
 17      2.2746     1.0902E+01    1.0244E+01    1.800000E+10  0.00400  1.525E-05    0   0.4967   age213_m42            0.0000     8.2889E-01     6.4186  -0.8324    98.4410
 18      0.0000     0.0000E+00    0.0000E+00    1.000000E+06  0.00800  1.238E-02    0   1.0000   age020_m52            0.0000     8.7718E-01     6.7649   2.8425    86.2862
 19      0.3424     8.1420E-04    1.5351E-03    3.160000E+06  0.00800  3.074E-02    0   0.9966   age045_m52            0.0000     8.5463E-01     6.6934   2.7635    87.1557
 20      0.0000     0.0000E+00    0.0000E+00    5.010000E+06  0.00800  2.668E-02    0   0.9443   age055_m52            0.0000     7.7249E-01     6.3343   2.5136    89.3740
 21      0.0000     0.0000E+00    0.0000E+00    6.610000E+06  0.00800  2.136E-02    0   0.9177   age061_m52            0.0000     5.8440E-01     5.4818   1.2438    96.2436
 22      1.2223     7.3527E-03    1.2279E-02    1.000000E+07  0.00800  1.215E-02    0   0.8827   age070_m52            0.0000     7.1222E-01     5.9150   1.9326    94.4793
 23      0.0000     0.0000E+00    0.0000E+00    1.445000E+07  0.00800  8.717E-03    0   0.8552   age078_m52            0.0000     7.0506E-01     5.8696   2.0445    93.6286
 24      0.3074     4.0175E-03    6.2034E-03    2.512000E+07  0.00800  5.592E-03    0   0.8162   age090_m52            0.0000     6.8972E-01     5.8028   1.6822    96.5914
 25      0.0000     0.0000E+00    0.0000E+00    4.000000E+07  0.00800  3.896E-03    0   0.7841   age104_m52            0.0000     6.7805E-01     5.7348   1.5896    97.5821
 26      0.0000     0.0000E+00    0.0000E+00    1.015200E+08  0.00800  2.148E-03    0   0.7226   age116_m52            0.0000     6.8066E-01     5.6989   1.5210    97.7641
 27      0.0000     0.0000E+00    0.0000E+00    2.861200E+08  0.00800  9.925E-04    0   0.6683   age125_m52            0.0000     7.8545E-01     5.8535   1.0290   102.2658
 28      0.0078     1.8099E-03    2.1016E-03    9.047900E+08  0.00800  3.141E-04    0   0.6138   age135_m52            0.0000     8.0058E-01     5.8734   0.2174   107.3519
 29      0.0046     1.9364E-03    2.1442E-03    1.434000E+09  0.00800  1.719E-04    0   0.5853   age139_m52            0.0000     6.9033E-01     5.6833  -0.3583   105.0876
 30      0.0000     0.0000E+00    0.0000E+00    2.500000E+09  0.00800  7.872E-05    0   0.5600   age150_m52            0.0000     8.1562E-01     6.3617  -0.6297   102.4292
 31      0.0000     0.0000E+00    0.0000E+00    4.250000E+09  0.00800  4.336E-05    0   0.5426   age158_m52            0.0000     8.3738E-01     6.4426  -0.6443   101.4255
 32      0.0000     0.0000E+00    0.0000E+00    6.250000E+09  0.00800  3.159E-05    0   0.5319   age166_m52            0.0000     1.0156E+00     7.0714  -0.8483   101.5739
 33      0.0000     0.0000E+00    0.0000E+00    1.300000E+10  0.00800  1.361E-05    0   0.5073   age193_m52            0.0000     1.6826E+00     8.3531  -1.0000    89.6404
 34      0.0000     0.0000E+00    0.0000E+00    1.800000E+10  0.00800  9.886E-06    0   0.4990   age213_m52            0.0000     2.1996E+00     9.5563  -1.0000    85.4613
 35      0.0000     0.0000E+00    0.0000E+00    1.000000E+06  0.02000  1.544E-02    0   1.0000   age020_m62            0.0000     8.7880E-01     6.7729   2.8389    86.4798
 36      5.6257     1.0930E-02    2.0384E-02    3.160000E+06  0.02000  3.762E-02    0   0.9858   age045_m62            0.0000     8.6700E-01     6.7345   2.7767    87.3105
 37      4.1906     9.2929E-03    1.6424E-02    5.010000E+06  0.02000  3.296E-02    0   0.9342   age055_m62            0.0000     7.4392E-01     6.2168   2.3835    91.6333
 38      0.0000     0.0000E+00    0.0000E+00    8.710000E+06  0.02000  1.154E-02    0   0.8861   age067_m62            0.0000     1.0822E+00     7.7727   1.3985    96.3533
 39      0.0065     6.1634E-05    9.8785E-05    1.445000E+07  0.02000  7.663E-03    0   0.8472   age078_m62            0.0000     7.4044E-01     6.1672   1.5817    96.5613
 40      0.0000     0.0000E+00    0.0000E+00    2.512000E+07  0.02000  4.532E-03    0   0.8099   age090_m62            0.0000     7.7974E-01     6.3336   1.5749    96.2630
 41      0.0000     0.0000E+00    0.0000E+00    5.500000E+07  0.02000  2.733E-03    0   0.7595   age110_m62            0.0000     6.7344E-01     5.6560   1.5735    96.8377
 42      0.0000     0.0000E+00    0.0000E+00    1.609000E+08  0.02000  1.369E-03    0   0.6985   age120_m62            0.0000     7.6810E-01     5.7973   1.4005   100.0870
 43      6.8344     5.5423E-01    7.0397E-01    2.861200E+08  0.02000  9.013E-04    0   0.6714   age125_m62            0.0000     8.8227E-01     6.0189   1.1414   103.3985
 44      0.0000     0.0000E+00    0.0000E+00    5.088000E+08  0.02000  5.028E-04    0   0.6449   age130_m62            0.0000     9.5487E-01     6.2908   0.7531   106.7709
 45      0.0000     0.0000E+00    0.0000E+00    9.047900E+08  0.02000  2.428E-04    0   0.6179   age135_m62            0.0000     8.2180E-01     6.1027   0.1607   106.5851
 46      0.0000     0.0000E+00    0.0000E+00    1.434000E+09  0.02000  1.263E-04    0   0.5908   age139_m62            0.0000     8.1587E-01     6.2545  -0.2829   105.0601
 47      0.0000     0.0000E+00    0.0000E+00    2.500000E+09  0.02000  5.985E-05    0   0.5673   age150_m62            0.0000     9.9128E-01     7.0385  -0.6491   103.7122
 48      0.0000     0.0000E+00    0.0000E+00    4.250000E+09  0.02000  3.271E-05    0   0.5468   age158_m62            0.0000     1.2908E+00     8.0401  -0.9543   102.9366
 49      0.0000     0.0000E+00    0.0000E+00    1.000000E+10  0.02000  1.360E-05    0   0.5167   age181_m62            0.0000     2.0882E+00     9.3395  -1.0000    91.5594
 50      0.0000     0.0000E+00    0.0000E+00    1.800000E+10  0.02000  7.124E-06    0   0.5013   age213_m62            0.0000     3.0120E+00    11.1976  -1.0000    83.4836
 51      6.9841     1.9694E-02    3.7251E-02    1.000000E+06  0.05000  2.592E-02    0   0.9998   age020_m72            0.0000     8.9445E-01     6.8158   2.8329    86.4078
 52      8.4541     1.2754E-02    2.3107E-02    3.160000E+06  0.05000  4.845E-02    0   0.9577   age045_m72            0.0000     8.1551E-01     6.5462   2.6525    88.7689
 53      0.0000     0.0000E+00    0.0000E+00    5.010000E+06  0.05000  3.072E-02    0   0.9147   age055_m72            0.0000     7.5770E-01     6.1998   2.1774    92.6298
 54      1.0334     5.1912E-03    8.7180E-03    6.610000E+06  0.05000  1.455E-02    0   0.8877   age061_m72            0.0000     1.5256E+00     9.6834   1.4671    96.6879
 55      0.0013     1.0591E-05    1.7079E-05    1.000000E+07  0.05000  9.074E-03    0   0.8524   age070_m72            0.0000     8.4273E-01     6.6622   2.3747    92.0906
 56      0.0000     0.0000E+00    0.0000E+00    2.512000E+07  0.05000  4.250E-03    0   0.7902   age090_m72            0.0000     7.7341E-01     6.2990   2.0568    94.3448
 57      0.0000     0.0000E+00    0.0000E+00    4.000000E+07  0.05000  3.087E-03    0   0.7618   age104_m72            0.0000     7.8173E-01     6.3256   1.8248    96.1062
 58      0.0000     0.0000E+00    0.0000E+00    1.015200E+08  0.05000  1.700E-03    0   0.7096   age116_m72            0.0000     7.6399E-01     5.8445   1.5476    99.4808
 59      0.0000     0.0000E+00    0.0000E+00    2.861200E+08  0.05000  7.384E-04    0   0.6633   age125_m72            0.0000     9.3162E-01     6.1495   1.0039   105.1166
 60      0.0000     0.0000E+00    0.0000E+00    5.088000E+08  0.05000  3.819E-04    0   0.6372   age130_m72            0.0000     8.8112E-01     6.1782   0.4996   107.4989
 61      0.0189     8.2485E-03    9.5345E-03    9.047900E+08  0.05000  1.676E-04    0   0.6110   age135_m72            0.0000     9.7445E-01     6.9744  -0.1993   105.9042
 62      0.0000     0.0000E+00    0.0000E+00    1.434000E+09  0.05000  8.837E-05    0   0.5874   age139_m72            0.0000     1.0726E+00     7.2875  -0.6517   105.3583
 63      0.0000     0.0000E+00    0.0000E+00    2.500000E+09  0.05000  4.233E-05    0   0.5598   age150_m72            0.0000     1.4147E+00     8.4337  -0.9560   103.8953
 64      0.0000     0.0000E+00    0.0000E+00    6.250000E+09  0.05000  1.435E-05    0   0.5249   age166_m72            0.0000     2.4128E+00    10.1074  -1.0000    87.7790
 65      0.0000     0.0000E+00    0.0000E+00    1.300000E+10  0.05000  6.513E-06    0   0.5036   age193_m72            0.0000     3.8055E+00    12.8316  -1.0000    78.8906
 66      0.0000     0.0000E+00    0.0000E+00    1.800000E+10  0.05000  4.527E-06    0   0.4945   age213_m72            0.0000     4.7555E+00    14.5468  -1.0000    73.4257


## Synthesis Results - Average & Chains ##

# j      x_j: min, <> & last-chain-values for 1 ...  7 chains
  1      0.0000      0.2502      0.0000      0.0000      0.7317      0.0000      0.0000      0.0000      0.1960
  2      0.0000      0.3400      0.0000      0.0000      0.0000      0.0000      0.0000      0.1579      1.2327
  3      0.0000      0.4053      2.4638      0.0000      0.0000      0.0000      2.2389      0.2435      0.0000
  4      0.0000      0.3108      0.0000      0.2634      0.0000      0.0000      0.0000      0.0000      0.0000
  5      0.0000      0.4447      0.0000      0.0000      0.0000      0.0000      0.0000      1.4041      1.6062
  6      0.0000      0.3797      0.0000      0.0334      0.0000      0.0000      0.0000      0.0000      0.4351
  7      0.0000      0.6950      0.0000      0.0000      0.0000      0.0000      0.0000      0.0000      0.0000
  8      0.0000      0.4695      0.0000      0.0000      0.5148      0.0000      0.0000      0.0000      0.0000
  9      0.0000      0.6901      0.0000      0.0000      0.0000      0.0000      0.0000      0.0000      0.7108
 10      0.0000      0.3390      0.0000      0.0000      0.0000      0.0000      0.0000      0.0000      0.2896
 11      0.0000      1.1391      1.8392      0.0000      0.3535      0.1018      1.0119      0.3308      0.0000
 12      0.0000      0.7928      0.0000      2.3503      0.0000      0.0000      1.4250      1.9990      0.0000
 13      5.6417      2.8709      1.1686      4.3629      0.0000      0.0000      1.7101      2.5208     11.5052
 14     38.0579     13.2175     10.9433     19.3277     13.7567     16.9718     13.7959     16.0385     18.8576
 15     18.8804     11.7312     15.0773     15.4116     12.5481     15.7475     15.0386     13.1360     14.3548
 16      0.0069      5.5989      7.8655      5.5448      6.5186      5.6257      5.1537      6.0674      6.0576
 17      2.2746      2.7699      3.2995      0.0000      3.4021      2.8649      2.8287      3.2357      1.4185
 18      0.0000      0.4510      0.0000      0.0059      0.2909      0.5258      2.3277      0.0001      0.0000
 19      0.3424      3.1354      4.9467      5.3282      2.9030      6.4850      2.8238      3.5900      3.3724
 20      0.0000      1.0258      0.0000      0.0000      2.2042      0.4908      0.0000      0.2340      2.6625
 21      0.0000      1.5701      0.4110      4.4898      0.0000      1.0006      0.0000      0.0000      2.3757
 22      1.2223      0.6305      0.7350      1.5136      0.9923      1.2766      0.0000      0.7697      1.3439
 23      0.0000      0.3526      2.1704      0.2108      0.0000      0.0000      1.6611      2.7349      0.2104
 24      0.3074      0.6340      1.8593      0.1280      0.0000      0.0000      0.0000      0.0000      1.3849
 25      0.0000      0.5306      0.0000      0.0000      0.0000      0.0000      1.0242      0.0000      0.2929
 26      0.0000      0.4267      0.0000      0.0000      0.0000      0.1446      0.0000      0.0000      0.1333
 27      0.0000      1.1135      1.1277      1.9346      4.2319      0.0000      2.8128      1.1734      0.0000
 28      0.0078      1.6500     10.0967      1.1948      4.1272      0.0000      1.7345      1.1849      1.2918
 29      0.0046      1.6986      0.5844      0.0000      3.6884      0.0000      0.3127      0.6458      2.2114
 30      0.0000      2.2143      5.2865      1.1259      0.7029      1.0927      1.4441      2.8251      0.0000
 31      0.0000      1.7438      0.0382      0.0000      3.9370      0.0000      0.0000      1.9464      0.0000
 32      0.0000      0.3874      0.0000      0.0000      0.6292      0.0000      0.4760      0.0000      0.0000
 33      0.0000      0.1023      0.0000      0.0000      0.0000      0.5316      0.0000      0.0000      0.0000
 34      0.0000      0.2450      0.0000      1.7871      0.1244      0.0000      0.0000      0.0000      0.0000
 35      0.0000      0.4303      0.0000      0.0000      0.0000      1.2628      0.0000      0.5792      0.0000
 36      5.6257      3.7672      3.6537      4.2363      4.2506      4.2922      3.7833      3.3371      4.9139
 37      4.1906      0.5740      0.0000      0.3666      0.5292      0.4516      0.7328      2.0694      1.6605
 38      0.0000      0.7487      2.4975      1.3380      0.0000      1.1279      0.0000      0.0280      0.0000
 39      0.0065      1.3187      1.3306      0.0000      2.4393      0.0000      0.9675      0.0000      2.0445
 40      0.0000      0.7784      0.0000      0.7608      0.0000      0.0000      0.0000      0.0000      0.0000
 41      0.0000      0.9607      0.0000      0.1374      1.6805      1.9628      0.0000      0.0000      0.0061
 42      0.0000      0.7189      0.0000      4.3515      1.6574      0.0000      1.2740      1.0779      0.0000
 43      6.8344      0.4951      0.0000      0.4422      0.0000      0.9258      0.0000      2.4146      0.9210
 44      0.0000      0.8327      0.0000      0.0000      0.0000      0.0822      0.0000      0.0000      0.0000
 45      0.0000      1.7254      3.2560      0.6234      3.3293      1.5002      0.0000      0.8833      0.0000
 46      0.0000      2.2603      0.0000      0.0000      0.9119      4.3392      0.0000      5.7664      2.6369
