###################################################################
## OUTPUT of StarlightChains_v04.for    [Cid@UFSC - 01/Apr/2007] ##
###################################################################

## Some input info
2005la.txt                               [arq_obs]
Base.CB07.vall.4m                        [arq_base]
Masks.EmLines.NEW.gm                     [arq_masks]
StCv04.C11.config                        [arq_config]
   66                                    [N_base]
    0                                    [N_YAV_components = # of components with extra extinction!]
    0                                    [i_FitPowerLaw (1/0 = Yes/No)]
-9.99                                    [alpha_PowerLaw]
CCM                                      [red_law_option]
 1.458241                                [q_norm = A(l_norm)/A(V)]

## (Re)Sampling Parameters
 3741.00                                 [l_ini (A)]
 7218.00                                 [l_fin (A)]
    1.00                                 [dl    (A)]     (OBS: dl_cushion =    50.00 A)

## Normalization info
 4020.00                                 [l_norm (A) - for base]
 4010.00                                 [llow_norm (A) - window for f_obs]
 4060.00                                 [lupp_norm (A) - window for f_obs]
4.559150E-17                             [fobs_norm (in input units)]

## S/N
 3691.00                                 [llow_SN (A) - window for S/N]
 7268.00                                 [lupp_SN (A) - window for S/N]
   2.456                                 [S/N in S/N window]
   4.298                                 [S/N in norm. window]
   5.696                                 [S/N_err in S/N window]
   9.967                                 [S/N_err in norm. window]
  1.0000                                 [fscale_chi2]

## etc...
    -2007308                             [idum_orig]
  2384                                   [NOl_eff]
  2348                                   [Nl_eff]
    36    NSIGMA                         [Ntot_cliped & clip_method]
   698320                                [Nglobal_steps]
   7                                     [N_chains]
  13                                     [NEX0s_base = N_base in EX0s-fits]
 0   0   1       44   2.0   2.053E+01    [Clip-Bug, RC-Crash & Burn-In warning-flags, n_censored_weights, wei_nsig_threshold & wei_limit]
    10      9.372      8.873      0.500  [idt_all, wdt_TotTime, wdt_UsrTime & wdt_SysTime (sec)]

## Synthesis Results - Best model ##

 5.66686E-01                             [chi2/Nl_eff]
     9.43062                             [adev (%)]

   100.47660                             [sum-of-x (%)]
 2.60005E-17                             [Flux_tot (units of input spectrum!)]
 5.45795E-14                             [Mini_tot (???)]
 3.00458E-14                             [Mcor_tot (???)]

 -67.70                                  [v0_min  (km/s)]
  88.02                                  [vd_min  (km/s)]
-0.4217                                  [AV_min  (mag)]
 0.0000                                  [YAV_min (mag)]

# j     x_j(%)      Mini_j(%)     Mcor_j(%)     age_j(yr)     Z_j      (L/M)_j    YAV?  Mstars   component_j        a/Fe...       SSP_chi2r SSP_adev(%)   SSP_AV   SSP_x(%)
  1      0.0000     0.0000E+00    0.0000E+00    1.000000E+06  0.00400  1.094E-02    0   1.0000   age020_m42            0.0000     6.9690E-01     9.9759   1.3629    89.8288
  2      0.0000     0.0000E+00    0.0000E+00    3.160000E+06  0.00400  4.007E-02    0   0.9999   age045_m42            0.0000     6.2712E-01     9.8014   0.6001    97.5711
  3      0.0000     0.0000E+00    0.0000E+00    5.010000E+06  0.00400  2.539E-02    0   0.9488   age055_m42            0.0000     6.2641E-01     9.7947   0.9350    94.5625
  4      0.0000     0.0000E+00    0.0000E+00    6.610000E+06  0.00400  2.620E-02    0   0.9220   age061_m42            0.0000     6.2327E-01     9.7499   0.5279    97.7447
  5      0.0000     0.0000E+00    0.0000E+00    1.000000E+07  0.00400  1.322E-02    0   0.8862   age070_m42            0.0000     5.8993E-01     9.5085   0.2857    98.1607
  6      0.0000     0.0000E+00    0.0000E+00    1.445000E+07  0.00400  7.883E-03    0   0.8571   age078_m42            0.0000     5.9556E-01     9.5353   0.6155    95.5851
  7      0.0000     0.0000E+00    0.0000E+00    2.512000E+07  0.00400  5.251E-03    0   0.8174   age090_m42            0.0000     5.8935E-01     9.4926   0.1594    98.5506
  8      0.0000     0.0000E+00    0.0000E+00    4.000000E+07  0.00400  3.649E-03    0   0.7851   age104_m42            0.0000     5.9325E-01     9.5012  -0.0785    99.8131
  9      0.0000     0.0000E+00    0.0000E+00    5.500000E+07  0.00400  3.098E-03    0   0.7629   age110_m42            0.0000     6.3327E-01     9.6373   0.0530   100.7991
 10      0.0000     0.0000E+00    0.0000E+00    1.015200E+08  0.00400  2.228E-03    0   0.7207   age116_m42            0.0000     6.8482E-01     9.7750   0.0586   101.5975
 11      0.0000     0.0000E+00    0.0000E+00    2.861200E+08  0.00400  1.093E-03    0   0.6648   age125_m42            0.0000     7.2873E-01     9.8624  -0.5008   104.1798
 12      0.0000     0.0000E+00    0.0000E+00    5.088000E+08  0.00400  6.597E-04    0   0.6365   age130_m42            0.0000     8.2431E-01    10.1323  -0.5348   106.0840
 13      0.0000     0.0000E+00    0.0000E+00    1.434000E+09  0.00400  2.132E-04    0   0.5798   age139_m42            0.0000     1.3978E+00    13.6704  -1.0000    92.4127
 14     11.8410     9.5234E+01    9.3021E+01    4.250000E+09  0.00400  5.895E-05    0   0.5377   age158_m42            0.0000     2.6456E+00    18.9860  -1.0000    74.9740
 15      0.0000     0.0000E+00    0.0000E+00    7.500000E+09  0.00400  3.510E-05    0   0.5212   age171_m42            0.0000     3.4111E+00    21.2886  -1.0000    68.6889
 16      0.0000     0.0000E+00    0.0000E+00    1.300000E+10  0.00400  2.005E-05    0   0.5034   age193_m42            0.0000     4.1350E+00    23.2064  -1.0000    63.4055
 17      0.0000     0.0000E+00    0.0000E+00    1.800000E+10  0.00400  1.525E-05    0   0.4967   age213_m42            0.0000     4.2106E+00    23.4616  -1.0000    62.4357
 18      0.0000     0.0000E+00    0.0000E+00    1.000000E+06  0.00800  1.238E-02    0   1.0000   age020_m52            0.0000     6.9757E-01     9.9801   1.3579    90.0454
 19      0.0000     0.0000E+00    0.0000E+00    3.160000E+06  0.00800  3.074E-02    0   0.9966   age045_m52            0.0000     6.7793E-01     9.9476   1.2748    91.0974
 20      0.0811     1.4403E-03    2.4707E-03    5.010000E+06  0.00800  2.668E-02    0   0.9443   age055_m52            0.0000     6.2810E-01     9.7765   1.0219    93.5433
 21     59.2023     1.3141E+00    2.1906E+00    6.610000E+06  0.00800  2.136E-02    0   0.9177   age061_m52            0.0000     5.7234E-01     9.4537  -0.2155    99.2766
 22      0.0000     0.0000E+00    0.0000E+00    1.000000E+07  0.00800  1.215E-02    0   0.8827   age070_m52            0.0000     5.8685E-01     9.5067   0.4785    97.3926
 23      4.3618     2.3724E-01    3.6855E-01    1.445000E+07  0.00800  8.717E-03    0   0.8552   age078_m52            0.0000     5.8956E-01     9.4992   0.5785    96.9918
 24     12.0249     1.0195E+00    1.5116E+00    2.512000E+07  0.00800  5.592E-03    0   0.8162   age090_m52            0.0000     5.8996E-01     9.4979   0.2214    99.7961
 25      0.0000     0.0000E+00    0.0000E+00    4.000000E+07  0.00800  3.896E-03    0   0.7841   age104_m52            0.0000     6.0377E-01     9.5406   0.1198   101.2144
 26      0.0000     0.0000E+00    0.0000E+00    1.015200E+08  0.00800  2.148E-03    0   0.7226   age116_m52            0.0000     6.4668E-01     9.6372   0.0356   102.0113
 27      0.0000     0.0000E+00    0.0000E+00    2.861200E+08  0.00800  9.925E-04    0   0.6683   age125_m52            0.0000     8.2132E-01    10.0729  -0.4709   107.1594
 28      0.0000     0.0000E+00    0.0000E+00    9.047900E+08  0.00800  3.141E-04    0   0.6138   age135_m52            0.0000     1.1463E+00    11.8202  -1.0000   103.6244
 29      0.0000     0.0000E+00    0.0000E+00    1.434000E+09  0.00800  1.719E-04    0   0.5853   age139_m52            0.0000     2.3779E+00    17.8740  -1.0000    82.0161
 30      0.0000     0.0000E+00    0.0000E+00    2.500000E+09  0.00800  7.872E-05    0   0.5600   age150_m52            0.0000     3.4439E+00    21.1467  -1.0000    71.2949
 31      0.0000     0.0000E+00    0.0000E+00    4.250000E+09  0.00800  4.336E-05    0   0.5426   age158_m52            0.0000     3.5087E+00    21.3041  -1.0000    70.1521
 32      0.0000     0.0000E+00    0.0000E+00    6.250000E+09  0.00800  3.159E-05    0   0.5319   age166_m52            0.0000     4.4580E+00    23.5498  -1.0000    63.9644
 33      0.0000     0.0000E+00    0.0000E+00    1.300000E+10  0.00800  1.361E-05    0   0.5073   age193_m52            0.0000     6.6403E+00    28.2087  -1.0000    50.5177
 34      0.0000     0.0000E+00    0.0000E+00    1.800000E+10  0.00800  9.886E-06    0   0.4990   age213_m52            0.0000     7.2418E+00    29.0515  -1.0000    47.5784
 35      0.0000     0.0000E+00    0.0000E+00    1.000000E+06  0.02000  1.544E-02    0   1.0000   age020_m62            0.0000     6.9977E-01     9.9944   1.3556    90.2015
 36      0.0000     0.0000E+00    0.0000E+00    3.160000E+06  0.02000  3.762E-02    0   0.9858   age045_m62            0.0000     6.8662E-01     9.9919   1.2890    91.2176
 37      0.0000     0.0000E+00    0.0000E+00    5.010000E+06  0.02000  3.296E-02    0   0.9342   age055_m62            0.0000     6.2183E-01     9.8044   0.8819    96.2768
 38      5.9821     2.4577E-01    3.9561E-01    8.710000E+06  0.02000  1.154E-02    0   0.8861   age067_m62            0.0000     6.9729E-01    10.4731   0.0068    96.6604
 39      0.0000     0.0000E+00    0.0000E+00    1.445000E+07  0.02000  7.663E-03    0   0.8472   age078_m62            0.0000     5.9647E-01     9.6278   0.1469    98.6666
 40      0.0000     0.0000E+00    0.0000E+00    2.512000E+07  0.02000  4.532E-03    0   0.8099   age090_m62            0.0000     6.0453E-01     9.7110   0.1397    98.3649
 41      0.0000     0.0000E+00    0.0000E+00    5.500000E+07  0.02000  2.733E-03    0   0.7595   age110_m62            0.0000     6.0318E-01     9.5303   0.1056   100.3106
 42      0.0000     0.0000E+00    0.0000E+00    1.609000E+08  0.02000  1.369E-03    0   0.6985   age120_m62            0.0000     7.4396E-01     9.8457  -0.0916   104.6494
 43      0.0000     0.0000E+00    0.0000E+00    2.861200E+08  0.02000  9.013E-04    0   0.6714   age125_m62            0.0000     8.9647E-01    10.2163  -0.3638   108.6124
 44      0.0000     0.0000E+00    0.0000E+00    5.088000E+08  0.02000  5.028E-04    0   0.6449   age130_m62            0.0000     1.0254E+00    10.8737  -0.7845   113.5765
 45      0.0000     0.0000E+00    0.0000E+00    9.047900E+08  0.02000  2.428E-04    0   0.6179   age135_m62            0.0000     1.2561E+00    12.4774  -1.0000   101.1919
 46      0.0000     0.0000E+00    0.0000E+00    1.434000E+09  0.02000  1.263E-04    0   0.5908   age139_m62            0.0000     2.2766E+00    17.1025  -1.0000    84.7234
 47      0.0000     0.0000E+00    0.0000E+00    2.500000E+09  0.02000  5.985E-05    0   0.5673   age150_m62            0.0000     3.6747E+00    21.4020  -1.0000    71.6177
 48      0.0000     0.0000E+00    0.0000E+00    4.250000E+09  0.02000  3.271E-05    0   0.5468   age158_m62            0.0000     5.1092E+00    24.6129  -1.0000    61.6459
 49      0.0000     0.0000E+00    0.0000E+00    1.000000E+10  0.02000  1.360E-05    0   0.5167   age181_m62            0.0000     6.8690E+00    27.8140  -1.0000    51.6798
 50      0.0000     0.0000E+00    0.0000E+00    1.800000E+10  0.02000  7.124E-06    0   0.5013   age213_m62            0.0000     7.9495E+00    29.5245  -1.0000    46.0366
 51      0.0000     0.0000E+00    0.0000E+00    1.000000E+06  0.05000  2.592E-02    0   0.9998   age020_m72            0.0000     7.1539E-01    10.0192   1.3511    90.0527
 52      0.0000     0.0000E+00    0.0000E+00    3.160000E+06  0.05000  4.845E-02    0   0.9577   age045_m72            0.0000     6.4914E-01     9.9251   1.1560    93.0810
 53      0.0000     0.0000E+00    0.0000E+00    5.010000E+06  0.05000  3.072E-02    0   0.9147   age055_m72            0.0000     6.1766E-01     9.6693   0.7198    95.5684
 54      0.0000     0.0000E+00    0.0000E+00    6.610000E+06  0.05000  1.455E-02    0   0.8877   age061_m72            0.0000     8.5904E-01    12.0096   0.0896    96.1972
 55      0.0000     0.0000E+00    0.0000E+00    1.000000E+07  0.05000  9.074E-03    0   0.8524   age070_m72            0.0000     6.5191E-01     9.9970   0.9093    95.2383
 56      0.0000     0.0000E+00    0.0000E+00    2.512000E+07  0.05000  4.250E-03    0   0.7902   age090_m72            0.0000     6.1863E-01     9.7638   0.5905    97.6678
 57      0.0000     0.0000E+00    0.0000E+00    4.000000E+07  0.05000  3.087E-03    0   0.7618   age104_m72            0.0000     6.3137E-01     9.8298   0.3611    99.3096
 58      6.9834     1.9476E+00    2.5105E+00    1.015200E+08  0.05000  1.700E-03    0   0.7096   age116_m72            0.0000     7.1343E-01     9.7628   0.0652   103.5881
 59      0.0000     0.0000E+00    0.0000E+00    2.861200E+08  0.05000  7.384E-04    0   0.6633   age125_m72            0.0000     9.6948E-01    10.5125  -0.5217   111.3351
 60      0.0000     0.0000E+00    0.0000E+00    5.088000E+08  0.05000  3.819E-04    0   0.6372   age130_m72            0.0000     9.8036E-01    10.9735  -1.0000   113.3971
 61      0.0000     0.0000E+00    0.0000E+00    9.047900E+08  0.05000  1.676E-04    0   0.6110   age135_m72            0.0000     2.1876E+00    16.4401  -1.0000    88.4277
 62      0.0000     0.0000E+00    0.0000E+00    1.434000E+09  0.05000  8.837E-05    0   0.5874   age139_m72            0.0000     3.7752E+00    21.5042  -1.0000    72.6218
 63      0.0000     0.0000E+00    0.0000E+00    2.500000E+09  0.05000  4.233E-05    0   0.5598   age150_m72            0.0000     5.2195E+00    24.6443  -1.0000    62.1547
 64      0.0000     0.0000E+00    0.0000E+00    6.250000E+09  0.05000  1.435E-05    0   0.5249   age166_m72            0.0000     7.3456E+00    28.6778  -1.0000    48.9812
 65      0.0000     0.0000E+00    0.0000E+00    1.300000E+10  0.05000  6.513E-06    0   0.5036   age193_m72            0.0000     8.7369E+00    30.9074  -1.0000    42.7334
 66      0.0000     0.0000E+00    0.0000E+00    1.800000E+10  0.05000  4.527E-06    0   0.4945   age213_m72            0.0000     9.5041E+00    32.0920  -1.0000    39.1547


## Synthesis Results - Average & Chains ##

# j      x_j: min, <> & last-chain-values for 1 ...  7 chains
  1      0.0000      0.5630      0.0000      0.0000      0.0000      0.0000      0.0000      0.0000      0.0000
  2      0.0000      1.0151      0.0000      0.0000      0.5006      0.0000      0.0000      0.0861      0.0000
  3      0.0000      0.3584      0.0000      0.0000      0.0000      0.0000      0.0000      0.0000      0.2561
  4      0.0000      0.7376      0.0000      0.0000      0.0000      0.0000      6.4191      0.0000      1.4155
  5      0.0000      2.0164      8.5941      1.6697      2.7258      0.0000      0.0000      0.0000      0.0000
  6      0.0000      1.2871      0.0000      3.2183      3.1205      0.3404      0.0000      5.3441      0.0000
  7      0.0000      1.5847      0.0000     14.2340      0.0000      0.9047      0.0000      3.6691      1.0792
  8      0.0000      3.4931      0.2614      2.3149      0.4712      3.1947      0.0000      1.0085      0.0000
  9      0.0000      1.1244      0.0000      0.0000      0.0000      0.0000      0.0000      0.0000     10.8022
 10      0.0000      1.4309      0.0000      0.0000      0.5996      0.0000      0.0000      0.0000      0.0000
 11      0.0000      1.1572      0.0000      2.2121      0.0000      0.0000      0.0000      0.0000      1.5982
 12      0.0000      0.7271      0.0000      0.7344      0.0000      0.0000      1.3762      0.0000      0.0000
 13      0.0000      0.1225      1.2080      0.0000      0.0000      0.0000      0.0000      0.0000      0.0000
 14     11.8410      0.3880      0.0000      3.0335      0.8850      0.0977      1.4821      0.0000      0.0000
 15      0.0000      0.0731      0.0000      0.0000      0.0000      0.0000      0.0000      0.0000      0.0000
 16      0.0000      0.0519      0.0000      0.0000      0.3945      0.0000      0.0000      0.0000      0.0000
 17      0.0000      0.0153      0.0000      0.0000      0.0000      0.0000      0.0000      0.0000      0.3230
 18      0.0000      0.4061      0.0000      1.3121      0.0000      1.0905      0.0000      0.0000      0.0000
 19      0.0000      0.2380      0.4848      0.0000      0.0000      0.0000      0.0000      0.0000      0.0000
 20      0.0811      0.4897      0.5784      0.0000      0.0000      1.7722      6.9243      4.0434      2.0584
 21     59.2023     39.9454     45.5858     48.0858     48.8600     51.0872     52.1487     41.0557     44.8077
 22      0.0000      0.6049      1.5930      2.0855      0.0000      0.0000      0.0000      0.0000      0.0000
 23      4.3618      1.0828      5.1282      0.0000      3.8409      5.4452      2.9657      0.0000      0.0000
 24     12.0249      1.4612      1.7033      0.7407      0.0000      0.0000      6.7111      0.0000      0.0000
 25      0.0000      2.6709      0.0000      0.0000      0.0000      4.1803      0.0000      0.0000      0.0000
 26      0.0000      2.3433      5.4129      3.8906      1.3236      1.6126      0.0000      0.5160      0.0000
 27      0.0000      2.1140      0.0000      0.0000      1.6547      0.0000      0.0000      8.6647      0.0000
 28      0.0000      0.8047      1.9714      0.5919      2.2078      2.8047      2.9377      0.0000      2.3237
 29      0.0000      0.1386      0.0000      0.0000      0.3357      1.2185      0.0000      0.0000      0.0000
 30      0.0000      0.0894      1.2000      0.0000      0.0000      0.0000      0.0000      0.0000      0.0000
 31      0.0000      0.1176      0.0000      0.0724      0.0000      0.0000      0.0000      0.3984      0.2703
 32      0.0000      0.0940      0.0000      0.0000      0.0000      0.0000      0.0000      0.1186      0.0000
 33      0.0000      0.0287      0.0000      0.0000      0.0000      0.0000      0.0000      0.3016      0.0000
 34      0.0000      0.0189      0.0000      0.0000      0.0000      0.0000      0.0000      0.0000      0.0000
 35      0.0000      0.3203      2.5233      0.4632      0.0000      0.0000      0.0000      1.4017      0.8389
 36      0.0000      0.4226      0.8226      2.1411      0.0000      0.0000      0.0000      0.0000      0.0000
 37      0.0000      1.2493      3.0910      0.0000      0.0000      2.4874      0.0000      7.0847      0.0000
 38      5.9821      7.0181      6.8103      4.7479      0.0380      8.5419      8.1184     10.6174      8.0796
 39      0.0000      4.6252      7.3583      4.7093     11.7166      4.2082      0.0000      3.1881      8.3946
 40      0.0000      2.9738      0.0000      0.0000     10.2683      0.0000      2.3930      0.0939      0.0000
 41      0.0000      2.7088      0.0000      0.0000      0.0000      2.2008      0.0000      0.0000     10.1977
 42      0.0000      0.7267      0.3080      0.0000      0.9766      1.5823      0.6324      0.0000      0.0000
 43      0.0000      0.9842      2.1139      0.2391      0.8976      0.0000      2.9133      0.0000      0.0000
 44      0.0000      1.0406      1.4273      0.0000      0.0000      0.0000      0.0000      1.2030      0.0000
 45      0.0000      0.4541      0.0000      0.0000      0.0000      0.0000      0.0000      2.2070      2.1161
 46      0.0000      0.1679      0.0000      0.0000      0.0000      0.0000      0.0000      0.2185      0.0000
