###################################################################
## OUTPUT of StarlightChains_v04.for    [Cid@UFSC - 01/Apr/2007] ##
###################################################################

## Some input info
2005kc.txt                               [arq_obs]
Base.CB07.vall.4m                        [arq_base]
Masks.EmLines.NEW.gm                     [arq_masks]
StCv04.C11.config                        [arq_config]
   66                                    [N_base]
    0                                    [N_YAV_components = # of components with extra extinction!]
    0                                    [i_FitPowerLaw (1/0 = Yes/No)]
-9.99                                    [alpha_PowerLaw]
CCM                                      [red_law_option]
 1.458241                                [q_norm = A(l_norm)/A(V)]

## (Re)Sampling Parameters
 3741.00                                 [l_ini (A)]
 7218.00                                 [l_fin (A)]
    1.00                                 [dl    (A)]     (OBS: dl_cushion =    50.00 A)

## Normalization info
 4020.00                                 [l_norm (A) - for base]
 4010.00                                 [llow_norm (A) - window for f_obs]
 4060.00                                 [lupp_norm (A) - window for f_obs]
2.041645E-16                             [fobs_norm (in input units)]

## S/N
 3691.00                                 [llow_SN (A) - window for S/N]
 7268.00                                 [lupp_SN (A) - window for S/N]
   7.211                                 [S/N in S/N window]
   6.061                                 [S/N in norm. window]
  20.015                                 [S/N_err in S/N window]
  16.824                                 [S/N_err in norm. window]
  1.0000                                 [fscale_chi2]

## etc...
    -2007305                             [idum_orig]
  2385                                   [NOl_eff]
  2371                                   [Nl_eff]
    14    NSIGMA                         [Ntot_cliped & clip_method]
  2259950                                [Nglobal_steps]
   7                                     [N_chains]
  35                                     [NEX0s_base = N_base in EX0s-fits]
 0   0   1        4   2.0   3.623E+01    [Clip-Bug, RC-Crash & Burn-In warning-flags, n_censored_weights, wei_nsig_threshold & wei_limit]
    21     20.814     20.315      0.499  [idt_all, wdt_TotTime, wdt_UsrTime & wdt_SysTime (sec)]

## Synthesis Results - Best model ##

 5.88870E-01                             [chi2/Nl_eff]
     3.06527                             [adev (%)]

   108.60413                             [sum-of-x (%)]
 4.71251E-16                             [Flux_tot (units of input spectrum!)]
 1.46664E-11                             [Mini_tot (???)]
 7.48177E-12                             [Mcor_tot (???)]

  22.65                                  [v0_min  (km/s)]
 210.35                                  [vd_min  (km/s)]
 0.5613                                  [AV_min  (mag)]
 0.0000                                  [YAV_min (mag)]

# j     x_j(%)      Mini_j(%)     Mcor_j(%)     age_j(yr)     Z_j      (L/M)_j    YAV?  Mstars   component_j        a/Fe...       SSP_chi2r SSP_adev(%)   SSP_AV   SSP_x(%)
  1      3.3215     8.9826E-03    1.7608E-02    1.000000E+06  0.00400  1.094E-02    0   1.0000   age020_m42            0.0000     2.5706E+00     5.8493   3.5921    88.9892
  2      0.0000     0.0000E+00    0.0000E+00    3.160000E+06  0.00400  4.007E-02    0   0.9999   age045_m42            0.0000     2.1777E+00     5.4501   2.8662    95.2386
  3      0.0002     2.8118E-07    5.2298E-07    5.010000E+06  0.00400  2.539E-02    0   0.9488   age055_m42            0.0000     2.2569E+00     5.5146   3.1811    93.0774
  4      0.0000     0.0000E+00    0.0000E+00    6.610000E+06  0.00400  2.620E-02    0   0.9220   age061_m42            0.0000     2.0122E+00     5.3048   2.7813    96.0069
  5      0.0000     0.0000E+00    0.0000E+00    1.000000E+07  0.00400  1.322E-02    0   0.8862   age070_m42            0.0000     1.5046E+00     4.5679   2.4168   102.1131
  6      0.0000     0.0000E+00    0.0000E+00    1.445000E+07  0.00400  7.883E-03    0   0.8571   age078_m42            0.0000     1.6720E+00     4.6723   2.7553    98.9408
  7      0.0000     0.0000E+00    0.0000E+00    2.512000E+07  0.00400  5.251E-03    0   0.8174   age090_m42            0.0000     1.4643E+00     4.5761   2.2697   103.5464
  8      0.0000     0.0000E+00    0.0000E+00    4.000000E+07  0.00400  3.649E-03    0   0.7851   age104_m42            0.0000     1.3921E+00     4.5222   2.0495   104.0626
  9      0.0000     0.0000E+00    0.0000E+00    5.500000E+07  0.00400  3.098E-03    0   0.7629   age110_m42            0.0000     1.5097E+00     4.7556   2.2409   102.1999
 10      0.0000     0.0000E+00    0.0000E+00    1.015200E+08  0.00400  2.228E-03    0   0.7207   age116_m42            0.0000     1.5859E+00     5.0108   2.2838   101.2953
 11      0.0000     0.0000E+00    0.0000E+00    2.861200E+08  0.00400  1.093E-03    0   0.6648   age125_m42            0.0000     1.4457E+00     5.0577   1.6918   105.7826
 12      0.0000     0.0000E+00    0.0000E+00    5.088000E+08  0.00400  6.597E-04    0   0.6365   age130_m42            0.0000     1.4199E+00     5.1133   1.7178   104.8072
 13      0.0000     0.0000E+00    0.0000E+00    1.434000E+09  0.00400  2.132E-04    0   0.5798   age139_m42            0.0000     8.9086E-01     4.2230   0.7512   106.6107
 14      0.0000     0.0000E+00    0.0000E+00    4.250000E+09  0.00400  5.895E-05    0   0.5377   age158_m42            0.0000     9.9092E-01     4.2879   0.3651    99.8375
 15      0.0000     0.0000E+00    0.0000E+00    7.500000E+09  0.00400  3.510E-05    0   0.5212   age171_m42            0.0000     1.0488E+00     4.5984   0.2023    98.0860
 16      0.0000     0.0000E+00    0.0000E+00    1.300000E+10  0.00400  2.005E-05    0   0.5034   age193_m42            0.0000     1.1552E+00     4.9921   0.0611    96.5590
 17      0.0000     0.0000E+00    0.0000E+00    1.800000E+10  0.00400  1.525E-05    0   0.4967   age213_m42            0.0000     1.1498E+00     4.9117   0.0312    96.4127
 18      0.0000     0.0000E+00    0.0000E+00    1.000000E+06  0.00800  1.238E-02    0   1.0000   age020_m52            0.0000     2.5650E+00     5.8561   3.5898    89.1039
 19      2.9858     2.8737E-03    5.6141E-03    3.160000E+06  0.00800  3.074E-02    0   0.9966   age045_m52            0.0000     2.5377E+00     5.8666   3.5144    89.8235
 20      1.0213     1.1325E-03    2.0964E-03    5.010000E+06  0.00800  2.668E-02    0   0.9443   age055_m52            0.0000     2.2309E+00     5.4927   3.2586    92.4397
 21      0.0000     0.0000E+00    0.0000E+00    6.610000E+06  0.00800  2.136E-02    0   0.9177   age061_m52            0.0000     1.2383E+00     4.0540   1.9194   103.0880
 22      2.4190     5.8904E-03    1.0192E-02    1.000000E+07  0.00800  1.215E-02    0   0.8827   age070_m52            0.0000     1.4606E+00     4.5508   2.5757   102.9533
 23      3.4237     1.1620E-02    1.9480E-02    1.445000E+07  0.00800  8.717E-03    0   0.8552   age078_m52            0.0000     1.5423E+00     4.5595   2.7146   100.6117
 24      0.5373     2.8427E-03    4.5483E-03    2.512000E+07  0.00800  5.592E-03    0   0.8162   age090_m52            0.0000     1.3376E+00     4.5028   2.3290   105.0741
 25      0.3906     2.9662E-03    4.5593E-03    4.000000E+07  0.00800  3.896E-03    0   0.7841   age104_m52            0.0000     1.3229E+00     4.5189   2.2601   105.0020
 26      0.0000     0.0000E+00    0.0000E+00    1.015200E+08  0.00800  2.148E-03    0   0.7226   age116_m52            0.0000     1.4190E+00     4.6803   2.2350   102.9824
 27      0.0000     0.0000E+00    0.0000E+00    2.861200E+08  0.00800  9.925E-04    0   0.6683   age125_m52            0.0000     1.2628E+00     4.9599   1.7796   105.9617
 28      0.0000     0.0000E+00    0.0000E+00    9.047900E+08  0.00800  3.141E-04    0   0.6138   age135_m52            0.0000     1.0245E+00     4.4923   1.0259   108.1593
 29      0.0000     0.0000E+00    0.0000E+00    1.434000E+09  0.00800  1.719E-04    0   0.5853   age139_m52            0.0000     8.9839E-01     4.1042   0.4499   105.7913
 30      0.0000     0.0000E+00    0.0000E+00    2.500000E+09  0.00800  7.872E-05    0   0.5600   age150_m52            0.0000     1.0354E+00     4.7471   0.2357   100.2883
 31      0.0000     0.0000E+00    0.0000E+00    4.250000E+09  0.00800  4.336E-05    0   0.5426   age158_m52            0.0000     1.0848E+00     4.8638   0.2240    99.1618
 32      0.0000     0.0000E+00    0.0000E+00    6.250000E+09  0.00800  3.159E-05    0   0.5319   age166_m52            0.0000     1.2780E+00     5.5269   0.0542    97.7272
 33      4.4846     9.7488E+00    9.6947E+00    1.300000E+10  0.00800  1.361E-05    0   0.5073   age193_m52            0.0000     1.5764E+00     6.3413  -0.3781    95.5308
 34      8.6449     2.5871E+01    2.5307E+01    1.800000E+10  0.00800  9.886E-06    0   0.4990   age213_m52            0.0000     1.9152E+00     7.1095  -0.4494    93.5077
 35      6.1155     1.1718E-02    2.2971E-02    1.000000E+06  0.02000  1.544E-02    0   1.0000   age020_m62            0.0000     2.5805E+00     5.8836   3.5861    89.2950
 36      1.2221     9.6109E-04    1.8573E-03    3.160000E+06  0.02000  3.762E-02    0   0.9858   age045_m62            0.0000     2.5928E+00     5.9343   3.5277    89.9661
 37      0.0031     2.8249E-06    5.1733E-06    5.010000E+06  0.02000  3.296E-02    0   0.9342   age055_m62            0.0000     2.1973E+00     5.5577   3.1504    93.8362
 38     16.2361     4.1625E-02    7.2304E-02    8.710000E+06  0.02000  1.154E-02    0   0.8861   age067_m62            0.0000     2.0431E+00     6.8077   1.8773   114.1134
 39      1.7672     6.8230E-03    1.1331E-02    1.445000E+07  0.02000  7.663E-03    0   0.8472   age078_m62            0.0000     1.4193E+00     4.8914   2.1774   107.8040
 40      4.7354     3.0914E-02    4.9080E-02    2.512000E+07  0.02000  4.532E-03    0   0.8099   age090_m62            0.0000     1.4961E+00     5.1080   2.1619   107.9886
 41      0.0000     0.0000E+00    0.0000E+00    5.500000E+07  0.02000  2.733E-03    0   0.7595   age110_m62            0.0000     1.2747E+00     4.4274   2.2409   104.3190
 42      0.0000     0.0000E+00    0.0000E+00    1.609000E+08  0.02000  1.369E-03    0   0.6985   age120_m62            0.0000     1.3324E+00     4.8661   2.1226   105.0573
 43      0.0000     0.0000E+00    0.0000E+00    2.861200E+08  0.02000  9.013E-04    0   0.6714   age125_m62            0.0000     1.3016E+00     5.1257   1.8892   107.2107
 44      0.0000     0.0000E+00    0.0000E+00    5.088000E+08  0.02000  5.028E-04    0   0.6449   age130_m62            0.0000     1.3348E+00     5.1881   1.5653   107.3464
 45      1.2020     1.4647E-01    1.7741E-01    9.047900E+08  0.02000  2.428E-04    0   0.6179   age135_m62            0.0000     1.0241E+00     4.5620   1.0053   105.5114
 46      0.0000     0.0000E+00    0.0000E+00    1.434000E+09  0.02000  1.263E-04    0   0.5908   age139_m62            0.0000     9.6859E-01     4.5875   0.5736   103.3532
 47      0.0011     5.2264E-04    5.8121E-04    2.500000E+09  0.02000  5.985E-05    0   0.5673   age150_m62            0.0000     1.2433E+00     5.4732   0.2531    99.7979
 48      4.2348     3.8303E+00    4.1056E+00    4.250000E+09  0.02000  3.271E-05    0   0.5468   age158_m62            0.0000     1.6319E+00     6.5010  -0.0062    96.9112
 49      2.6958     5.8644E+00    5.9400E+00    1.000000E+10  0.02000  1.360E-05    0   0.5167   age181_m62            0.0000     2.1883E+00     7.7031  -0.3025    94.3305
 50      1.9714     8.1870E+00    8.0453E+00    1.800000E+10  0.02000  7.124E-06    0   0.5013   age213_m62            0.0000     2.7364E+00     8.6799  -0.4655    91.6681
 51      2.0550     2.3456E-03    4.5972E-03    1.000000E+06  0.05000  2.592E-02    0   0.9998   age020_m72            0.0000     2.6072E+00     5.9306   3.5729    89.5014
 52      0.0000     0.0000E+00    0.0000E+00    3.160000E+06  0.05000  4.845E-02    0   0.9577   age045_m72            0.0000     2.5026E+00     5.8643   3.4176    90.8939
 53      0.0000     0.0000E+00    0.0000E+00    5.010000E+06  0.05000  3.072E-02    0   0.9147   age055_m72            0.0000     1.7442E+00     4.8959   2.8389   100.1234
 54      0.0004     7.6410E-07    1.3296E-06    6.610000E+06  0.05000  1.455E-02    0   0.8877   age061_m72            0.0000     4.5327E+00     9.5851   1.9120   117.1142
 55      0.0000     0.0000E+00    0.0000E+00    1.000000E+07  0.05000  9.074E-03    0   0.8524   age070_m72            0.0000     2.3458E+00     5.6894   3.0587    98.7197
 56      0.0000     0.0000E+00    0.0000E+00    2.512000E+07  0.05000  4.250E-03    0   0.7902   age090_m72            0.0000     1.8674E+00     5.2068   2.7237   101.8936
 57      0.0000     0.0000E+00    0.0000E+00    4.000000E+07  0.05000  3.087E-03    0   0.7618   age104_m72            0.0000     1.8632E+00     5.3583   2.4775   104.5185
 58      0.0000     0.0000E+00    0.0000E+00    1.015200E+08  0.05000  1.700E-03    0   0.7096   age116_m72            0.0000     1.3846E+00     4.9506   2.2455   105.6905
 59      0.0000     0.0000E+00    0.0000E+00    2.861200E+08  0.05000  7.384E-04    0   0.6633   age125_m72            0.0000     1.2199E+00     5.0592   1.7819   107.4444
 60      5.2875     4.0962E-01    5.1165E-01    5.088000E+08  0.05000  3.819E-04    0   0.6372   age130_m72            0.0000     1.0759E+00     4.7088   1.3319   107.0055
 61     14.8727     2.6254E+00    3.1445E+00    9.047900E+08  0.05000  1.676E-04    0   0.6110   age135_m72            0.0000     1.2587E+00     5.4961   0.7015   101.9846
 62      9.1549     3.0650E+00    3.5293E+00    1.434000E+09  0.05000  8.837E-05    0   0.5874   age139_m72            0.0000     1.2694E+00     5.5938   0.2560   101.1323
 63      3.5339     2.4700E+00    2.7105E+00    2.500000E+09  0.05000  4.233E-05    0   0.5598   age150_m72            0.0000     1.7918E+00     6.8605   0.0093    97.0354
 64      0.4936     1.0176E+00    1.0471E+00    6.250000E+09  0.05000  1.435E-05    0   0.5249   age166_m72            0.0000     2.4303E+00     8.0807  -0.3848    93.3266
 65      0.6149     2.7934E+00    2.7576E+00    1.300000E+10  0.05000  6.513E-06    0   0.5036   age193_m72            0.0000     3.2075E+00     9.3327  -0.6063    91.8144
 66      5.1779     3.3839E+01    3.2803E+01    1.800000E+10  0.05000  4.527E-06    0   0.4945   age213_m72            0.0000     3.7651E+00    10.0961  -0.7288    90.0863


## Synthesis Results - Average & Chains ##

# j      x_j: min, <> & last-chain-values for 1 ...  7 chains
  1      3.3215      1.6990      2.1970      3.1208      1.6832      2.1496      1.5037      2.7950      1.7462
  2      0.0000      0.2249      0.2921      0.0000      0.0000      0.0000      0.0000      0.0000      0.0000
  3      0.0002      0.1472      0.0000      0.0000      0.0000      0.4800      0.2996      0.0000      0.0000
  4      0.0000      0.2269      0.1018      0.0000      0.0000      0.0000      0.6775      0.2456      0.6000
  5      0.0000      1.2626      0.1457      1.2705      2.2801      0.0000      1.9087      0.0000      1.3552
  6      0.0000      0.6801      0.8530      1.4492      0.6189      0.0000      0.8324      0.9300      0.0000
  7      0.0000      0.2685      1.9981      0.7273      0.5649      0.7137      0.6003      0.1204      1.0127
  8      0.0000      0.3563      0.0286      2.4130      0.0000      0.0493      0.9217      0.0000      0.1850
  9      0.0000      0.1750      0.0000      0.6185      0.9270      0.1256      0.0809      0.1482      0.1735
 10      0.0000      0.2660      0.2558      0.1512      0.0000      0.0000      0.2016      0.5082      0.1053
 11      0.0000      0.2128      0.0000      0.0000      0.0000      0.0000      0.4357      0.2197      0.4055
 12      0.0000      0.4896      0.0000      0.0000      0.0000      0.1103      0.0105      0.0000      0.0000
 13      0.0000      0.5251      0.0000      0.0000      0.0000      0.0000      0.9318      0.1634      0.0000
 14      0.0000      0.3017      0.0000      0.0000      0.0000      0.0000      0.0000      0.0000      0.0000
 15      0.0000      0.4935      0.2664      0.2754      0.0000      0.2256      0.0000      0.7060      0.0000
 16      0.0000      0.4660      1.0664      1.3531      1.3404      0.1764      0.0000      0.0000      0.0000
 17      0.0000      0.1400      0.0000      0.0000      0.0000      0.0000      0.0777      0.0000      0.0291
 18      0.0000      0.3339      0.4237      0.0000      0.0000      0.2830      0.5806      0.0000      0.1030
 19      2.9858      2.4460      2.9506      2.4390      2.1483      3.2020      3.1972      2.3764      2.4994
 20      1.0213      1.7024      1.4929      1.8348      1.5865      1.6742      2.0175      1.9803      1.8457
 21      0.0000      0.7984      0.6759      0.0000      0.8287      0.4023      0.5343      0.9597      1.7505
 22      2.4190      2.3745      2.0679      2.4214      3.4530      3.1255      2.2895      2.2001      3.2587
 23      3.4237      3.4103      3.1434      2.7232      3.2219      4.1032      3.4227      4.9266      3.3820
 24      0.5373      0.8005      0.6784      0.0000      0.6464      1.0550      1.3263      0.0935      0.0000
 25      0.3906      0.8371      0.6706      0.4730      0.8734      0.9834      0.4712      0.9350      0.0000
 26      0.0000      0.7877      0.4484      0.4535      0.9888      0.7582      0.6062      0.0000      0.3088
 27      0.0000      0.3500      1.2760      0.5011      0.0000      0.6194      1.0287      0.1283      0.0000
 28      0.0000      0.9568      0.8402      0.0000      0.0000      0.0000      0.0000      0.1712      0.7280
 29      0.0000      0.3441      0.0000      0.0000      0.0618      0.0000      0.0000      0.1558      0.2134
 30      0.0000      0.3441      0.0000      0.0000      0.0000      1.2579      0.6801      0.3473      0.2613
 31      0.0000      1.9412      0.4834      1.7367      2.0590      0.0000      0.2057      1.6627      1.6566
 32      0.0000      0.1557      0.0000      0.0000      0.0000      0.0000      0.3602      0.0000      0.0000
 33      4.4846      3.5899      4.0799      3.5671      3.7512      4.4158      4.6334      4.0432      3.5950
 34      8.6449      6.1420      6.6748      6.5431      6.3019      6.6145      7.0505      6.8422      6.6060
 35      6.1155      4.7465      4.7380      4.8997      4.7553      6.6358      4.4725      5.1635      5.2676
 36      1.2221      0.5943      1.2585      0.4603      0.9527      1.0448      0.0000      0.0000      0.2058
 37      0.0031      0.9870      0.7901      0.0000      1.1700      1.2904      1.0007      2.2004      0.8973
 38     16.2361      8.0013      8.7297      8.3489      8.8574      8.9709      8.5797      7.8373      9.8532
 39      1.7672      1.7506      1.7474      0.4527      1.7185      1.8364      1.4772      2.5794      2.0891
 40      4.7354      4.6691      4.6458      6.5227      4.9863      5.0164      4.7462      5.0655      4.0348
 41      0.0000      0.1891      0.0000      0.0000      0.0000      0.0000      0.0000      0.0000      0.1401
 42      0.0000      0.3362      0.0000      0.4665      0.0000      0.0918      0.3478      0.0000      1.0273
 43      0.0000      0.2366      0.0000      0.0000      0.0000      0.0000      0.0000      0.3612      0.0000
 44      0.0000      0.2280      0.9370      0.0000      0.2176      0.0000      0.0000      0.0000      0.0000
 45      1.2020      0.6878      0.1175      0.4447      0.0478      1.4537      1.9822      0.3003      0.3181
 46      0.0000      1.2441      1.4440      1.1216      0.9915      0.3428      0.0000      1.1263      0.0000
