###################################################################
## OUTPUT of StarlightChains_v04.for    [Cid@UFSC - 01/Apr/2007] ##
###################################################################

## Some input info
2005au.txt                               [arq_obs]
Base.CB07.vall.4m                        [arq_base]
Masks.EmLines.NEW.gm                     [arq_masks]
StCv04.C11.config                        [arq_config]
   66                                    [N_base]
    0                                    [N_YAV_components = # of components with extra extinction!]
    0                                    [i_FitPowerLaw (1/0 = Yes/No)]
-9.99                                    [alpha_PowerLaw]
CCM                                      [red_law_option]
 1.458241                                [q_norm = A(l_norm)/A(V)]

## (Re)Sampling Parameters
 3741.00                                 [l_ini (A)]
 7218.00                                 [l_fin (A)]
    1.00                                 [dl    (A)]     (OBS: dl_cushion =    50.00 A)

## Normalization info
 4020.00                                 [l_norm (A) - for base]
 4010.00                                 [llow_norm (A) - window for f_obs]
 4060.00                                 [lupp_norm (A) - window for f_obs]
9.209440E-17                             [fobs_norm (in input units)]

## S/N
 3691.00                                 [llow_SN (A) - window for S/N]
 7268.00                                 [lupp_SN (A) - window for S/N]
   6.376                                 [S/N in S/N window]
   8.434                                 [S/N in norm. window]
  20.185                                 [S/N_err in S/N window]
  26.699                                 [S/N_err in norm. window]
  1.0000                                 [fscale_chi2]

## etc...
    -2007295                             [idum_orig]
  2385                                   [NOl_eff]
  2382                                   [Nl_eff]
     3    NSIGMA                         [Ntot_cliped & clip_method]
  1542520                                [Nglobal_steps]
   7                                     [N_chains]
  19                                     [NEX0s_base = N_base in EX0s-fits]
 0   0   1        0   2.0   4.618E+01    [Clip-Bug, RC-Crash & Burn-In warning-flags, n_censored_weights, wei_nsig_threshold & wei_limit]
    16     16.276     15.751      0.525  [idt_all, wdt_TotTime, wdt_UsrTime & wdt_SysTime (sec)]

## Synthesis Results - Best model ##

 4.35987E-01                             [chi2/Nl_eff]
     2.52372                             [adev (%)]

   100.77673                             [sum-of-x (%)]
 2.20380E-16                             [Flux_tot (units of input spectrum!)]
 1.75071E-13                             [Mini_tot (???)]
 1.10835E-13                             [Mcor_tot (???)]

-139.16                                  [v0_min  (km/s)]
 189.06                                  [vd_min  (km/s)]
 0.6439                                  [AV_min  (mag)]
 0.0000                                  [YAV_min (mag)]

# j     x_j(%)      Mini_j(%)     Mcor_j(%)     age_j(yr)     Z_j      (L/M)_j    YAV?  Mstars   component_j        a/Fe...       SSP_chi2r SSP_adev(%)   SSP_AV   SSP_x(%)
  1      0.0000     0.0000E+00    0.0000E+00    1.000000E+06  0.00400  1.094E-02    0   1.0000   age020_m42            0.0000     1.1449E+00     4.0249   2.3496    89.0742
  2      0.0000     0.0000E+00    0.0000E+00    3.160000E+06  0.00400  4.007E-02    0   0.9999   age045_m42            0.0000     8.0019E-01     3.2985   1.6475    94.2017
  3      0.0000     0.0000E+00    0.0000E+00    5.010000E+06  0.00400  2.539E-02    0   0.9488   age055_m42            0.0000     8.8130E-01     3.4564   1.9563    92.3504
  4      0.0000     0.0000E+00    0.0000E+00    6.610000E+06  0.00400  2.620E-02    0   0.9220   age061_m42            0.0000     7.3686E-01     3.2004   1.5727    94.4898
  5      0.0011     9.9368E-05    1.3910E-04    1.000000E+07  0.00400  1.322E-02    0   0.8862   age070_m42            0.0000     5.8417E-01     2.9314   1.2652    97.7592
  6      0.0000     0.0000E+00    0.0000E+00    1.445000E+07  0.00400  7.883E-03    0   0.8571   age078_m42            0.0000     6.4130E-01     3.0598   1.5896    95.3826
  7      0.0000     0.0000E+00    0.0000E+00    2.512000E+07  0.00400  5.251E-03    0   0.8174   age090_m42            0.0000     6.1869E-01     3.0458   1.1323    98.4701
  8      0.0000     0.0000E+00    0.0000E+00    4.000000E+07  0.00400  3.649E-03    0   0.7851   age104_m42            0.0000     5.8187E-01     2.9585   0.9098    99.0487
  9      0.0000     0.0000E+00    0.0000E+00    5.500000E+07  0.00400  3.098E-03    0   0.7629   age110_m42            0.0000     6.0525E-01     3.0293   1.0792    98.2967
 10      0.0000     0.0000E+00    0.0000E+00    1.015200E+08  0.00400  2.228E-03    0   0.7207   age116_m42            0.0000     6.7315E-01     3.2211   1.1100    97.9884
 11      0.0000     0.0000E+00    0.0000E+00    2.861200E+08  0.00400  1.093E-03    0   0.6648   age125_m42            0.0000     7.5505E-01     3.4502   0.5372   101.1532
 12      0.0045     8.5988E-03    8.6452E-03    5.088000E+08  0.00400  6.597E-04    0   0.6365   age130_m42            0.0000     8.1564E-01     3.5859   0.5431   101.2004
 13      0.0000     0.0000E+00    0.0000E+00    1.434000E+09  0.00400  2.132E-04    0   0.5798   age139_m42            0.0000     9.0481E-01     3.8051  -0.4166   102.5923
 14      0.0000     0.0000E+00    0.0000E+00    4.250000E+09  0.00400  5.895E-05    0   0.5377   age158_m42            0.0000     1.2863E+00     4.1657  -0.8429    97.8916
 15      0.0000     0.0000E+00    0.0000E+00    7.500000E+09  0.00400  3.510E-05    0   0.5212   age171_m42            0.0000     1.6608E+00     4.6527  -1.0000    95.9984
 16      0.0000     0.0000E+00    0.0000E+00    1.300000E+10  0.00400  2.005E-05    0   0.5034   age193_m42            0.0000     2.5319E+00     5.7492  -1.0000    89.3356
 17      0.0000     0.0000E+00    0.0000E+00    1.800000E+10  0.00400  1.525E-05    0   0.4967   age213_m42            0.0000     2.6131E+00     5.8826  -1.0000    88.1197
 18      0.0000     0.0000E+00    0.0000E+00    1.000000E+06  0.00800  1.238E-02    0   1.0000   age020_m52            0.0000     1.1469E+00     4.0314   2.3460    89.2455
 19      0.0000     0.0000E+00    0.0000E+00    3.160000E+06  0.00800  3.074E-02    0   0.9966   age045_m52            0.0000     1.1217E+00     3.9862   2.2728    89.8901
 20      0.0000     0.0000E+00    0.0000E+00    5.010000E+06  0.00800  2.668E-02    0   0.9443   age055_m52            0.0000     8.9754E-01     3.5123   2.0349    91.6950
 21     65.8019     3.8480E+00    5.5779E+00    6.610000E+06  0.00800  2.136E-02    0   0.9177   age061_m52            0.0000     4.6697E-01     2.6510   0.7633    98.9145
 22      0.0000     0.0000E+00    0.0000E+00    1.000000E+07  0.00800  1.215E-02    0   0.8827   age070_m52            0.0000     6.4188E-01     3.1156   1.4338    98.0549
 23      0.0000     0.0000E+00    0.0000E+00    1.445000E+07  0.00800  8.717E-03    0   0.8552   age078_m52            0.0000     6.0065E-01     2.9625   1.5557    96.6752
 24      0.0000     0.0000E+00    0.0000E+00    2.512000E+07  0.00800  5.592E-03    0   0.8162   age090_m52            0.0000     6.2417E-01     3.0566   1.1953    99.6785
 25      0.0000     0.0000E+00    0.0000E+00    4.000000E+07  0.00800  3.896E-03    0   0.7841   age104_m52            0.0000     6.1226E-01     3.0412   1.1176    99.9740
 26      0.0000     0.0000E+00    0.0000E+00    1.015200E+08  0.00800  2.148E-03    0   0.7226   age116_m52            0.0000     6.1567E-01     3.0809   1.0721    99.0348
 27      0.0000     0.0000E+00    0.0000E+00    2.861200E+08  0.00800  9.925E-04    0   0.6683   age125_m52            0.0000     8.0762E-01     3.5645   0.6071   102.1709
 28      0.0000     0.0000E+00    0.0000E+00    9.047900E+08  0.00800  3.141E-04    0   0.6138   age135_m52            0.0000     1.2137E+00     4.2471  -0.1622   104.9228
 29      0.0009     6.2893E-03    5.8146E-03    1.434000E+09  0.00800  1.719E-04    0   0.5853   age139_m52            0.0000     1.2618E+00     4.2978  -0.7453   102.8669
 30      0.0000     0.0000E+00    0.0000E+00    2.500000E+09  0.00800  7.872E-05    0   0.5600   age150_m52            0.0000     1.7968E+00     4.9874  -0.9926    99.1005
 31      0.0000     0.0000E+00    0.0000E+00    4.250000E+09  0.00800  4.336E-05    0   0.5426   age158_m52            0.0000     1.8967E+00     5.0229  -1.0000    97.8596
 32      0.0000     0.0000E+00    0.0000E+00    6.250000E+09  0.00800  3.159E-05    0   0.5319   age166_m52            0.0000     3.0581E+00     6.4209  -1.0000    90.1673
 33      0.0000     0.0000E+00    0.0000E+00    1.300000E+10  0.00800  1.361E-05    0   0.5073   age193_m52            0.0000     9.1471E+00    12.2252  -1.0000    73.2826
 34      0.0000     0.0000E+00    0.0000E+00    1.800000E+10  0.00800  9.886E-06    0   0.4990   age213_m52            0.0000     1.1313E+01    13.6185  -1.0000    69.4773
 35      1.4351     1.1610E-01    1.8339E-01    1.000000E+06  0.02000  1.544E-02    0   1.0000   age020_m62            0.0000     1.1598E+00     4.0671   2.3423    89.4432
 36      2.3271     7.7267E-02    1.2032E-01    3.160000E+06  0.02000  3.762E-02    0   0.9858   age045_m62            0.0000     1.1526E+00     4.0584   2.2824    90.1749
 37      0.0000     0.0000E+00    0.0000E+00    5.010000E+06  0.02000  3.296E-02    0   0.9342   age055_m62            0.0000     8.5083E-01     3.3974   1.9230    93.2058
 38      0.0099     1.0738E-03    1.5029E-03    8.710000E+06  0.02000  1.154E-02    0   0.8861   age067_m62            0.0000     1.9410E+00     5.7110   0.8289   103.7080
 39      0.0000     0.0000E+00    0.0000E+00    1.445000E+07  0.02000  7.663E-03    0   0.8472   age078_m62            0.0000     8.2924E-01     3.5716   1.0646   101.0917
 40      0.0000     0.0000E+00    0.0000E+00    2.512000E+07  0.02000  4.532E-03    0   0.8099   age090_m62            0.0000     9.7608E-01     3.8811   1.0566   100.8494
 41      0.0000     0.0000E+00    0.0000E+00    5.500000E+07  0.02000  2.733E-03    0   0.7595   age110_m62            0.0000     5.8516E-01     2.9753   1.0981    99.3484
 42      0.0000     0.0000E+00    0.0000E+00    1.609000E+08  0.02000  1.369E-03    0   0.6985   age120_m62            0.0000     6.9982E-01     3.2957   0.9601   100.9609
 43      0.0000     0.0000E+00    0.0000E+00    2.861200E+08  0.02000  9.013E-04    0   0.6714   age125_m62            0.0000     8.8691E-01     3.6768   0.7226   103.2129
 44      7.6182     1.8926E+01    1.9279E+01    5.088000E+08  0.02000  5.028E-04    0   0.6449   age130_m62            0.0000     1.1989E+00     4.2714   0.3715   104.6135
 45      0.0009     4.6619E-03    4.5501E-03    9.047900E+08  0.02000  2.428E-04    0   0.6179   age135_m62            0.0000     1.3820E+00     4.4107  -0.2034   103.4013
 46      0.0000     0.0000E+00    0.0000E+00    1.434000E+09  0.02000  1.263E-04    0   0.5908   age139_m62            0.0000     1.6941E+00     4.8039  -0.6441   101.6747
 47      0.0000     0.0000E+00    0.0000E+00    2.500000E+09  0.02000  5.985E-05    0   0.5673   age150_m62            0.0000     2.4040E+00     5.7611  -0.9926    99.4362
 48      0.4054     1.5482E+01    1.3372E+01    4.250000E+09  0.02000  3.271E-05    0   0.5468   age158_m62            0.0000     4.5154E+00     7.9146  -1.0000    87.3231
 49      0.0000     0.0000E+00    0.0000E+00    1.000000E+10  0.02000  1.360E-05    0   0.5167   age181_m62            0.0000     9.5444E+00    12.1183  -1.0000    74.8538
 50      0.0000     0.0000E+00    0.0000E+00    1.800000E+10  0.02000  7.124E-06    0   0.5013   age213_m62            0.0000     1.3638E+01    14.7719  -1.0000    67.6076
 51      2.3121     1.1142E-01    1.7596E-01    1.000000E+06  0.05000  2.592E-02    0   0.9998   age020_m72            0.0000     1.2051E+00     4.1798   2.3304    89.5959
 52      0.0000     0.0000E+00    0.0000E+00    3.160000E+06  0.05000  4.845E-02    0   0.9577   age045_m72            0.0000     1.0785E+00     3.8608   2.1751    90.9688
 53      0.0000     0.0000E+00    0.0000E+00    5.010000E+06  0.05000  3.072E-02    0   0.9147   age055_m72            0.0000     8.0344E-01     3.4404   1.6658    96.5174
 54      4.7870     4.1096E-01    5.7624E-01    6.610000E+06  0.05000  1.455E-02    0   0.8877   age061_m72            0.0000     4.0929E+00     8.2012   0.8596   105.6754
 55      0.0000     0.0000E+00    0.0000E+00    1.000000E+07  0.05000  9.074E-03    0   0.8524   age070_m72            0.0000     1.3455E+00     4.1384   1.8544    96.1094
 56      0.0000     0.0000E+00    0.0000E+00    2.512000E+07  0.05000  4.250E-03    0   0.7902   age090_m72            0.0000     9.9062E-01     3.6800   1.5575    97.7144
 57      0.0000     0.0000E+00    0.0000E+00    4.000000E+07  0.05000  3.087E-03    0   0.7618   age104_m72            0.0000     1.0596E+00     3.8270   1.3274    99.4495
 58      0.0000     0.0000E+00    0.0000E+00    1.015200E+08  0.05000  1.700E-03    0   0.7096   age116_m72            0.0000     7.4409E-01     3.4186   1.0930   101.0044
 59      1.8673     3.1588E+00    3.3096E+00    2.861200E+08  0.05000  7.384E-04    0   0.6633   age125_m72            0.0000     1.0303E+00     3.9572   0.6038   103.9450
 60     11.4825     3.7556E+01    3.7800E+01    5.088000E+08  0.05000  3.819E-04    0   0.6372   age130_m72            0.0000     1.2954E+00     4.4306   0.1313   104.5962
 61      2.7227     2.0292E+01    1.9584E+01    9.047900E+08  0.05000  1.676E-04    0   0.6110   age135_m72            0.0000     2.2120E+00     5.6912  -0.5384   101.4401
 62      0.0000     0.0000E+00    0.0000E+00    1.434000E+09  0.05000  8.837E-05    0   0.5874   age139_m72            0.0000     2.6794E+00     6.0970  -0.9900   100.7114
 63      0.0000     0.0000E+00    0.0000E+00    2.500000E+09  0.05000  4.233E-05    0   0.5598   age150_m72            0.0000     4.8350E+00     8.1794  -1.0000    88.0024
 64      0.0000     0.0000E+00    0.0000E+00    6.250000E+09  0.05000  1.435E-05    0   0.5249   age166_m72            0.0000     1.1330E+01    13.3996  -1.0000    71.3919
 65      0.0000     0.0000E+00    0.0000E+00    1.300000E+10  0.05000  6.513E-06    0   0.5036   age193_m72            0.0000     1.7314E+01    16.8339  -1.0000    63.4557
 66      0.0000     0.0000E+00    0.0000E+00    1.800000E+10  0.05000  4.527E-06    0   0.4945   age213_m72            0.0000     2.1178E+01    18.7176  -1.0000    58.7601


## Synthesis Results - Average & Chains ##

# j      x_j: min, <> & last-chain-values for 1 ...  7 chains
  1      0.0000      0.2289      0.0173      0.5774      0.0000      0.5888      0.0000      0.0000      0.0000
  2      0.0000      0.3376      0.0000      0.0000      0.0000      0.0000      0.0000      0.0000      0.3084
  3      0.0000      0.1953      0.0000      0.0000      0.0000      0.0000      0.0000      0.0000      0.4657
  4      0.0000      0.3970      0.7321      0.7941      0.0000      0.0000      0.0000      1.6151      0.0000
  5      0.0011      0.4708      0.8685      0.0000      0.0000      0.0000      0.2745      0.0000      0.4088
  6      0.0000      0.3066      0.0000      0.3777      0.0000      0.0000      0.0000      0.0000      0.2758
  7      0.0000      0.4106      0.0000      0.0000      0.1052      0.0000      0.0000      0.0600      0.0000
  8      0.0000      0.6105      0.0617      0.0000      0.3210      0.0000      0.1232      0.0000      0.4050
  9      0.0000      0.5126      0.0000      0.0000      0.0000      0.0000      0.0189      0.0000      0.0000
 10      0.0000      0.4369      0.0000      0.0000      0.0000      0.3974      0.0000      0.0000      0.0000
 11      0.0000      0.6804      0.0000      0.0000      0.0000      0.1695      0.5945      0.0000      0.0000
 12      0.0045      1.1415      0.5248      0.0000      0.0000      0.8137      0.0000      0.0000      1.6694
 13      0.0000      0.2704      0.3208      0.0000      1.3199      0.0000      1.0247      0.0000      0.0000
 14      0.0000      0.0591      0.0000      0.2402      0.0000      0.0000      0.0000      0.0000      0.0000
 15      0.0000      0.0175      0.0000      0.0000      0.0000      0.0000      0.0000      0.0000      0.0000
 16      0.0000      0.0549      0.0000      0.0000      0.0000      0.0000      0.0465      0.0000      0.0044
 17      0.0000      0.0462      0.0000      0.0000      0.0000      0.0000      0.0000      0.0000      0.0196
 18      0.0000      0.1628      0.0122      0.0000      0.4390      0.0266      0.0000      0.0000      0.0000
 19      0.0000      0.1974      0.0000      1.4122      0.4880      0.6416      0.0000      0.0499      0.0000
 20      0.0000      0.1569      0.0000      0.2147      0.0000      0.0000      0.0000      0.0000      0.0000
 21     65.8019     59.0417     64.1651     60.4700     66.1764     62.0064     65.1621     62.0995     60.5030
 22      0.0000      0.2464      1.3680      1.7887      0.7614      0.0000      0.0000      0.1907      0.4371
 23      0.0000      0.1875      0.0000      0.0000      0.0000      0.0000      0.0000      0.0000      0.0000
 24      0.0000      0.4242      0.1209      0.0000      0.0000      0.0000      0.1909      0.1517      0.0000
 25      0.0000      0.3492      0.4848      0.0000      0.0000      0.0000      1.6554      0.0000      0.0000
 26      0.0000      0.3395      0.0000      0.0000      0.3373      0.0000      0.0000      0.0000      0.0000
 27      0.0000      0.9101      0.0000      0.0000      0.0000      0.0000      0.0000      1.6652      0.0758
 28      0.0000      1.0612      0.0000      0.0000      1.0614      1.2582      0.0000      0.0000      0.3429
 29      0.0009      0.1224      0.0000      0.0627      0.5421      0.0000      0.0000      0.0000      0.4872
 30      0.0000      0.0346      0.0000      0.0000      0.0000      0.0000      0.0000      0.0000      0.0000
 31      0.0000      0.0238      0.0000      0.0000      0.0000      0.0000      0.0000      0.0000      0.0000
 32      0.0000      0.0419      0.0000      0.0000      0.0000      0.0000      0.0000      0.4396      0.0000
 33      0.0000      0.0141      0.0000      0.0216      0.0000      0.0000      0.0000      0.0560      0.0000
 34      0.0000      0.0078      0.0000      0.0000      0.0000      0.0000      0.0177      0.0000      0.1916
 35      1.4351      3.0191      4.8261      3.4700      2.7888      3.8106      2.8035      3.9100      3.6694
 36      2.3271      1.0760      0.4603      2.2087      0.5615      1.9773      0.8398      2.1071      1.0915
 37      0.0000      0.1703      0.0000      0.0000      0.4258      0.0000      0.4954      0.0000      0.0000
 38      0.0099      1.1224      3.6798      0.0000      2.2335      0.9073      2.1470      1.9242      0.6181
 39      0.0000      0.8252      0.0000      2.8966      0.0000      2.1475      0.0000      1.5809      0.0000
 40      0.0000      0.4758      0.0000      0.0000      0.0000      0.0000      0.0000      0.0000      0.0000
 41      0.0000      0.4308      0.0000      0.2117      0.0000      0.0000      0.0000      0.0000      0.0000
 42      0.0000      0.4155      0.2653      0.0000      0.0000      0.0000      1.2107      0.0000      0.0000
 43      0.0000      0.7180      0.0000      0.7563      0.0000      0.0781      0.0000      0.0000      0.0000
 44      7.6182      3.8417      4.2460      4.3777      7.3221      5.0633      2.7965      0.6871      9.1724
 45      0.0009      2.7313      2.6025      4.3616      2.1291      3.2779      1.6450      2.0000      2.3075
 46      0.0000      0.1425      0.0000      0.6365      0.0000      0.0000      0.0000      0.0000      0.0000
