###################################################################
## OUTPUT of StarlightChains_v04.for    [Cid@UFSC - 01/Apr/2007] ##
###################################################################

## Some input info
2005ci.txt                               [arq_obs]
Base.CB07.vall.4m                        [arq_base]
Masks.EmLines.NEW.gm                     [arq_masks]
StCv04.C11.config                        [arq_config]
   66                                    [N_base]
    0                                    [N_YAV_components = # of components with extra extinction!]
    0                                    [i_FitPowerLaw (1/0 = Yes/No)]
-9.99                                    [alpha_PowerLaw]
CCM                                      [red_law_option]
 1.458241                                [q_norm = A(l_norm)/A(V)]

## (Re)Sampling Parameters
 3741.00                                 [l_ini (A)]
 7218.00                                 [l_fin (A)]
    1.00                                 [dl    (A)]     (OBS: dl_cushion =    50.00 A)

## Normalization info
 4020.00                                 [l_norm (A) - for base]
 4010.00                                 [llow_norm (A) - window for f_obs]
 4060.00                                 [lupp_norm (A) - window for f_obs]
5.115223E-16                             [fobs_norm (in input units)]

## S/N
 3691.00                                 [llow_SN (A) - window for S/N]
 7268.00                                 [lupp_SN (A) - window for S/N]
   7.064                                 [S/N in S/N window]
   9.135                                 [S/N in norm. window]
  18.479                                 [S/N_err in S/N window]
  23.898                                 [S/N_err in norm. window]
  1.0000                                 [fscale_chi2]

## etc...
    -2007298                             [idum_orig]
  2388                                   [NOl_eff]
  2385                                   [Nl_eff]
     3    NSIGMA                         [Ntot_cliped & clip_method]
  1749370                                [Nglobal_steps]
   7                                     [N_chains]
  25                                     [NEX0s_base = N_base in EX0s-fits]
 0   0   1        6   2.0   4.097E+01    [Clip-Bug, RC-Crash & Burn-In warning-flags, n_censored_weights, wei_nsig_threshold & wei_limit]
    16     16.636     16.143      0.493  [idt_all, wdt_TotTime, wdt_UsrTime & wdt_SysTime (sec)]

## Synthesis Results - Best model ##

 2.82243E-01                             [chi2/Nl_eff]
     2.13117                             [adev (%)]

   101.70784                             [sum-of-x (%)]
 1.07619E-15                             [Flux_tot (units of input spectrum!)]
 3.14327E-12                             [Mini_tot (???)]
 1.83581E-12                             [Mcor_tot (???)]

 -43.79                                  [v0_min  (km/s)]
 157.17                                  [vd_min  (km/s)]
 0.5412                                  [AV_min  (mag)]
 0.0000                                  [YAV_min (mag)]

# j     x_j(%)      Mini_j(%)     Mcor_j(%)     age_j(yr)     Z_j      (L/M)_j    YAV?  Mstars   component_j        a/Fe...       SSP_chi2r SSP_adev(%)   SSP_AV   SSP_x(%)
  1     10.0450     3.0909E-01    5.2922E-01    1.000000E+06  0.00400  1.094E-02    0   1.0000   age020_m42            0.0000     1.4195E+00     4.8423   2.4273    88.5652
  2      0.0000     0.0000E+00    0.0000E+00    3.160000E+06  0.00400  4.007E-02    0   0.9999   age045_m42            0.0000     9.5632E-01     4.0359   1.7316    93.3470
  3      0.0000     0.0000E+00    0.0000E+00    5.010000E+06  0.00400  2.539E-02    0   0.9488   age055_m42            0.0000     1.1093E+00     4.2411   2.0377    91.6616
  4      0.0000     0.0000E+00    0.0000E+00    6.610000E+06  0.00400  2.620E-02    0   0.9220   age061_m42            0.0000     8.7398E-01     3.8672   1.6571    93.6213
  5      0.0000     0.0000E+00    0.0000E+00    1.000000E+07  0.00400  1.322E-02    0   0.8862   age070_m42            0.0000     5.0501E-01     2.7541   1.3474    96.9140
  6      0.0000     0.0000E+00    0.0000E+00    1.445000E+07  0.00400  7.883E-03    0   0.8571   age078_m42            0.0000     6.3585E-01     3.0504   1.6704    94.6269
  7      0.0000     0.0000E+00    0.0000E+00    2.512000E+07  0.00400  5.251E-03    0   0.8174   age090_m42            0.0000     4.6441E-01     2.6320   1.2150    97.5790
  8      0.0000     0.0000E+00    0.0000E+00    4.000000E+07  0.00400  3.649E-03    0   0.7851   age104_m42            0.0000     4.2460E-01     2.5749   0.9934    98.1205
  9      0.0000     0.0000E+00    0.0000E+00    5.500000E+07  0.00400  3.098E-03    0   0.7629   age110_m42            0.0000     5.3497E-01     3.0078   1.1656    97.2602
 10      0.0000     0.0000E+00    0.0000E+00    1.015200E+08  0.00400  2.228E-03    0   0.7207   age116_m42            0.0000     6.3463E-01     3.3994   1.1989    96.8521
 11      0.0000     0.0000E+00    0.0000E+00    2.861200E+08  0.00400  1.093E-03    0   0.6648   age125_m42            0.0000     5.4936E-01     3.2376   0.6241   100.0207
 12      0.0000     0.0000E+00    0.0000E+00    5.088000E+08  0.00400  6.597E-04    0   0.6365   age130_m42            0.0000     6.7379E-01     3.6743   0.6323   100.0057
 13      6.3138     9.9692E+00    9.8967E+00    1.434000E+09  0.00400  2.132E-04    0   0.5798   age139_m42            0.0000     7.3585E-01     3.8913  -0.3291   101.5536
 14      3.1626     1.8060E+01    1.6627E+01    4.250000E+09  0.00400  5.895E-05    0   0.5377   age158_m42            0.0000     1.2283E+00     4.8777  -0.7644    97.4343
 15      2.1813     2.0920E+01    1.8669E+01    7.500000E+09  0.00400  3.510E-05    0   0.5212   age171_m42            0.0000     1.5968E+00     5.4728  -0.9435    96.4199
 16      0.0000     0.0000E+00    0.0000E+00    1.300000E+10  0.00400  2.005E-05    0   0.5034   age193_m42            0.0000     2.1345E+00     6.1398  -1.0000    91.8371
 17      0.0000     0.0000E+00    0.0000E+00    1.800000E+10  0.00400  1.525E-05    0   0.4967   age213_m42            0.0000     2.1547E+00     6.1561  -1.0000    90.5936
 18      7.8697     2.1399E-01    3.6639E-01    1.000000E+06  0.00800  1.238E-02    0   1.0000   age020_m52            0.0000     1.4263E+00     4.8546   2.4236    88.7349
 19      3.0636     3.3549E-02    5.7247E-02    3.160000E+06  0.00800  3.074E-02    0   0.9966   age045_m52            0.0000     1.4152E+00     4.8015   2.3496    89.4155
 20      0.0008     1.0343E-05    1.6723E-05    5.010000E+06  0.00800  2.668E-02    0   0.9443   age055_m52            0.0000     1.1386E+00     4.2866   2.1153    91.0546
 21      0.0000     0.0000E+00    0.0000E+00    6.610000E+06  0.00800  2.136E-02    0   0.9177   age061_m52            0.0000     4.2794E-01     2.6213   0.8413    98.3137
 22      0.0000     0.0000E+00    0.0000E+00    1.000000E+07  0.00800  1.215E-02    0   0.8827   age070_m52            0.0000     5.0569E-01     2.6955   1.5146    97.2475
 23      0.0063     2.4202E-04    3.5439E-04    1.445000E+07  0.00800  8.717E-03    0   0.8552   age078_m52            0.0000     5.7177E-01     2.8965   1.6365    95.9055
 24      0.0194     1.1679E-03    1.6322E-03    2.512000E+07  0.00800  5.592E-03    0   0.8162   age090_m52            0.0000     4.4093E-01     2.5645   1.2788    98.7274
 25      0.0000     0.0000E+00    0.0000E+00    4.000000E+07  0.00800  3.896E-03    0   0.7841   age104_m52            0.0000     4.3605E-01     2.6372   1.2026    98.9616
 26      0.0632     9.8980E-03    1.2246E-02    1.015200E+08  0.00800  2.148E-03    0   0.7226   age116_m52            0.0000     4.9338E-01     2.9874   1.1574    98.0452
 27      0.0000     0.0000E+00    0.0000E+00    2.861200E+08  0.00800  9.925E-04    0   0.6683   age125_m52            0.0000     6.1835E-01     3.4846   0.6966   100.9667
 28      4.1294     4.4256E+00    4.6511E+00    9.047900E+08  0.00800  3.141E-04    0   0.6138   age135_m52            0.0000     9.6985E-01     4.4753  -0.0736   103.8045
 29      0.0000     0.0000E+00    0.0000E+00    1.434000E+09  0.00800  1.719E-04    0   0.5853   age139_m52            0.0000     1.0997E+00     4.7246  -0.6630   102.1408
 30      0.0000     0.0000E+00    0.0000E+00    2.500000E+09  0.00800  7.872E-05    0   0.5600   age150_m52            0.0000     1.7104E+00     5.7900  -0.9132    98.6386
 31      0.0000     0.0000E+00    0.0000E+00    4.250000E+09  0.00800  4.336E-05    0   0.5426   age158_m52            0.0000     1.8072E+00     5.8572  -0.9287    97.7326
 32      0.0000     0.0000E+00    0.0000E+00    6.250000E+09  0.00800  3.159E-05    0   0.5319   age166_m52            0.0000     2.5650E+00     6.8299  -1.0000    92.7222
 33      0.0000     0.0000E+00    0.0000E+00    1.300000E+10  0.00800  1.361E-05    0   0.5073   age193_m52            0.0000     7.1709E+00    11.2652  -1.0000    75.5347
 34      0.0000     0.0000E+00    0.0000E+00    1.800000E+10  0.00800  9.886E-06    0   0.4990   age213_m52            0.0000     9.0172E+00    12.6142  -1.0000    71.6448
 35      6.5370     1.4252E-01    2.4402E-01    1.000000E+06  0.02000  1.544E-02    0   1.0000   age020_m62            0.0000     1.4467E+00     4.8953   2.4191    88.9641
 36      0.0000     0.0000E+00    0.0000E+00    3.160000E+06  0.02000  3.762E-02    0   0.9858   age045_m62            0.0000     1.4788E+00     4.9196   2.3592    89.7062
 37      0.0000     0.0000E+00    0.0000E+00    5.010000E+06  0.02000  3.296E-02    0   0.9342   age055_m62            0.0000     1.0918E+00     4.2875   2.0052    92.4703
 38     15.7511     4.5947E-01    6.9710E-01    8.710000E+06  0.02000  1.154E-02    0   0.8861   age067_m62            0.0000     1.1105E+00     4.5598   0.9034   103.0272
 39      0.0000     0.0000E+00    0.0000E+00    1.445000E+07  0.02000  7.663E-03    0   0.8472   age078_m62            0.0000     5.1436E-01     2.8086   1.1433   100.3138
 40      0.0000     0.0000E+00    0.0000E+00    2.512000E+07  0.02000  4.532E-03    0   0.8099   age090_m62            0.0000     6.0138E-01     3.0588   1.1360   100.0296
 41      0.0000     0.0000E+00    0.0000E+00    5.500000E+07  0.02000  2.733E-03    0   0.7595   age110_m62            0.0000     4.4572E-01     2.6408   1.1811    98.4417
 42      0.0000     0.0000E+00    0.0000E+00    1.609000E+08  0.02000  1.369E-03    0   0.6985   age120_m62            0.0000     5.6294E-01     3.2155   1.0487    99.7962
 43      0.0000     0.0000E+00    0.0000E+00    2.861200E+08  0.02000  9.013E-04    0   0.6714   age125_m62            0.0000     6.8526E-01     3.6057   0.8139   101.9081
 44      7.5567     5.0593E+00    5.5864E+00    5.088000E+08  0.02000  5.028E-04    0   0.6449   age130_m62            0.0000     9.8966E-01     4.5268   0.4640   103.2786
 45      8.4866     1.1766E+01    1.2448E+01    9.047900E+08  0.02000  2.428E-04    0   0.6179   age135_m62            0.0000     1.1924E+00     5.0390  -0.1179   102.5147
 46      0.8818     2.3503E+00    2.3774E+00    1.434000E+09  0.02000  1.263E-04    0   0.5908   age139_m62            0.0000     1.5163E+00     5.4793  -0.5632   101.0892
 47      0.0000     0.0000E+00    0.0000E+00    2.500000E+09  0.02000  5.985E-05    0   0.5673   age150_m62            0.0000     2.2744E+00     6.6276  -0.9141    99.0635
 48      0.0000     0.0000E+00    0.0000E+00    4.250000E+09  0.02000  3.271E-05    0   0.5468   age158_m62            0.0000     3.7785E+00     8.3263  -1.0000    89.8762
 49      0.0000     0.0000E+00    0.0000E+00    1.000000E+10  0.02000  1.360E-05    0   0.5167   age181_m62            0.0000     7.7149E+00    11.6032  -1.0000    77.1725
 50      0.0000     0.0000E+00    0.0000E+00    1.800000E+10  0.02000  7.124E-06    0   0.5013   age213_m62            0.0000     1.1099E+01    13.9156  -1.0000    69.7515
 51      8.8144     1.1447E-01    1.9596E-01    1.000000E+06  0.05000  2.592E-02    0   0.9998   age020_m72            0.0000     1.4816E+00     4.9925   2.4058    89.1764
 52      0.0000     0.0000E+00    0.0000E+00    3.160000E+06  0.05000  4.845E-02    0   0.9577   age045_m72            0.0000     1.3983E+00     4.7743   2.2542    90.4059
 53      0.0000     0.0000E+00    0.0000E+00    5.010000E+06  0.05000  3.072E-02    0   0.9147   age055_m72            0.0000     7.6639E-01     3.4287   1.7426    95.9047
 54      0.0000     0.0000E+00    0.0000E+00    6.610000E+06  0.05000  1.455E-02    0   0.8877   age061_m72            0.0000     2.8423E+00     7.0787   0.9290   105.0859
 55      0.0000     0.0000E+00    0.0000E+00    1.000000E+07  0.05000  9.074E-03    0   0.8524   age070_m72            0.0000     1.2668E+00     4.3328   1.9298    95.5101
 56      0.0000     0.0000E+00    0.0000E+00    2.512000E+07  0.05000  4.250E-03    0   0.7902   age090_m72            0.0000     8.3769E-01     3.6133   1.6379    96.8823
 57      0.0000     0.0000E+00    0.0000E+00    4.000000E+07  0.05000  3.087E-03    0   0.7618   age104_m72            0.0000     8.1974E-01     3.6184   1.4095    98.5059
 58      0.0000     0.0000E+00    0.0000E+00    1.015200E+08  0.05000  1.700E-03    0   0.7096   age116_m72            0.0000     5.4105E-01     3.1168   1.1803    99.8761
 59      0.0000     0.0000E+00    0.0000E+00    2.861200E+08  0.05000  7.384E-04    0   0.6633   age125_m72            0.0000     8.1406E-01     4.0136   0.6970   102.5797
 60      6.7690     5.9666E+00    6.5096E+00    5.088000E+08  0.05000  3.819E-04    0   0.6372   age130_m72            0.0000     1.1167E+00     4.9416   0.2224   103.4184
 61     10.0561     2.0198E+01    2.1130E+01    9.047900E+08  0.05000  1.676E-04    0   0.6110   age135_m72            0.0000     2.0444E+00     6.5442  -0.4571   100.9268
 62      0.0000     0.0000E+00    0.0000E+00    1.434000E+09  0.05000  8.837E-05    0   0.5874   age139_m72            0.0000     2.4753E+00     6.9278  -0.9110   100.3361
 63      0.0000     0.0000E+00    0.0000E+00    2.500000E+09  0.05000  4.233E-05    0   0.5598   age150_m72            0.0000     4.0761E+00     8.6873  -1.0000    90.6036
 64      0.0000     0.0000E+00    0.0000E+00    6.250000E+09  0.05000  1.435E-05    0   0.5249   age166_m72            0.0000     9.1688E+00    12.6910  -1.0000    73.6407
 65      0.0000     0.0000E+00    0.0000E+00    1.300000E+10  0.05000  6.513E-06    0   0.5036   age193_m72            0.0000     1.4159E+01    15.8043  -1.0000    65.4990
 66      0.0000     0.0000E+00    0.0000E+00    1.800000E+10  0.05000  4.527E-06    0   0.4945   age213_m72            0.0000     1.7426E+01    17.5855  -1.0000    60.6686


## Synthesis Results - Average & Chains ##

# j      x_j: min, <> & last-chain-values for 1 ...  7 chains
  1     10.0450      5.2651      7.0929      5.9471      4.6528      5.8646      5.4463      7.4610      5.8139
  2      0.0000      0.3455      1.6269      0.2088      0.0000      0.0000      0.9737      0.0000      0.4087
  3      0.0000      0.3914      0.0000      0.1481      0.0000      0.0000      0.9724      0.3416      0.4421
  4      0.0000      0.3522      0.0000      0.0000      0.0000      0.5017      0.0000      0.5382      0.6485
  5      0.0000      1.2535      0.0000      0.0000      4.1005      0.7206      1.1334      1.8829      0.0000
  6      0.0000      0.5945      0.1006      0.0000      0.0000      0.0000      0.2652      0.0000      0.0000
  7      0.0000      0.8451      0.0000      0.0000      0.1741      1.0714      0.0000      0.2621      0.7773
  8      0.0000      1.3010      0.8946      4.1389      0.0000      0.0000      0.0000      0.0000      0.0000
  9      0.0000      0.4657      0.0000      0.8470      0.0000      0.3872      1.0310      0.0000      0.0000
 10      0.0000      0.3351      0.0000      0.0264      0.0000      0.0000      0.4767      0.5392      0.0000
 11      0.0000      0.8109      0.3885      0.0000      0.4842      0.0000      0.4604      0.0000      0.5020
 12      0.0000      0.5709      0.0000      0.0000      0.0000      1.8839      0.0000      0.0000      0.0000
 13      6.3138      4.3956      4.2053      4.2966      4.8688      3.8542      5.0415      5.2631      4.6941
 14      3.1626      1.6299      1.8826      2.1007      1.7869      1.9418      2.2295      2.0796      1.8760
 15      2.1813      1.3671      1.1059      1.5935      1.6126      1.2029      1.3679      1.5287      1.7693
 16      0.0000      0.0805      0.0000      0.0000      0.0000      0.0722      0.0197      0.0000      0.0000
 17      0.0000      0.0270      0.0000      0.1147      0.0000      0.0000      0.0000      0.0000      0.0000
 18      7.8697      4.6282      4.2715      5.6589      5.1346      5.8371      6.5454      4.7004      4.6682
 19      3.0636      4.3870      5.0279      3.9833      5.1467      4.3028      4.2949      4.3707      5.0748
 20      0.0008      0.4190      0.0000      0.3869      0.0000      0.1934      0.8341      0.6519      0.0000
 21      0.0000      1.5157      0.0416      2.0227      1.5100      1.4988      1.0712      0.1128      2.0792
 22      0.0000      0.3803      0.0000      0.0000      1.3317      0.0000      0.7960      0.0000      1.3085
 23      0.0063      2.9123      3.0808      3.3341      3.6467      2.9722      2.5671      3.1441      3.4174
 24      0.0194      1.4018      3.8501      0.7548      1.9990      0.0000      4.1018      0.6263      2.2342
 25      0.0000      0.8291      0.8286      0.0000      1.4700      0.0000      0.0000      0.2501      0.8782
 26      0.0632      0.9604      0.5187      0.5199      0.0000      0.0000      0.0000      1.1854      1.9064
 27      0.0000      0.8789      3.0846      0.9397      0.0403      0.3644      0.1117      0.1619      0.0000
 28      4.1294      3.0158      2.8751      2.8431      2.9551      5.5149      4.5931      1.5410      1.4046
 29      0.0000      0.0574      0.0000      0.0000      0.0000      0.0000      0.0000      0.0000      0.0000
 30      0.0000      0.0975      0.0000      0.0000      0.0000      0.0000      0.0000      0.3206      0.4673
 31      0.0000      0.2604      0.7414      0.0000      1.1048      0.1119      0.4753      0.0000      0.0000
 32      0.0000      0.0562      0.0000      0.0000      0.0000      0.0000      0.0000      0.0365      0.0000
 33      0.0000      0.0293      0.0000      0.0000      0.0649      0.0000      0.0000      0.0000      0.0000
 34      0.0000      0.0228      0.0000      0.0000      0.2253      0.0000      0.0000      0.0000      0.0000
 35      6.5370      4.0217      4.4658      3.7538      4.2555      5.2621      4.1685      4.3437      4.8131
 36      0.0000      0.2709      0.7890      0.0000      0.0000      0.1611      0.0693      0.0631      0.0000
 37      0.0000      0.1595      0.0000      0.3022      0.0000      0.0000      0.0000      0.0000      0.7339
 38     15.7511     15.1724     16.4271     17.9287     16.3165     17.0362     15.8826     17.6866     15.6937
 39      0.0000      0.7008      0.0380      0.0000      0.0423      0.1154      0.0000      0.0000      0.0000
 40      0.0000      0.4196      0.0000      0.2450      0.0000      0.0000      0.0000      0.0000      0.2033
 41      0.0000      0.3579      0.1006      0.0000      0.0000      0.0000      0.0000      1.2345      0.1865
 42      0.0000      0.5271      0.0000      0.0000      0.0000      0.6268      0.0000      0.0000      1.6415
 43      0.0000      0.6741      0.5291      0.0000      0.9159      0.5816      1.2374      0.0000      0.0000
 44      7.5567      3.0068      1.9476      7.8274      3.1175      2.2196      0.0000      4.1643      3.0819
 45      8.4866      8.4974      9.2948      5.3874      9.0999      8.0086      9.3501     10.9015      8.9013
 46      0.8818      1.0824      1.4832      1.9087      0.9844      1.4008      0.0000      0.5067      1.4735
