###################################################################
## OUTPUT of StarlightChains_v04.for    [Cid@UFSC - 01/Apr/2007] ##
###################################################################

## Some input info
2005P.txt                                [arq_obs]
Base.CB07.vall.4m                        [arq_base]
Masks.EmLines.NEW.gm                     [arq_masks]
StCv04.C11.config                        [arq_config]
   66                                    [N_base]
    0                                    [N_YAV_components = # of components with extra extinction!]
    0                                    [i_FitPowerLaw (1/0 = Yes/No)]
-9.99                                    [alpha_PowerLaw]
CCM                                      [red_law_option]
 1.458241                                [q_norm = A(l_norm)/A(V)]

## (Re)Sampling Parameters
 3741.00                                 [l_ini (A)]
 7218.00                                 [l_fin (A)]
    1.00                                 [dl    (A)]     (OBS: dl_cushion =    50.00 A)

## Normalization info
 4020.00                                 [l_norm (A) - for base]
 4010.00                                 [llow_norm (A) - window for f_obs]
 4060.00                                 [lupp_norm (A) - window for f_obs]
6.747917E-18                             [fobs_norm (in input units)]

## S/N
 3691.00                                 [llow_SN (A) - window for S/N]
 7268.00                                 [lupp_SN (A) - window for S/N]
   3.480                                 [S/N in S/N window]
   5.200                                 [S/N in norm. window]
  10.000                                 [S/N_err in S/N window]
  14.944                                 [S/N_err in norm. window]
  1.0000                                 [fscale_chi2]

## etc...
    -2007309                             [idum_orig]
  2384                                   [NOl_eff]
  2317                                   [Nl_eff]
    67    NSIGMA                         [Ntot_cliped & clip_method]
   792330                                [Nglobal_steps]
   7                                     [N_chains]
  15                                     [NEX0s_base = N_base in EX0s-fits]
 0   0   1       80   2.0   2.614E+01    [Clip-Bug, RC-Crash & Burn-In warning-flags, n_censored_weights, wei_nsig_threshold & wei_limit]
    12     11.995     11.502      0.493  [idt_all, wdt_TotTime, wdt_UsrTime & wdt_SysTime (sec)]

## Synthesis Results - Best model ##

 1.25098E+00                             [chi2/Nl_eff]
     9.06102                             [adev (%)]

   103.44026                             [sum-of-x (%)]
 1.01443E-17                             [Flux_tot (units of input spectrum!)]
 1.04766E-14                             [Mini_tot (???)]
 6.74408E-15                             [Mcor_tot (???)]

-155.34                                  [v0_min  (km/s)]
 165.74                                  [vd_min  (km/s)]
 0.2784                                  [AV_min  (mag)]
 0.0000                                  [YAV_min (mag)]

# j     x_j(%)      Mini_j(%)     Mcor_j(%)     age_j(yr)     Z_j      (L/M)_j    YAV?  Mstars   component_j        a/Fe...       SSP_chi2r SSP_adev(%)   SSP_AV   SSP_x(%)
  1      0.0000     0.0000E+00    0.0000E+00    1.000000E+06  0.00400  1.094E-02    0   1.0000   age020_m42            0.0000     1.4893E+00     9.7620   1.8663    89.8213
  2     14.9883     3.5014E-01    5.4387E-01    3.160000E+06  0.00400  4.007E-02    0   0.9999   age045_m42            0.0000     1.2987E+00     9.2112   1.1246    96.6394
  3      4.6114     1.7001E-01    2.5058E-01    5.010000E+06  0.00400  2.539E-02    0   0.9488   age055_m42            0.0000     1.3507E+00     9.3841   1.4516    94.0020
  4     29.2604     1.0454E+00    1.4973E+00    6.610000E+06  0.00400  2.620E-02    0   0.9220   age061_m42            0.0000     1.2873E+00     9.1820   1.0504    96.8647
  5      0.0000     0.0000E+00    0.0000E+00    1.000000E+07  0.00400  1.322E-02    0   0.8862   age070_m42            0.0000     1.3425E+00     9.4146   0.7723    98.5370
  6      0.0000     0.0000E+00    0.0000E+00    1.445000E+07  0.00400  7.883E-03    0   0.8571   age078_m42            0.0000     1.3683E+00     9.4897   1.1032    95.9233
  7      0.0000     0.0000E+00    0.0000E+00    2.512000E+07  0.00400  5.251E-03    0   0.8174   age090_m42            0.0000     1.3609E+00     9.4857   0.6422    99.0531
  8      0.0000     0.0000E+00    0.0000E+00    4.000000E+07  0.00400  3.649E-03    0   0.7851   age104_m42            0.0000     1.3330E+00     9.3964   0.4110   100.0647
  9      0.0000     0.0000E+00    0.0000E+00    5.500000E+07  0.00400  3.098E-03    0   0.7629   age110_m42            0.0000     1.2977E+00     9.2596   0.5603   100.3549
 10      0.0000     0.0000E+00    0.0000E+00    1.015200E+08  0.00400  2.228E-03    0   0.7207   age116_m42            0.0000     1.3025E+00     9.2595   0.5790   100.6787
 11      0.0000     0.0000E+00    0.0000E+00    2.861200E+08  0.00400  1.093E-03    0   0.6648   age125_m42            0.0000     1.3348E+00     9.3709   0.0045   103.8117
 12      0.0000     0.0000E+00    0.0000E+00    5.088000E+08  0.00400  6.597E-04    0   0.6365   age130_m42            0.0000     1.3543E+00     9.3714  -0.0093   104.9736
 13      0.0000     0.0000E+00    0.0000E+00    1.434000E+09  0.00400  2.132E-04    0   0.5798   age139_m42            0.0000     1.4018E+00     9.5271  -0.9837   107.2186
 14      0.0000     0.0000E+00    0.0000E+00    4.250000E+09  0.00400  5.895E-05    0   0.5377   age158_m42            0.0000     2.2174E+00    11.7750  -1.0000    87.5981
 15      0.0000     0.0000E+00    0.0000E+00    7.500000E+09  0.00400  3.510E-05    0   0.5212   age171_m42            0.0000     3.0580E+00    13.7979  -1.0000    80.3929
 16      0.0000     0.0000E+00    0.0000E+00    1.300000E+10  0.00400  2.005E-05    0   0.5034   age193_m42            0.0000     3.9741E+00    15.7468  -1.0000    74.3580
 17      0.0000     0.0000E+00    0.0000E+00    1.800000E+10  0.00400  1.525E-05    0   0.4967   age213_m42            0.0000     4.0908E+00    16.0547  -1.0000    73.2480
 18      0.0000     0.0000E+00    0.0000E+00    1.000000E+06  0.00800  1.238E-02    0   1.0000   age020_m52            0.0000     1.4867E+00     9.7511   1.8626    90.0019
 19      0.0000     0.0000E+00    0.0000E+00    3.160000E+06  0.00800  3.074E-02    0   0.9966   age045_m52            0.0000     1.4629E+00     9.7036   1.7850    90.8579
 20      0.3269     1.1468E-02    1.6823E-02    5.010000E+06  0.00800  2.668E-02    0   0.9443   age055_m52            0.0000     1.3744E+00     9.4608   1.5366    93.0604
 21     13.5751     5.9491E-01    8.4811E-01    6.610000E+06  0.00800  2.136E-02    0   0.9177   age061_m52            0.0000     1.3423E+00     9.3816   0.2740    99.6255
 22      0.0000     0.0000E+00    0.0000E+00    1.000000E+07  0.00800  1.215E-02    0   0.8827   age070_m52            0.0000     1.3964E+00     9.5985   0.9547    98.1177
 23      0.0000     0.0000E+00    0.0000E+00    1.445000E+07  0.00800  8.717E-03    0   0.8552   age078_m52            0.0000     1.3550E+00     9.4554   1.0674    97.2936
 24      0.0000     0.0000E+00    0.0000E+00    2.512000E+07  0.00800  5.592E-03    0   0.8162   age090_m52            0.0000     1.3640E+00     9.5089   0.7048   100.2539
 25      0.0000     0.0000E+00    0.0000E+00    4.000000E+07  0.00800  3.896E-03    0   0.7841   age104_m52            0.0000     1.3260E+00     9.3762   0.6129   101.2664
 26      0.0000     0.0000E+00    0.0000E+00    1.015200E+08  0.00800  2.148E-03    0   0.7226   age116_m52            0.0000     1.2848E+00     9.2094   0.5468   101.4213
 27      0.0000     0.0000E+00    0.0000E+00    2.861200E+08  0.00800  9.925E-04    0   0.6683   age125_m52            0.0000     1.3601E+00     9.4085   0.0542   105.9859
 28      0.0000     0.0000E+00    0.0000E+00    9.047900E+08  0.00800  3.141E-04    0   0.6138   age135_m52            0.0000     1.4828E+00     9.7318  -0.7520   110.8733
 29      0.0000     0.0000E+00    0.0000E+00    1.434000E+09  0.00800  1.719E-04    0   0.5853   age139_m52            0.0000     1.9435E+00    11.0058  -1.0000    95.6780
 30      0.0000     0.0000E+00    0.0000E+00    2.500000E+09  0.00800  7.872E-05    0   0.5600   age150_m52            0.0000     3.0024E+00    13.6032  -1.0000    83.3968
 31      0.0000     0.0000E+00    0.0000E+00    4.250000E+09  0.00800  4.336E-05    0   0.5426   age158_m52            0.0000     3.0934E+00    13.7701  -1.0000    82.0777
 32      0.0000     0.0000E+00    0.0000E+00    6.250000E+09  0.00800  3.159E-05    0   0.5319   age166_m52            0.0000     4.2488E+00    16.1419  -1.0000    75.0993
 33      0.0000     0.0000E+00    0.0000E+00    1.300000E+10  0.00800  1.361E-05    0   0.5073   age193_m52            0.0000     7.4593E+00    21.7424  -1.0000    59.8301
 34      0.0000     0.0000E+00    0.0000E+00    1.800000E+10  0.00800  9.886E-06    0   0.4990   age213_m52            0.0000     8.3259E+00    22.8487  -1.0000    56.5319
 35      0.0000     0.0000E+00    0.0000E+00    1.000000E+06  0.02000  1.544E-02    0   1.0000   age020_m62            0.0000     1.4918E+00     9.7682   1.8581    90.2289
 36      0.0000     0.0000E+00    0.0000E+00    3.160000E+06  0.02000  3.762E-02    0   0.9858   age045_m62            0.0000     1.4814E+00     9.7581   1.7974    91.0358
 37      0.0000     0.0000E+00    0.0000E+00    5.010000E+06  0.02000  3.296E-02    0   0.9342   age055_m62            0.0000     1.3156E+00     9.2695   1.4073    95.3677
 38      0.0000     0.0000E+00    0.0000E+00    8.710000E+06  0.02000  1.154E-02    0   0.8861   age067_m62            0.0000     1.9663E+00    11.3371   0.4147    99.8795
 39      0.0000     0.0000E+00    0.0000E+00    1.445000E+07  0.02000  7.663E-03    0   0.8472   age078_m62            0.0000     1.5088E+00     9.9687   0.6012   100.1751
 40      0.0000     0.0000E+00    0.0000E+00    2.512000E+07  0.02000  4.532E-03    0   0.8099   age090_m62            0.0000     1.5362E+00    10.0718   0.5917    99.9309
 41      0.0000     0.0000E+00    0.0000E+00    5.500000E+07  0.02000  2.733E-03    0   0.7595   age110_m62            0.0000     1.3318E+00     9.3876   0.5968   100.4834
 42      0.0000     0.0000E+00    0.0000E+00    1.609000E+08  0.02000  1.369E-03    0   0.6985   age120_m62            0.0000     1.3262E+00     9.3460   0.4248   103.8625
 43      0.0000     0.0000E+00    0.0000E+00    2.861200E+08  0.02000  9.013E-04    0   0.6714   age125_m62            0.0000     1.4047E+00     9.5403   0.1657   107.2822
 44      0.0000     0.0000E+00    0.0000E+00    5.088000E+08  0.02000  5.028E-04    0   0.6449   age130_m62            0.0000     1.4905E+00     9.7085  -0.2205   110.6848
 45      0.0000     0.0000E+00    0.0000E+00    9.047900E+08  0.02000  2.428E-04    0   0.6179   age135_m62            0.0000     1.4975E+00     9.7453  -0.8077   110.1610
 46      0.0000     0.0000E+00    0.0000E+00    1.434000E+09  0.02000  1.263E-04    0   0.5908   age139_m62            0.0000     1.8258E+00    10.5583  -1.0000    98.7578
 47      0.0000     0.0000E+00    0.0000E+00    2.500000E+09  0.02000  5.985E-05    0   0.5673   age150_m62            0.0000     3.1934E+00    13.8546  -1.0000    83.8344
 48      0.0000     0.0000E+00    0.0000E+00    4.250000E+09  0.02000  3.271E-05    0   0.5468   age158_m62            0.0000     4.9915E+00    17.3270  -1.0000    72.6048
 49      0.0000     0.0000E+00    0.0000E+00    1.000000E+10  0.02000  1.360E-05    0   0.5167   age181_m62            0.0000     7.5050E+00    21.3378  -1.0000    61.3650
 50      0.0000     0.0000E+00    0.0000E+00    1.800000E+10  0.02000  7.124E-06    0   0.5013   age213_m62            0.0000     9.1495E+00    23.5684  -1.0000    54.9750
 51      0.0000     0.0000E+00    0.0000E+00    1.000000E+06  0.05000  2.592E-02    0   0.9998   age020_m72            0.0000     1.5194E+00     9.8497   1.8513    90.1817
 52      0.7696     1.4869E-02    2.2122E-02    3.160000E+06  0.05000  4.845E-02    0   0.9577   age045_m72            0.0000     1.4078E+00     9.5606   1.6754    92.4664
 53      0.0028     8.6087E-05    1.2232E-04    5.010000E+06  0.05000  3.072E-02    0   0.9147   age055_m72            0.0000     1.4572E+00     9.7483   1.1916    96.4046
 54      0.0000     0.0000E+00    0.0000E+00    6.610000E+06  0.05000  1.455E-02    0   0.8877   age061_m72            0.0000     2.5450E+00    12.8266   0.4616   100.4980
 55      0.0000     0.0000E+00    0.0000E+00    1.000000E+07  0.05000  9.074E-03    0   0.8524   age070_m72            0.0000     1.5584E+00    10.0723   1.3748    96.1512
 56      0.0000     0.0000E+00    0.0000E+00    2.512000E+07  0.05000  4.250E-03    0   0.7902   age090_m72            0.0000     1.4403E+00     9.7235   1.0660    98.2706
 57      0.0000     0.0000E+00    0.0000E+00    4.000000E+07  0.05000  3.087E-03    0   0.7618   age104_m72            0.0000     1.4600E+00     9.7918   0.8345   100.0051
 58      0.0000     0.0000E+00    0.0000E+00    1.015200E+08  0.05000  1.700E-03    0   0.7096   age116_m72            0.0000     1.3468E+00     9.4346   0.5673   103.3324
 59      0.0000     0.0000E+00    0.0000E+00    2.861200E+08  0.05000  7.384E-04    0   0.6633   age125_m72            0.0000     1.4446E+00     9.5978   0.0273   109.1151
 60     39.9058     9.7813E+01    9.6821E+01    5.088000E+08  0.05000  3.819E-04    0   0.6372   age130_m72            0.0000     1.4786E+00     9.7077  -0.4702   111.2894
 61      0.0000     0.0000E+00    0.0000E+00    9.047900E+08  0.05000  1.676E-04    0   0.6110   age135_m72            0.0000     1.7810E+00    10.4349  -1.0000   102.9779
 62      0.0000     0.0000E+00    0.0000E+00    1.434000E+09  0.05000  8.837E-05    0   0.5874   age139_m72            0.0000     3.2899E+00    13.9785  -1.0000    85.0325
 63      0.0000     0.0000E+00    0.0000E+00    2.500000E+09  0.05000  4.233E-05    0   0.5598   age150_m72            0.0000     5.0800E+00    17.3659  -1.0000    73.2404
 64      0.0000     0.0000E+00    0.0000E+00    6.250000E+09  0.05000  1.435E-05    0   0.5249   age166_m72            0.0000     8.2310E+00    22.4299  -1.0000    58.3140
 65      0.0000     0.0000E+00    0.0000E+00    1.300000E+10  0.05000  6.513E-06    0   0.5036   age193_m72            0.0000     1.0461E+01    25.3141  -1.0000    51.2536
 66      0.0000     0.0000E+00    0.0000E+00    1.800000E+10  0.05000  4.527E-06    0   0.4945   age213_m72            0.0000     1.1766E+01    26.8682  -1.0000    47.1619


## Synthesis Results - Average & Chains ##

# j      x_j: min, <> & last-chain-values for 1 ...  7 chains
  1      0.0000      0.2555      0.0000      0.0000      0.0000      0.8156      0.0000      0.0000      0.0000
  2     14.9883      2.8114      7.8057      3.0644      3.8856      3.6231      5.8761      4.8343      8.7457
  3      4.6114      1.5860      1.0689      3.1849      4.1838      0.0000      0.0000      5.2941      2.0702
  4     29.2604      8.5528     14.0093      5.8394      3.0486     12.6184      9.4211     14.0960     10.1291
  5      0.0000      1.3657      0.0000      0.0000      0.0000      0.3605      0.0000      0.0000      0.0000
  6      0.0000      0.5628      0.0000      0.0000      0.0000      0.7869      0.7431      0.0000      0.0000
  7      0.0000      0.4938      0.0000      0.0000      0.0000      0.6064      0.0000      0.6530      0.0000
  8      0.0000      1.1622      0.0000      0.6590      0.3318      0.0000      0.0000      0.0000      3.7222
  9      0.0000      2.3901      0.0000      0.0000      0.0000      6.5324      0.0000      0.0000      0.0000
 10      0.0000      2.9889      4.9491      0.0000      0.0000      0.8510      3.8615      0.0000      0.0000
 11      0.0000      0.5707      4.2146      0.0000      0.0000      0.0000      0.0000      0.0000      0.0000
 12      0.0000      1.0417      0.0000      0.0000      0.0000      4.3179      0.7668      2.4297      0.0000
 13      0.0000      0.0201      0.0000      0.0000      0.0000      0.0000      0.0000      0.0000      0.0000
 14      0.0000      0.0243      0.0000      0.0000      0.0000      0.0000      0.0000      0.0000      0.0000
 15      0.0000      0.0159      0.0000      0.0000      0.0000      0.0000      0.0000      0.0000      0.0000
 16      0.0000      0.0016      0.0000      0.0000      0.0000      0.0000      0.0000      0.0000      0.0000
 17      0.0000      0.0127      0.0000      0.0000      0.0000      0.0000      0.0000      0.0000      0.0000
 18      0.0000      0.5461      0.0000      0.0000      0.0000      0.0000      2.7608      0.0000      0.0000
 19      0.0000      0.8717      0.0000      4.1529      0.0000      1.7254      0.8466      0.0000      0.0000
 20      0.3269      1.2467      0.0000      0.0000      7.0898      1.5924      0.0000      1.7854      0.0000
 21     13.5751     24.2971     29.0556     32.6330     26.0720     25.3720     27.6189     24.9964     29.5632
 22      0.0000      0.4925      0.0000      0.0000      0.0000      0.3202      0.0000      0.0000      0.0000
 23      0.0000      1.0587      0.0000      3.0337      1.0619      0.0000      0.1114      0.0000      0.4396
 24      0.0000      0.7633      0.0000      0.0000      1.3755      0.0000      0.0000      0.0000      0.0000
 25      0.0000      1.0123      0.0000      1.0646      0.0000      1.4457      0.0000      0.0000      0.2058
 26      0.0000      3.9341      4.0329      3.9140      2.9627      0.0000      0.0000      4.7172      1.9725
 27      0.0000      1.0077      0.0000      0.0000      0.3430      0.3731      0.0000      2.1479      0.0000
 28      0.0000      0.1172      0.0514      0.0000      0.0000      0.0000      0.0000      0.0000      0.0000
 29      0.0000      0.0156      0.0000      0.0000      0.0000      0.0000      0.0000      0.0000      0.0000
 30      0.0000      0.0301      0.0000      0.0000      0.0000      0.0000      0.0000      0.4761      0.0000
 31      0.0000      0.0093      0.0000      0.0000      0.0000      0.0000      0.0000      0.0000      0.0000
 32      0.0000      0.0072      0.0000      0.0000      0.0000      0.0000      0.0000      0.0000      0.0000
 33      0.0000      0.0009      0.0000      0.0000      0.0000      0.0000      0.0000      0.0000      0.0000
 34      0.0000      0.0041      0.0000      0.0000      0.0000      0.0000      0.0000      0.0000      0.0000
 35      0.0000      0.2883      0.0000      0.0000      0.1115      1.1337      1.7032      0.0116      0.2524
 36      0.0000      0.7147      0.0000      3.0195      0.4116      2.1384      1.2985      1.3504      0.0000
 37      0.0000      0.9401      1.2226      0.6371      0.0000      1.8205      1.0364      1.7933      0.0000
 38      0.0000      0.0725      0.0000      0.0000      0.0000      0.0000      0.0000      0.0000      0.0000
 39      0.0000      0.4454      0.0000      0.0000      0.0000      0.0000      0.0000      0.0000      0.0000
 40      0.0000      0.2142      0.0000      0.0000      0.0734      0.0000      0.0370      0.0000      0.0000
 41      0.0000      1.0609      0.0000      0.0000      0.0000      0.0000      1.0283      0.0000      0.0000
 42      0.0000      1.8729      0.3586      0.0000      2.3654      0.0000      5.6174      0.0407      5.5658
 43      0.0000      2.8139      1.5716      2.9337      0.0000      0.0000      0.0000      0.0000      0.0000
 44      0.0000      9.1426     11.3591     11.0099      9.7860      5.5511      9.2657     15.8548      8.8012
 45      0.0000      0.1465      0.0000      0.0000      0.0000      0.0000      0.0000      0.0000      0.0000
 46      0.0000      0.0094      0.0000      0.0000      0.0000      0.0000      0.0000      0.0000      0.0000
