###################################################################
## OUTPUT of StarlightChains_v04.for    [Cid@UFSC - 01/Apr/2007] ##
###################################################################

## Some input info
2006lc.txt                               [arq_obs]
Base.CB07.vall.4m                        [arq_base]
Masks.EmLines.NEW.gm                     [arq_masks]
StCv04.C11.config                        [arq_config]
   66                                    [N_base]
    0                                    [N_YAV_components = # of components with extra extinction!]
    0                                    [i_FitPowerLaw (1/0 = Yes/No)]
-9.99                                    [alpha_PowerLaw]
CCM                                      [red_law_option]
 1.458241                                [q_norm = A(l_norm)/A(V)]

## (Re)Sampling Parameters
 3741.00                                 [l_ini (A)]
 7218.00                                 [l_fin (A)]
    1.00                                 [dl    (A)]     (OBS: dl_cushion =    50.00 A)

## Normalization info
 4020.00                                 [l_norm (A) - for base]
 4010.00                                 [llow_norm (A) - window for f_obs]
 4060.00                                 [lupp_norm (A) - window for f_obs]
1.302484E-16                             [fobs_norm (in input units)]

## S/N
 3691.00                                 [llow_SN (A) - window for S/N]
 7268.00                                 [lupp_SN (A) - window for S/N]
  11.036                                 [S/N in S/N window]
  11.733                                 [S/N in norm. window]
  18.862                                 [S/N_err in S/N window]
  20.054                                 [S/N_err in norm. window]
  1.0000                                 [fscale_chi2]

## etc...
    -2007322                             [idum_orig]
  2384                                   [NOl_eff]
  2384                                   [Nl_eff]
     0    NSIGMA                         [Ntot_cliped & clip_method]
  1869140                                [Nglobal_steps]
   7                                     [N_chains]
  32                                     [NEX0s_base = N_base in EX0s-fits]
 0   0   1        2   2.0   3.283E+01    [Clip-Bug, RC-Crash & Burn-In warning-flags, n_censored_weights, wei_nsig_threshold & wei_limit]
    15     15.468     14.960      0.508  [idt_all, wdt_TotTime, wdt_UsrTime & wdt_SysTime (sec)]

## Synthesis Results - Best model ##

 4.17860E-01                             [chi2/Nl_eff]
     2.63011                             [adev (%)]

   102.88788                             [sum-of-x (%)]
 2.46889E-16                             [Flux_tot (units of input spectrum!)]
 3.07642E-12                             [Mini_tot (???)]
 1.62937E-12                             [Mcor_tot (???)]

 -64.81                                  [v0_min  (km/s)]
 191.94                                  [vd_min  (km/s)]
 0.4549                                  [AV_min  (mag)]
 0.0000                                  [YAV_min (mag)]

# j     x_j(%)      Mini_j(%)     Mcor_j(%)     age_j(yr)     Z_j      (L/M)_j    YAV?  Mstars   component_j        a/Fe...       SSP_chi2r SSP_adev(%)   SSP_AV   SSP_x(%)
  1      1.7211     1.2271E-02    2.3169E-02    1.000000E+06  0.00400  1.094E-02    0   1.0000   age020_m42            0.0000     1.5611E+00     5.1006   3.0203    88.1857
  2      0.0000     0.0000E+00    0.0000E+00    3.160000E+06  0.00400  4.007E-02    0   0.9999   age045_m42            0.0000     1.1838E+00     4.3548   2.3172    93.2755
  3      0.0000     0.0000E+00    0.0000E+00    5.010000E+06  0.00400  2.539E-02    0   0.9488   age055_m42            0.0000     1.3004E+00     4.4904   2.6246    91.5112
  4      0.0000     0.0000E+00    0.0000E+00    6.610000E+06  0.00400  2.620E-02    0   0.9220   age061_m42            0.0000     1.1150E+00     4.2526   2.2395    93.6679
  5      0.0000     0.0000E+00    0.0000E+00    1.000000E+07  0.00400  1.322E-02    0   0.8862   age070_m42            0.0000     9.4007E-01     3.8930   1.9253    97.1225
  6      0.0000     0.0000E+00    0.0000E+00    1.445000E+07  0.00400  7.883E-03    0   0.8571   age078_m42            0.0000     1.0461E+00     4.0874   2.2514    94.7152
  7      0.0000     0.0000E+00    0.0000E+00    2.512000E+07  0.00400  5.251E-03    0   0.8174   age090_m42            0.0000     9.4745E-01     3.9355   1.7909    97.8632
  8      0.0000     0.0000E+00    0.0000E+00    4.000000E+07  0.00400  3.649E-03    0   0.7851   age104_m42            0.0000     8.7447E-01     3.8152   1.5685    98.4444
  9      0.0000     0.0000E+00    0.0000E+00    5.500000E+07  0.00400  3.098E-03    0   0.7629   age110_m42            0.0000     9.0370E-01     3.9326   1.7412    97.5881
 10      0.0000     0.0000E+00    0.0000E+00    1.015200E+08  0.00400  2.228E-03    0   0.7207   age116_m42            0.0000     9.4689E-01     4.1422   1.7745    97.1902
 11      0.0000     0.0000E+00    0.0000E+00    2.861200E+08  0.00400  1.093E-03    0   0.6648   age125_m42            0.0000     9.4183E-01     4.3758   1.2017   100.3919
 12      0.0000     0.0000E+00    0.0000E+00    5.088000E+08  0.00400  6.597E-04    0   0.6365   age130_m42            0.0000     9.1660E-01     4.4233   1.2105   100.3417
 13      1.1565     4.2310E-01    4.6318E-01    1.434000E+09  0.00400  2.132E-04    0   0.5798   age139_m42            0.0000     6.2126E-01     3.5897   0.2459   101.9387
 14      4.8932     6.4744E+00    6.5731E+00    4.250000E+09  0.00400  5.895E-05    0   0.5377   age158_m42            0.0000     7.3679E-01     3.8271  -0.1816    97.4401
 15      0.0000     0.0000E+00    0.0000E+00    7.500000E+09  0.00400  3.510E-05    0   0.5212   age171_m42            0.0000     9.1348E-01     4.2740  -0.3581    96.3400
 16      1.1666     4.5382E+00    4.3134E+00    1.300000E+10  0.00400  2.005E-05    0   0.5034   age193_m42            0.0000     1.1340E+00     4.7394  -0.5125    95.4129
 17      3.6629     1.8735E+01    1.7570E+01    1.800000E+10  0.00400  1.525E-05    0   0.4967   age213_m42            0.0000     1.0992E+00     4.6358  -0.5394    95.1368
 18      2.9940     1.8864E-02    3.5617E-02    1.000000E+06  0.00800  1.238E-02    0   1.0000   age020_m52            0.0000     1.5599E+00     5.1039   3.0173    88.3299
 19      3.4689     8.8021E-03    1.6563E-02    3.160000E+06  0.00800  3.074E-02    0   0.9966   age045_m52            0.0000     1.5313E+00     5.0258   2.9416    89.0632
 20      0.0000     0.0000E+00    0.0000E+00    5.010000E+06  0.00800  2.668E-02    0   0.9443   age055_m52            0.0000     1.3090E+00     4.5429   2.7028    90.8760
 21      0.0000     0.0000E+00    0.0000E+00    6.610000E+06  0.00800  2.136E-02    0   0.9177   age061_m52            0.0000     7.0391E-01     3.4012   1.4205    98.4167
 22      4.2675     2.7396E-02    4.5659E-02    1.000000E+07  0.00800  1.215E-02    0   0.8827   age070_m52            0.0000     9.8941E-01     4.0728   2.0938    97.4348
 23      0.0012     1.0329E-05    1.6678E-05    1.445000E+07  0.00800  8.717E-03    0   0.8552   age078_m52            0.0000     9.7415E-01     3.9458   2.2167    96.0310
 24      0.0000     0.0000E+00    0.0000E+00    2.512000E+07  0.00800  5.592E-03    0   0.8162   age090_m52            0.0000     9.1003E-01     3.9044   1.8544    99.0633
 25      0.0000     0.0000E+00    0.0000E+00    4.000000E+07  0.00800  3.896E-03    0   0.7841   age104_m52            0.0000     8.7018E-01     3.8869   1.7782    99.3263
 26      0.0000     0.0000E+00    0.0000E+00    1.015200E+08  0.00800  2.148E-03    0   0.7226   age116_m52            0.0000     8.4889E-01     3.9431   1.7348    98.3310
 27      0.0000     0.0000E+00    0.0000E+00    2.861200E+08  0.00800  9.925E-04    0   0.6683   age125_m52            0.0000     8.4120E-01     4.2581   1.2743   101.3245
 28      2.2309     5.5399E-01    6.4202E-01    9.047900E+08  0.00800  3.141E-04    0   0.6138   age135_m52            0.0000     7.7009E-01     4.0903   0.5042   104.1892
 29      0.0000     0.0000E+00    0.0000E+00    1.434000E+09  0.00800  1.719E-04    0   0.5853   age139_m52            0.0000     7.1750E-01     3.8889  -0.0796   102.2557
 30      0.0000     0.0000E+00    0.0000E+00    2.500000E+09  0.00800  7.872E-05    0   0.5600   age150_m52            0.0000     9.7205E-01     4.5324  -0.3280    98.6074
 31      0.0039     7.0124E-03    7.1841E-03    4.250000E+09  0.00800  4.336E-05    0   0.5426   age158_m52            0.0000     1.0307E+00     4.6285  -0.3426    97.6519
 32      0.0000     0.0000E+00    0.0000E+00    6.250000E+09  0.00800  3.159E-05    0   0.5319   age166_m52            0.0000     1.3667E+00     5.3384  -0.5286    96.9727
 33      0.0000     0.0000E+00    0.0000E+00    1.300000E+10  0.00800  1.361E-05    0   0.5073   age193_m52            0.0000     1.9095E+00     6.2902  -0.9768    95.4932
 34      0.0000     0.0000E+00    0.0000E+00    1.800000E+10  0.00800  9.886E-06    0   0.4990   age213_m52            0.0000     2.4472E+00     7.1286  -1.0000    91.7114
 35      4.8404     2.4453E-02    4.6169E-02    1.000000E+06  0.02000  1.544E-02    0   1.0000   age020_m62            0.0000     1.5744E+00     5.1422   3.0126    88.5665
 36      0.5210     1.0802E-03    2.0107E-03    3.160000E+06  0.02000  3.762E-02    0   0.9858   age045_m62            0.0000     1.5797E+00     5.1406   2.9521    89.3283
 37      0.0000     0.0000E+00    0.0000E+00    5.010000E+06  0.02000  3.296E-02    0   0.9342   age055_m62            0.0000     1.2510E+00     4.4602   2.5913    92.3674
 38     15.4793     1.0463E-01    1.7504E-01    8.710000E+06  0.02000  1.154E-02    0   0.8861   age067_m62            0.0000     1.9251E+00     6.5291   1.4790   103.3875
 39      1.7582     1.7896E-02    2.8626E-02    1.445000E+07  0.02000  7.663E-03    0   0.8472   age078_m62            0.0000     1.0895E+00     4.5198   1.7220   100.5786
 40      0.0000     0.0000E+00    0.0000E+00    2.512000E+07  0.02000  4.532E-03    0   0.8099   age090_m62            0.0000     1.2085E+00     4.7494   1.7142   100.3366
 41      0.0000     0.0000E+00    0.0000E+00    5.500000E+07  0.02000  2.733E-03    0   0.7595   age110_m62            0.0000     8.5315E-01     3.8136   1.7581    98.7310
 42      0.0000     0.0000E+00    0.0000E+00    1.609000E+08  0.02000  1.369E-03    0   0.6985   age120_m62            0.0000     8.7096E-01     4.1317   1.6238   100.2038
 43      0.0000     0.0000E+00    0.0000E+00    2.861200E+08  0.02000  9.013E-04    0   0.6714   age125_m62            0.0000     8.9806E-01     4.3502   1.3867   102.4226
 44      0.0000     0.0000E+00    0.0000E+00    5.088000E+08  0.02000  5.028E-04    0   0.6449   age130_m62            0.0000     9.4064E-01     4.5018   1.0383   103.7693
 45      1.9453     6.2493E-01    7.2907E-01    9.047900E+08  0.02000  2.428E-04    0   0.6179   age135_m62            0.0000     7.9417E-01     4.1393   0.4621   102.7400
 46      1.2697     7.8413E-01    8.7469E-01    1.434000E+09  0.02000  1.263E-04    0   0.5908   age139_m62            0.0000     8.7336E-01     4.3107   0.0199   101.1356
 47      0.0000     0.0000E+00    0.0000E+00    2.500000E+09  0.02000  5.985E-05    0   0.5673   age150_m62            0.0000     1.2910E+00     5.2539  -0.3286    98.9938
 48      3.0505     7.2741E+00    7.5099E+00    4.250000E+09  0.02000  3.271E-05    0   0.5468   age158_m62            0.0000     1.9096E+00     6.4105  -0.6104    97.1534
 49      0.0000     0.0000E+00    0.0000E+00    1.000000E+10  0.02000  1.360E-05    0   0.5167   age181_m62            0.0000     2.8064E+00     7.7829  -0.9276    95.4755
 50      0.8322     9.1115E+00    8.6241E+00    1.800000E+10  0.02000  7.124E-06    0   0.5013   age213_m62            0.0000     3.7298E+00     8.8608  -1.0000    89.4092
 51      2.8375     8.5387E-03    1.6119E-02    1.000000E+06  0.05000  2.592E-02    0   0.9998   age020_m72            0.0000     1.6086E+00     5.2535   3.0002    88.7423
 52      0.0000     0.0000E+00    0.0000E+00    3.160000E+06  0.05000  4.845E-02    0   0.9577   age045_m72            0.0000     1.4890E+00     4.8678   2.8448    90.1215
 53      0.0000     0.0000E+00    0.0000E+00    5.010000E+06  0.05000  3.072E-02    0   0.9147   age055_m72            0.0000     1.1879E+00     4.6530   2.3332    95.7887
 54      0.0000     0.0000E+00    0.0000E+00    6.610000E+06  0.05000  1.455E-02    0   0.8877   age061_m72            0.0000     3.7887E+00     9.1332   1.5233   105.1621
 55      0.0000     0.0000E+00    0.0000E+00    1.000000E+07  0.05000  9.074E-03    0   0.8524   age070_m72            0.0000     1.6238E+00     5.4722   2.5360    95.0650
 56      0.0000     0.0000E+00    0.0000E+00    2.512000E+07  0.05000  4.250E-03    0   0.7902   age090_m72            0.0000     1.3094E+00     4.8112   2.2291    96.8589
 57      0.0000     0.0000E+00    0.0000E+00    4.000000E+07  0.05000  3.087E-03    0   0.7618   age104_m72            0.0000     1.3426E+00     4.9064   1.9970    98.6267
 58      0.0000     0.0000E+00    0.0000E+00    1.015200E+08  0.05000  1.700E-03    0   0.7096   age116_m72            0.0000     9.5002E-01     4.2971   1.7576   100.2302
 59      0.0063     6.6653E-04    8.3475E-04    2.861200E+08  0.05000  7.384E-04    0   0.6633   age125_m72            0.0000     8.8672E-01     4.3633   1.2689   103.1444
 60     11.2205     2.2917E+00    2.7571E+00    5.088000E+08  0.05000  3.819E-04    0   0.6372   age130_m72            0.0000     8.1451E-01     4.1812   0.7966   103.8510
 61     27.4058     1.2754E+01    1.4714E+01    9.047900E+08  0.05000  1.676E-04    0   0.6110   age135_m72            0.0000     1.1849E+00     5.1224   0.1259   100.9267
 62      0.0000     0.0000E+00    0.0000E+00    1.434000E+09  0.05000  8.837E-05    0   0.5874   age139_m72            0.0000     1.4075E+00     5.4584  -0.3241   100.2122
 63      4.5387     8.3633E+00    8.8397E+00    2.500000E+09  0.05000  4.233E-05    0   0.5598   age150_m72            0.0000     2.1452E+00     6.8045  -0.6030    97.6450
 64      0.0000     0.0000E+00    0.0000E+00    6.250000E+09  0.05000  1.435E-05    0   0.5249   age166_m72            0.0000     3.0842E+00     8.1726  -1.0000    94.1044
 65      0.0000     0.0000E+00    0.0000E+00    1.300000E+10  0.05000  6.513E-06    0   0.5036   age193_m72            0.0000     4.9305E+00     9.9332  -1.0000    84.3250
 66      1.6158     2.7840E+01    2.5993E+01    1.800000E+10  0.05000  4.527E-06    0   0.4945   age213_m72            0.0000     6.6231E+00    11.4090  -1.0000    78.4135


## Synthesis Results - Average & Chains ##

# j      x_j: min, <> & last-chain-values for 1 ...  7 chains
  1      1.7211      0.6429      0.3572      0.7824      0.6255      0.4748      0.9584      1.8446      0.7511
  2      0.0000      0.2559      0.1392      0.0000      0.0000      0.0000      0.0000      0.0000      0.0000
  3      0.0000      0.4290      0.2088      0.3043      1.5704      0.3107      0.6129      0.0000      0.0000
  4      0.0000      0.2779      0.3463      0.0000      0.2654      0.0000      0.7405      0.0000      0.0000
  5      0.0000      0.2301      0.0000      0.0000      0.0000      0.1873      0.2616      0.0932      0.0000
  6      0.0000      0.3003      0.0000      0.7875      0.0000      0.4019      0.2119      0.7569      0.9382
  7      0.0000      0.6127      0.9563      1.2913      0.0000      0.6223      0.3761      0.1834      2.0481
  8      0.0000      0.3676      0.2946      0.4789      0.0000      1.1195      0.0000      0.0000      0.0000
  9      0.0000      0.5197      0.0000      0.0000      0.1790      1.0467      0.0000      1.2405      0.0000
 10      0.0000      0.3451      0.0000      0.0000      0.0000      0.0000      0.0000      0.7473      0.0000
 11      0.0000      0.3269      0.0000      0.0000      0.0000      0.7356      0.0000      0.0000      0.6843
 12      0.0000      0.3699      0.0000      0.6365      1.0721      0.0000      0.0000      0.0152      0.0000
 13      1.1565      1.1241      0.9266      0.7443      2.7202      0.0000      0.9471      0.0000      0.7079
 14      4.8932      4.6483      3.3990      4.5619      5.5798      3.5336      4.5575      5.4870      4.6950
 15      0.0000      0.3942      0.3759      0.0000      0.0000      0.0330      0.5264      0.0000      0.8062
 16      1.1666      1.1029      1.0425      1.0875      1.1529      1.4201      1.5013      1.5142      0.0000
 17      3.6629      3.0428      2.8387      4.3538      3.3735      3.0762      2.8958      3.7108      3.5136
 18      2.9940      2.8365      2.5849      2.8828      3.0029      2.8099      2.9310      3.1611      3.6015
 19      3.4689      2.1131      2.0902      3.5829      1.5651      2.7200      1.9794      2.5588      3.4074
 20      0.0000      0.1851      0.6222      0.0000      0.2177      0.0000      0.4920      0.0000      0.0000
 21      0.0000      2.5763      3.5965      2.4907      2.4306      3.8655      1.7398      0.9697      2.2235
 22      4.2675      4.9276      5.6028      5.4924      4.4253      5.6598      5.3012      3.8618      5.0137
 23      0.0012      0.6619      0.6172      2.1997      0.0112      0.0179      0.5976      0.0000      0.0000
 24      0.0000      1.0652      1.0496      0.0000      0.9491      0.9347      0.0000      2.1552      1.7866
 25      0.0000      0.7908      1.6437      0.2443      1.5524      1.5276      0.8366      0.5589      0.4019
 26      0.0000      0.3040      0.0000      0.0000      0.2642      0.2787      0.1359      0.0000      0.0000
 27      0.0000      0.5395      0.0000      0.0000      0.1557      0.0000      0.0000      0.0000      0.2679
 28      2.2309      1.4496      0.0928      0.5940      1.1659      0.1408      0.8933      1.5949      0.0000
 29      0.0000      0.4902      0.0000      0.0000      0.0000      0.0000      0.0000      0.0000      0.0000
 30      0.0000      1.3784      1.1164      0.2644      0.0000      0.0000      1.4562      1.1114      1.5255
 31      0.0039      2.3976      3.2589      2.2049      2.0032      2.6794      0.7432      2.4574      2.7436
 32      0.0000      0.1622      0.0000      0.0000      0.0000      0.0000      0.0000      0.1412      0.0000
 33      0.0000      0.1193      0.0467      0.0000      0.0000      0.0000      0.0000      0.0000      0.0000
 34      0.0000      0.0373      0.0000      0.0000      0.0000      0.0000      0.0000      0.0000      0.0000
 35      4.8404      3.4095      3.7755      4.1985      3.5200      2.8144      3.2964      3.7999      3.8521
 36      0.5210      1.4144      1.2575      1.7411      1.7761      2.1614      1.5884      1.5454      1.1475
 37      0.0000      0.2821      1.0087      0.0000      0.2252      0.3537      0.0000      0.6657      0.6487
 38     15.4793      6.1223      7.4256      7.6976      7.6881      6.3461      6.9096      6.2436      8.2692
 39      1.7582      2.2302      1.5864      1.8853      1.9470      3.3617      3.1932      2.8746      1.0902
 40      0.0000      2.1657      1.3900      0.0000      1.5340      2.6730      1.3718      2.1551      1.8987
 41      0.0000      0.4605      0.6021      0.5979      0.0000      0.0925      0.0000      0.0000      0.5188
 42      0.0000      0.3219      0.0000      0.0000      0.4893      0.0000      0.0000      0.2522      0.2815
 43      0.0000      0.2831      0.0000      0.0000      0.1160      0.0668      0.0000      0.3735      0.0000
 44      0.0000      0.7597      0.0000      0.0000      1.0659      0.0000      0.5432      1.0363      0.8337
 45      1.9453      3.2624      2.5538      5.5747      2.5235      0.0000      3.0803      3.9680      0.2765
 46      1.2697      4.1403      5.3151      5.0828      5.8911      6.4288      2.6874      3.9291      2.2841
