###################################################################
## OUTPUT of StarlightChains_v04.for    [Cid@UFSC - 01/Apr/2007] ##
###################################################################

## Some input info
2006am.txt                               [arq_obs]
Base.CB07.vall.4m                        [arq_base]
Masks.EmLines.NEW.gm                     [arq_masks]
StCv04.C11.config                        [arq_config]
   66                                    [N_base]
    0                                    [N_YAV_components = # of components with extra extinction!]
    0                                    [i_FitPowerLaw (1/0 = Yes/No)]
-9.99                                    [alpha_PowerLaw]
CCM                                      [red_law_option]
 1.458241                                [q_norm = A(l_norm)/A(V)]

## (Re)Sampling Parameters
 3741.00                                 [l_ini (A)]
 7218.00                                 [l_fin (A)]
    1.00                                 [dl    (A)]     (OBS: dl_cushion =    50.00 A)

## Normalization info
 4020.00                                 [l_norm (A) - for base]
 4010.00                                 [llow_norm (A) - window for f_obs]
 4060.00                                 [lupp_norm (A) - window for f_obs]
4.301119E-16                             [fobs_norm (in input units)]

## S/N
 3691.00                                 [llow_SN (A) - window for S/N]
 7268.00                                 [lupp_SN (A) - window for S/N]
   5.261                                 [S/N in S/N window]
   7.092                                 [S/N in norm. window]
  20.949                                 [S/N_err in S/N window]
  28.240                                 [S/N_err in norm. window]
  1.0000                                 [fscale_chi2]

## etc...
    -2007311                             [idum_orig]
  2384                                   [NOl_eff]
  2372                                   [Nl_eff]
    12    NSIGMA                         [Ntot_cliped & clip_method]
  1465100                                [Nglobal_steps]
   7                                     [N_chains]
  20                                     [NEX0s_base = N_base in EX0s-fits]
 0   0   1        2   2.0   4.527E+01    [Clip-Bug, RC-Crash & Burn-In warning-flags, n_censored_weights, wei_nsig_threshold & wei_limit]
    14     13.483     12.988      0.495  [idt_all, wdt_TotTime, wdt_UsrTime & wdt_SysTime (sec)]

## Synthesis Results - Best model ##

 2.54012E-01                             [chi2/Nl_eff]
     1.77793                             [adev (%)]

   104.62364                             [sum-of-x (%)]
 7.19238E-16                             [Flux_tot (units of input spectrum!)]
 1.59919E-12                             [Mini_tot (???)]
 9.51948E-13                             [Mcor_tot (???)]

  -9.74                                  [v0_min  (km/s)]
 319.68                                  [vd_min  (km/s)]
 0.3492                                  [AV_min  (mag)]
 0.0000                                  [YAV_min (mag)]

# j     x_j(%)      Mini_j(%)     Mcor_j(%)     age_j(yr)     Z_j      (L/M)_j    YAV?  Mstars   component_j        a/Fe...       SSP_chi2r SSP_adev(%)   SSP_AV   SSP_x(%)
  1      2.1607     8.4901E-02    1.4263E-01    1.000000E+06  0.00400  1.094E-02    0   1.0000   age020_m42            0.0000     1.0020E+00     3.6669   2.1322    94.0526
  2      0.1476     1.5837E-03    2.6603E-03    3.160000E+06  0.00400  4.007E-02    0   0.9999   age045_m42            0.0000     7.2259E-01     3.1220   1.4471    98.6364
  3      0.0000     0.0000E+00    0.0000E+00    5.010000E+06  0.00400  2.539E-02    0   0.9488   age055_m42            0.0000     7.5815E-01     3.1188   1.7489    97.0511
  4      0.0000     0.0000E+00    0.0000E+00    6.610000E+06  0.00400  2.620E-02    0   0.9220   age061_m42            0.0000     6.7792E-01     2.9986   1.3753    98.7992
  5      0.0000     0.0000E+00    0.0000E+00    1.000000E+07  0.00400  1.322E-02    0   0.8862   age070_m42            0.0000     4.9416E-01     2.3361   1.0911   101.1248
  6      0.0000     0.0000E+00    0.0000E+00    1.445000E+07  0.00400  7.883E-03    0   0.8571   age078_m42            0.0000     5.2516E-01     2.3444   1.4087    99.0034
  7      0.0000     0.0000E+00    0.0000E+00    2.512000E+07  0.00400  5.251E-03    0   0.8174   age090_m42            0.0000     5.1561E-01     2.4118   0.9637   101.5661
  8      0.0000     0.0000E+00    0.0000E+00    4.000000E+07  0.00400  3.649E-03    0   0.7851   age104_m42            0.0000     4.9756E-01     2.4461   0.7413   102.1500
  9      0.0000     0.0000E+00    0.0000E+00    5.500000E+07  0.00400  3.098E-03    0   0.7629   age110_m42            0.0000     6.1006E-01     2.6754   0.9042   101.6740
 10      0.0000     0.0000E+00    0.0000E+00    1.015200E+08  0.00400  2.228E-03    0   0.7207   age116_m42            0.0000     7.4744E-01     2.9270   0.9313   101.5236
 11      0.0000     0.0000E+00    0.0000E+00    2.861200E+08  0.00400  1.093E-03    0   0.6648   age125_m42            0.0000     8.2530E-01     3.1958   0.3723   104.2071
 12      0.0000     0.0000E+00    0.0000E+00    5.088000E+08  0.00400  6.597E-04    0   0.6365   age130_m42            0.0000     1.0214E+00     3.3206   0.3695   104.6593
 13      0.0118     2.3782E-02    2.3164E-02    1.434000E+09  0.00400  2.132E-04    0   0.5798   age139_m42            0.0000     1.1348E+00     3.5081  -0.5987   106.3962
 14      0.0000     0.0000E+00    0.0000E+00    4.250000E+09  0.00400  5.895E-05    0   0.5377   age158_m42            0.0000     1.5047E+00     3.9949  -1.0000   101.1447
 15      0.0000     0.0000E+00    0.0000E+00    7.500000E+09  0.00400  3.510E-05    0   0.5212   age171_m42            0.0000     3.1695E+00     5.9797  -1.0000    93.9907
 16      0.0000     0.0000E+00    0.0000E+00    1.300000E+10  0.00400  2.005E-05    0   0.5034   age193_m42            0.0000     5.8508E+00     8.5175  -1.0000    87.8802
 17      0.0000     0.0000E+00    0.0000E+00    1.800000E+10  0.00400  1.525E-05    0   0.4967   age213_m42            0.0000     6.1768E+00     8.8111  -1.0000    86.7124
 18      1.8086     6.2800E-02    1.0550E-01    1.000000E+06  0.00800  1.238E-02    0   1.0000   age020_m52            0.0000     1.0075E+00     3.6773   2.1286    94.2379
 19      4.9935     6.9830E-02    1.1691E-01    3.160000E+06  0.00800  3.074E-02    0   0.9966   age045_m52            0.0000     9.8048E-01     3.6206   2.0540    94.9690
 20      0.0022     3.5884E-05    5.6924E-05    5.010000E+06  0.00800  2.668E-02    0   0.9443   age055_m52            0.0000     7.7184E-01     3.1320   1.8257    96.4431
 21     38.2322     7.6943E-01    1.1862E+00    6.610000E+06  0.00800  2.136E-02    0   0.9177   age061_m52            0.0000     3.0207E-01     1.9082   0.5792   102.7764
 22      0.0008     2.9826E-05    4.4227E-05    1.000000E+07  0.00800  1.215E-02    0   0.8827   age070_m52            0.0000     5.1042E-01     2.3508   1.2652   101.1929
 23      0.0000     0.0000E+00    0.0000E+00    1.445000E+07  0.00800  8.717E-03    0   0.8552   age078_m52            0.0000     4.9089E-01     2.2684   1.3771   100.2245
 24      0.0000     0.0000E+00    0.0000E+00    2.512000E+07  0.00800  5.592E-03    0   0.8162   age090_m52            0.0000     5.1939E-01     2.4734   1.0313   102.5971
 25      0.0027     2.9875E-04    3.9353E-04    4.000000E+07  0.00800  3.896E-03    0   0.7841   age104_m52            0.0000     5.3465E-01     2.5669   0.9524   102.9621
 26      0.0000     0.0000E+00    0.0000E+00    1.015200E+08  0.00800  2.148E-03    0   0.7226   age116_m52            0.0000     5.9977E-01     2.6637   0.8971   102.4583
 27      0.0000     0.0000E+00    0.0000E+00    2.861200E+08  0.00800  9.925E-04    0   0.6683   age125_m52            0.0000     1.0169E+00     3.2452   0.4363   105.5210
 28      0.0000     0.0000E+00    0.0000E+00    9.047900E+08  0.00800  3.141E-04    0   0.6138   age135_m52            0.0000     1.5988E+00     4.0573  -0.3457   108.9358
 29      0.0000     0.0000E+00    0.0000E+00    1.434000E+09  0.00800  1.719E-04    0   0.5853   age139_m52            0.0000     1.4501E+00     4.0079  -0.9412   107.4946
 30      0.0000     0.0000E+00    0.0000E+00    2.500000E+09  0.00800  7.872E-05    0   0.5600   age150_m52            0.0000     3.0982E+00     5.8731  -1.0000    97.2267
 31      2.9407     2.9154E+01    2.6575E+01    4.250000E+09  0.00800  4.336E-05    0   0.5426   age158_m52            0.0000     3.3895E+00     6.0867  -1.0000    95.8125
 32      0.0000     0.0000E+00    0.0000E+00    6.250000E+09  0.00800  3.159E-05    0   0.5319   age166_m52            0.0000     6.7998E+00     9.1152  -1.0000    88.7491
 33      0.0000     0.0000E+00    0.0000E+00    1.300000E+10  0.00800  1.361E-05    0   0.5073   age193_m52            0.0000     1.9068E+01    15.7015  -1.0000    72.6442
 34      0.0000     0.0000E+00    0.0000E+00    1.800000E+10  0.00800  9.886E-06    0   0.4990   age213_m52            0.0000     2.2997E+01    17.1106  -1.0000    68.9521
 35      5.3982     1.5029E-01    2.5248E-01    1.000000E+06  0.02000  1.544E-02    0   1.0000   age020_m62            0.0000     1.0230E+00     3.7125   2.1226    94.5375
 36      7.9226     9.0529E-02    1.4992E-01    3.160000E+06  0.02000  3.762E-02    0   0.9858   age045_m62            0.0000     1.0222E+00     3.7032   2.0628    95.3431
 37      0.0000     0.0000E+00    0.0000E+00    5.010000E+06  0.02000  3.296E-02    0   0.9342   age055_m62            0.0000     7.6917E-01     3.1961   1.7156    97.9430
 38      1.4492     5.3984E-02    8.0359E-02    8.710000E+06  0.02000  1.154E-02    0   0.8861   age067_m62            0.0000     1.5763E+00     5.0480   0.7001   105.0515
 39      0.0000     0.0000E+00    0.0000E+00    1.445000E+07  0.02000  7.663E-03    0   0.8472   age078_m62            0.0000     6.1791E-01     2.8493   0.9118   103.6109
 40      0.0000     0.0000E+00    0.0000E+00    2.512000E+07  0.02000  4.532E-03    0   0.8099   age090_m62            0.0000     7.5174E-01     3.1805   0.9084   103.1504
 41      0.0000     0.0000E+00    0.0000E+00    5.500000E+07  0.02000  2.733E-03    0   0.7595   age110_m62            0.0000     5.0070E-01     2.4582   0.9294   102.5012
 42      0.0000     0.0000E+00    0.0000E+00    1.609000E+08  0.02000  1.369E-03    0   0.6985   age120_m62            0.0000     8.2663E-01     2.9630   0.7882   104.2884
 43      0.0000     0.0000E+00    0.0000E+00    2.861200E+08  0.02000  9.013E-04    0   0.6714   age125_m62            0.0000     1.2080E+00     3.4233   0.5499   106.5990
 44      0.0000     0.0000E+00    0.0000E+00    5.088000E+08  0.02000  5.028E-04    0   0.6449   age130_m62            0.0000     1.7099E+00     4.1588   0.1867   108.6193
 45      0.0000     0.0000E+00    0.0000E+00    9.047900E+08  0.02000  2.428E-04    0   0.6179   age135_m62            0.0000     1.7345E+00     4.2974  -0.4073   108.3368
 46      2.6599     9.0534E+00    8.9854E+00    1.434000E+09  0.02000  1.263E-04    0   0.5908   age139_m62            0.0000     1.9861E+00     4.5904  -0.8622   107.2453
 47      0.0000     0.0000E+00    0.0000E+00    2.500000E+09  0.02000  5.985E-05    0   0.5673   age150_m62            0.0000     3.9795E+00     6.5063  -1.0000    97.6609
 48      0.0000     0.0000E+00    0.0000E+00    4.250000E+09  0.02000  3.271E-05    0   0.5468   age158_m62            0.0000     9.6666E+00    10.8105  -1.0000    86.1134
 49      0.0000     0.0000E+00    0.0000E+00    1.000000E+10  0.02000  1.360E-05    0   0.5167   age181_m62            0.0000     1.9582E+01    15.5544  -1.0000    74.1750
 50      0.0000     0.0000E+00    0.0000E+00    1.800000E+10  0.02000  7.124E-06    0   0.5013   age213_m62            0.0000     2.6957E+01    18.1992  -1.0000    67.1188
 51      8.9113     1.4779E-01    2.4823E-01    1.000000E+06  0.05000  2.592E-02    0   0.9998   age020_m72            0.0000     1.0673E+00     3.7966   2.1108    94.7166
 52      1.3918     1.2349E-02    1.9868E-02    3.160000E+06  0.05000  4.845E-02    0   0.9577   age045_m72            0.0000     9.4417E-01     3.5300   1.9572    96.0922
 53      0.0000     0.0000E+00    0.0000E+00    5.010000E+06  0.05000  3.072E-02    0   0.9147   age055_m72            0.0000     5.9447E-01     2.6919   1.4936   100.0025
 54      0.0000     0.0000E+00    0.0000E+00    6.610000E+06  0.05000  1.455E-02    0   0.8877   age061_m72            0.0000     3.1862E+00     7.5577   0.7633   106.0046
 55      0.0000     0.0000E+00    0.0000E+00    1.000000E+07  0.05000  9.074E-03    0   0.8524   age070_m72            0.0000     8.9809E-01     3.5275   1.6946    99.3655
 56      0.0000     0.0000E+00    0.0000E+00    2.512000E+07  0.05000  4.250E-03    0   0.7902   age090_m72            0.0000     7.4123E-01     3.1700   1.3991   100.6513
 57      0.0000     0.0000E+00    0.0000E+00    4.000000E+07  0.05000  3.087E-03    0   0.7618   age104_m72            0.0000     8.3932E-01     3.4651   1.1766   102.0240
 58      0.0000     0.0000E+00    0.0000E+00    1.015200E+08  0.05000  1.700E-03    0   0.7096   age116_m72            0.0000     8.0849E-01     3.0827   0.9294   103.9926
 59      0.0000     0.0000E+00    0.0000E+00    2.861200E+08  0.05000  7.384E-04    0   0.6633   age125_m72            0.0000     1.4379E+00     3.7186   0.4255   107.5963
 60      6.5792     7.4057E+00    7.9274E+00    5.088000E+08  0.05000  3.819E-04    0   0.6372   age130_m72            0.0000     1.6870E+00     4.3363  -0.0672   109.2259
 61     19.3172     4.9546E+01    5.0856E+01    9.047900E+08  0.05000  1.676E-04    0   0.6110   age135_m72            0.0000     2.5773E+00     5.5270  -0.7759   107.9025
 62      0.6934     3.3730E+00    3.3284E+00    1.434000E+09  0.05000  8.837E-05    0   0.5874   age139_m72            0.0000     4.2832E+00     6.7325  -1.0000    99.0097
 63      0.0000     0.0000E+00    0.0000E+00    2.500000E+09  0.05000  4.233E-05    0   0.5598   age150_m72            0.0000     1.0081E+01    10.9393  -1.0000    86.8117
 64      0.0000     0.0000E+00    0.0000E+00    6.250000E+09  0.05000  1.435E-05    0   0.5249   age166_m72            0.0000     2.2787E+01    16.8212  -1.0000    70.8185
 65      0.0000     0.0000E+00    0.0000E+00    1.300000E+10  0.05000  6.513E-06    0   0.5036   age193_m72            0.0000     3.3221E+01    20.2341  -1.0000    63.0516
 66      0.0000     0.0000E+00    0.0000E+00    1.800000E+10  0.05000  4.527E-06    0   0.4945   age213_m72            0.0000     3.9701E+01    22.0839  -1.0000    58.4094


## Synthesis Results - Average & Chains ##

# j      x_j: min, <> & last-chain-values for 1 ...  7 chains
  1      2.1607      0.7075      0.8154      0.2447      1.0014      0.6546      1.2427      1.3208      0.8517
  2      0.1476      0.2509      0.4978      0.7056      0.0000      0.2630      0.8309      0.1535      0.0000
  3      0.0000      0.1663      0.0000      0.0000      0.0000      0.0000      0.0594      0.2802      0.0000
  4      0.0000      0.3095      0.0000      0.0000      0.2909      0.0000      0.3393      0.9721      0.0082
  5      0.0000      0.4590      0.0000      0.0000      0.0000      0.0000      0.0000      0.0000      1.9353
  6      0.0000      0.2175      0.0000      0.1714      0.0000      0.0000      0.0000      0.0000      0.0000
  7      0.0000      0.3467      0.2089      0.0000      0.0244      0.0000      0.2238      0.1905      0.3729
  8      0.0000      0.4349      0.0000      0.0000      0.0000      0.0000      0.0000      0.0000      0.0000
  9      0.0000      0.2913      0.9421      0.0000      0.0000      0.4694      0.0000      0.0000      0.0000
 10      0.0000      0.4025      0.0685      0.0000      0.2752      0.0000      0.0000      0.0000      0.0000
 11      0.0000      0.3495      0.0774      0.0000      0.0000      0.0000      0.0000      0.0000      0.0000
 12      0.0000      0.2678      0.6997      0.0000      0.2230      0.0000      0.0000      0.0000      0.0000
 13      0.0118      0.2386      0.0000      0.2389      1.2363      1.1973      1.0060      0.0008      0.0000
 14      0.0000      0.1671      0.0000      0.4226      0.0000      0.0000      0.0000      0.1327      0.0000
 15      0.0000      0.0898      0.0000      0.1678      0.0000      0.0000      0.0000      0.0000      0.0000
 16      0.0000      0.0547      0.3829      0.0000      0.3210      0.0000      0.0000      0.0000      0.0000
 17      0.0000      0.0309      0.1152      0.0000      0.0000      0.0000      0.2886      0.0000      0.0000
 18      1.8086      0.3466      0.3493      0.2204      0.9265      0.0000      2.0380      0.7027      0.0000
 19      4.9935      2.7486      3.5019      4.2559      2.3273      5.1010      3.5064      1.4537      2.9191
 20      0.0022      1.2488      2.0031      0.7406      2.0252      0.0000      1.4285      0.2080      0.0000
 21     38.2322     51.8464     53.5610     53.2619     49.8922     52.4917     47.8522     53.5103     53.0928
 22      0.0008      0.5737      0.1319      0.0000      0.0887      0.3131      1.3654      0.5289      1.3830
 23      0.0000      0.2417      0.0000      0.0000      0.0000      0.0000      0.2012      0.0000      0.1754
 24      0.0000      0.3774      0.3652      0.2343      0.0000      0.0000      0.0641      0.0158      0.0000
 25      0.0027      0.2611      0.2618      0.0000      0.0379      0.6458      0.8098      0.0000      0.1288
 26      0.0000      0.2907      0.0000      0.0135      0.0000      0.0000      0.0000      0.3882      0.0000
 27      0.0000      0.3158      0.0000      0.0000      0.0000      0.0000      0.0000      0.0000      0.0000
 28      0.0000      0.6161      0.0000      0.9181      0.0000      0.0000      0.0000      2.7472      1.9777
 29      0.0000      0.0920      0.5546      0.3988      0.0000      0.0000      0.0000      0.0000      0.0000
 30      0.0000      0.0456      0.2542      0.0000      0.2347      0.2010      0.0000      0.0000      0.0000
 31      2.9407      2.3052      2.3031      2.8392      1.9951      2.0190      2.4129      2.3954      2.3320
 32      0.0000      0.0459      0.0000      0.0000      0.0000      0.0000      0.0000      0.3541      0.0000
 33      0.0000      0.0124      0.0000      0.0000      0.0000      0.0000      0.0000      0.0000      0.0000
 34      0.0000      0.0112      0.0000      0.0000      0.0000      0.0000      0.0000      0.0000      0.0000
 35      5.3982      4.0296      4.2025      4.8935      4.1944      5.2421      3.7380      5.0871      4.6213
 36      7.9226      1.4719      1.8004      2.0370      2.2107      2.1556      1.9171      2.6740      0.4295
 37      0.0000      0.1488      0.0000      0.6165      0.5723      0.0000      0.0000      0.0000      0.0000
 38      1.4492      0.9490      0.9365      0.3816      2.5923      2.7011      2.3308      2.0408      0.1733
 39      0.0000      0.7132      0.0000      1.0527      0.0000      0.0000      0.0000      0.4866      1.1028
 40      0.0000      0.4642      0.0000      0.0000      0.0000      0.0000      0.0000      0.0000      0.0000
 41      0.0000      0.2638      0.0000      0.1252      0.0348      0.0000      0.0000      0.0000      0.0000
 42      0.0000      0.2081      0.0000      0.0000      0.0000      0.0000      0.0000      0.0000      0.1718
 43      0.0000      0.2612      0.0000      0.0000      0.0000      0.0000      0.0000      0.0000      0.0000
 44      0.0000      0.3512      0.0000      0.0742      0.0000      0.4067      0.0000      0.0000      0.0000
 45      0.0000      0.3845      0.0000      0.0000      1.6109      0.0098      0.0000      0.4818      0.4611
 46      2.6599      2.7493      3.2332      2.6734      2.8676      2.8416      3.0817      2.4223      3.1416
