###################################################################
## OUTPUT of StarlightChains_v04.for    [Cid@UFSC - 01/Apr/2007] ##
###################################################################

## Some input info
2006dy.txt                               [arq_obs]
Base.CB07.vall.4m                        [arq_base]
Masks.EmLines.NEW.gm                     [arq_masks]
StCv04.C11.config                        [arq_config]
   66                                    [N_base]
    0                                    [N_YAV_components = # of components with extra extinction!]
    0                                    [i_FitPowerLaw (1/0 = Yes/No)]
-9.99                                    [alpha_PowerLaw]
CCM                                      [red_law_option]
 1.458241                                [q_norm = A(l_norm)/A(V)]

## (Re)Sampling Parameters
 3741.00                                 [l_ini (A)]
 7218.00                                 [l_fin (A)]
    1.00                                 [dl    (A)]     (OBS: dl_cushion =    50.00 A)

## Normalization info
 4020.00                                 [l_norm (A) - for base]
 4010.00                                 [llow_norm (A) - window for f_obs]
 4060.00                                 [lupp_norm (A) - window for f_obs]
2.040718E-16                             [fobs_norm (in input units)]

## S/N
 3691.00                                 [llow_SN (A) - window for S/N]
 7268.00                                 [lupp_SN (A) - window for S/N]
   4.991                                 [S/N in S/N window]
   3.934                                 [S/N in norm. window]
  13.696                                 [S/N_err in S/N window]
  10.795                                 [S/N_err in norm. window]
  1.0000                                 [fscale_chi2]

## etc...
    -2007316                             [idum_orig]
  2378                                   [NOl_eff]
  2326                                   [Nl_eff]
    52    NSIGMA                         [Ntot_cliped & clip_method]
   851340                                [Nglobal_steps]
   7                                     [N_chains]
  15                                     [NEX0s_base = N_base in EX0s-fits]
 0   0   1       19   2.0   4.130E+01    [Clip-Bug, RC-Crash & Burn-In warning-flags, n_censored_weights, wei_nsig_threshold & wei_limit]
    12     11.262     10.581      0.681  [idt_all, wdt_TotTime, wdt_UsrTime & wdt_SysTime (sec)]

## Synthesis Results - Best model ##

 3.38047E-01                             [chi2/Nl_eff]
     3.20703                             [adev (%)]

   111.95532                             [sum-of-x (%)]
 1.82985E-16                             [Flux_tot (units of input spectrum!)]
 1.40935E-11                             [Mini_tot (???)]
 7.13946E-12                             [Mcor_tot (???)]

  13.33                                  [v0_min  (km/s)]
 187.18                                  [vd_min  (km/s)]
-0.1653                                  [AV_min  (mag)]
 0.0000                                  [YAV_min (mag)]

# j     x_j(%)      Mini_j(%)     Mcor_j(%)     age_j(yr)     Z_j      (L/M)_j    YAV?  Mstars   component_j        a/Fe...       SSP_chi2r SSP_adev(%)   SSP_AV   SSP_x(%)
  1      0.0000     0.0000E+00    0.0000E+00    1.000000E+06  0.00400  1.094E-02    0   1.0000   age020_m42            0.0000     3.2304E+00     9.3357   3.8652    84.4601
  2      0.0000     0.0000E+00    0.0000E+00    3.160000E+06  0.00400  4.007E-02    0   0.9999   age045_m42            0.0000     2.5370E+00     8.1593   3.0788    93.0923
  3      0.0000     0.0000E+00    0.0000E+00    5.010000E+06  0.00400  2.539E-02    0   0.9488   age055_m42            0.0000     2.8947E+00     8.7811   3.4272    89.5002
  4      0.0000     0.0000E+00    0.0000E+00    6.610000E+06  0.00400  2.620E-02    0   0.9220   age061_m42            0.0000     2.6006E+00     8.2657   3.0013    93.4583
  5      0.0000     0.0000E+00    0.0000E+00    1.000000E+07  0.00400  1.322E-02    0   0.8862   age070_m42            0.0000     3.2446E+00     9.4929   2.7096    95.6496
  6      0.0000     0.0000E+00    0.0000E+00    1.445000E+07  0.00400  7.883E-03    0   0.8571   age078_m42            0.0000     3.3710E+00     9.7066   3.0557    92.3508
  7      0.0000     0.0000E+00    0.0000E+00    2.512000E+07  0.00400  5.251E-03    0   0.8174   age090_m42            0.0000     3.3403E+00     9.6761   2.5721    96.4997
  8      0.0000     0.0000E+00    0.0000E+00    4.000000E+07  0.00400  3.649E-03    0   0.7851   age104_m42            0.0000     3.0782E+00     9.2686   2.3318    97.9880
  9      0.0000     0.0000E+00    0.0000E+00    5.500000E+07  0.00400  3.098E-03    0   0.7629   age110_m42            0.0000     2.7291E+00     8.5401   2.4826    98.2650
 10      0.0000     0.0000E+00    0.0000E+00    1.015200E+08  0.00400  2.228E-03    0   0.7207   age116_m42            0.0000     2.5188E+00     8.0729   2.4990    98.7327
 11      0.0000     0.0000E+00    0.0000E+00    2.861200E+08  0.00400  1.093E-03    0   0.6648   age125_m42            0.0000     2.5162E+00     8.3090   1.9002   103.1631
 12      0.0000     0.0000E+00    0.0000E+00    5.088000E+08  0.00400  6.597E-04    0   0.6365   age130_m42            0.0000     2.0549E+00     7.3460   1.8796   104.7431
 13      0.0000     0.0000E+00    0.0000E+00    1.434000E+09  0.00400  2.132E-04    0   0.5798   age139_m42            0.0000     1.2497E+00     5.8702   0.8720   108.9925
 14      0.0000     0.0000E+00    0.0000E+00    4.250000E+09  0.00400  5.895E-05    0   0.5377   age158_m42            0.0000     8.4446E-01     4.7781   0.4435   104.3828
 15      0.0000     0.0000E+00    0.0000E+00    7.500000E+09  0.00400  3.510E-05    0   0.5212   age171_m42            0.0000     7.1642E-01     4.3460   0.2541   103.8768
 16      0.0000     0.0000E+00    0.0000E+00    1.300000E+10  0.00400  2.005E-05    0   0.5034   age193_m42            0.0000     6.5262E-01     4.1336   0.0890   103.4161
 17      0.0000     0.0000E+00    0.0000E+00    1.800000E+10  0.00400  1.525E-05    0   0.4967   age213_m42            0.0000     6.8921E-01     4.2447   0.0681   102.8303
 18      0.0000     0.0000E+00    0.0000E+00    1.000000E+06  0.00800  1.238E-02    0   1.0000   age020_m52            0.0000     3.2267E+00     9.3222   3.8604    84.6625
 19      0.0000     0.0000E+00    0.0000E+00    3.160000E+06  0.00800  3.074E-02    0   0.9966   age045_m52            0.0000     3.1625E+00     9.2247   3.7812    85.5421
 20      0.0000     0.0000E+00    0.0000E+00    5.010000E+06  0.00800  2.668E-02    0   0.9443   age055_m52            0.0000     2.9802E+00     8.9601   3.5167    88.3768
 21      0.0000     0.0000E+00    0.0000E+00    6.610000E+06  0.00800  2.136E-02    0   0.9177   age061_m52            0.0000     2.8415E+00     9.0038   2.2017    97.2028
 22      0.0000     0.0000E+00    0.0000E+00    1.000000E+07  0.00800  1.215E-02    0   0.8827   age070_m52            0.0000     3.5536E+00    10.0919   2.8950    95.0649
 23      0.0000     0.0000E+00    0.0000E+00    1.445000E+07  0.00800  8.717E-03    0   0.8552   age078_m52            0.0000     3.2998E+00     9.6061   3.0137    93.9748
 24      0.0000     0.0000E+00    0.0000E+00    2.512000E+07  0.00800  5.592E-03    0   0.8162   age090_m52            0.0000     3.3143E+00     9.6689   2.6305    97.9228
 25      0.0000     0.0000E+00    0.0000E+00    4.000000E+07  0.00800  3.896E-03    0   0.7841   age104_m52            0.0000     3.0121E+00     9.1773   2.5314    99.3398
 26      0.0000     0.0000E+00    0.0000E+00    1.015200E+08  0.00800  2.148E-03    0   0.7226   age116_m52            0.0000     2.5286E+00     8.3124   2.4597    99.8300
 27      0.0000     0.0000E+00    0.0000E+00    2.861200E+08  0.00800  9.925E-04    0   0.6683   age125_m52            0.0000     1.9992E+00     7.2690   1.9408   105.9382
 28      6.6308     2.4482E-01    2.9664E-01    9.047900E+08  0.00800  3.141E-04    0   0.6138   age135_m52            0.0000     9.3557E-01     5.3525   1.0894   113.6413
 29      0.0000     0.0000E+00    0.0000E+00    1.434000E+09  0.00800  1.719E-04    0   0.5853   age139_m52            0.0000     8.6516E-01     5.0117   0.5214   110.7361
 30      0.0000     0.0000E+00    0.0000E+00    2.500000E+09  0.00800  7.872E-05    0   0.5600   age150_m52            0.0000     5.8309E-01     3.8889   0.2620   107.4992
 31      0.0005     1.3012E-04    1.3937E-04    4.250000E+09  0.00800  4.336E-05    0   0.5426   age158_m52            0.0000     5.9899E-01     3.9137   0.2489   106.3774
 32      0.0000     0.0000E+00    0.0000E+00    6.250000E+09  0.00800  3.159E-05    0   0.5319   age166_m52            0.0000     4.7820E-01     3.5074   0.0406   106.8427
 33      0.0000     0.0000E+00    0.0000E+00    1.300000E+10  0.00800  1.361E-05    0   0.5073   age193_m52            0.0000     4.1098E-01     3.3648  -0.4346   106.6981
 34      4.0154     4.7104E+00    4.6399E+00    1.800000E+10  0.00800  9.886E-06    0   0.4990   age213_m52            0.0000     4.2355E-01     3.5488  -0.5440   106.3869
 35      0.0000     0.0000E+00    0.0000E+00    1.000000E+06  0.02000  1.544E-02    0   1.0000   age020_m62            0.0000     3.2448E+00     9.3682   3.8593    84.7440
 36      0.0000     0.0000E+00    0.0000E+00    3.160000E+06  0.02000  3.762E-02    0   0.9858   age045_m62            0.0000     3.2216E+00     9.3558   3.7990    85.4850
 37      0.0000     0.0000E+00    0.0000E+00    5.010000E+06  0.02000  3.296E-02    0   0.9342   age055_m62            0.0000     2.7069E+00     8.4346   3.3783    91.0520
 38      0.0000     0.0000E+00    0.0000E+00    8.710000E+06  0.02000  1.154E-02    0   0.8861   age067_m62            0.0000     5.8087E+00    13.4890   2.3423    97.3070
 39      0.0000     0.0000E+00    0.0000E+00    1.445000E+07  0.02000  7.663E-03    0   0.8472   age078_m62            0.0000     3.9898E+00    10.9404   2.5292    97.7057
 40      0.0000     0.0000E+00    0.0000E+00    2.512000E+07  0.02000  4.532E-03    0   0.8099   age090_m62            0.0000     4.1500E+00    11.1586   2.5182    97.5676
 41      0.0000     0.0000E+00    0.0000E+00    5.500000E+07  0.02000  2.733E-03    0   0.7595   age110_m62            0.0000     3.0780E+00     9.2585   2.5210    98.2802
 42      0.0000     0.0000E+00    0.0000E+00    1.609000E+08  0.02000  1.369E-03    0   0.6985   age120_m62            0.0000     2.4517E+00     8.0194   2.3318   102.6020
 43      0.0000     0.0000E+00    0.0000E+00    2.861200E+08  0.02000  9.013E-04    0   0.6714   age125_m62            0.0000     2.0262E+00     7.2011   2.0518   107.2212
 44     14.6940     3.3892E-01    4.3146E-01    5.088000E+08  0.02000  5.028E-04    0   0.6449   age130_m62            0.0000     1.1987E+00     5.7374   1.6393   112.2757
 45      4.9743     2.3759E-01    2.8981E-01    9.047900E+08  0.02000  2.428E-04    0   0.6179   age135_m62            0.0000     7.0499E-01     4.5064   1.0433   112.3803
 46      0.0000     0.0000E+00    0.0000E+00    1.434000E+09  0.02000  1.263E-04    0   0.5908   age139_m62            0.0000     6.1326E-01     3.9865   0.6050   110.5208
 47      0.0000     0.0000E+00    0.0000E+00    2.500000E+09  0.02000  5.985E-05    0   0.5673   age150_m62            0.0000     4.8085E-01     3.4554   0.2436   108.9468
 48      0.0097     3.4265E-03    3.6985E-03    4.250000E+09  0.02000  3.271E-05    0   0.5468   age158_m62            0.0000     3.8788E-01     3.2997  -0.0673   108.5445
 49     30.0650     2.5637E+01    2.6150E+01    1.000000E+10  0.02000  1.360E-05    0   0.5167   age181_m62            0.0000     4.5701E-01     3.8035  -0.4241   108.8008
 50     42.0994     6.8533E+01    6.7820E+01    1.800000E+10  0.02000  7.124E-06    0   0.5013   age213_m62            0.0000     6.1060E-01     4.4483  -0.6327   108.0676
 51      0.0000     0.0000E+00    0.0000E+00    1.000000E+06  0.05000  2.592E-02    0   0.9998   age020_m72            0.0000     3.3237E+00     9.5267   3.8552    84.5646
 52      0.0000     0.0000E+00    0.0000E+00    3.160000E+06  0.05000  4.845E-02    0   0.9577   age045_m72            0.0000     2.9941E+00     8.9612   3.6671    87.3078
 53      0.0000     0.0000E+00    0.0000E+00    5.010000E+06  0.05000  3.072E-02    0   0.9147   age055_m72            0.0000     3.6977E+00    10.4730   3.1504    92.6208
 54      0.0000     0.0000E+00    0.0000E+00    6.610000E+06  0.05000  1.455E-02    0   0.8877   age061_m72            0.0000     7.5083E+00    15.9971   2.3948    97.9270
 55      0.0000     0.0000E+00    0.0000E+00    1.000000E+07  0.05000  9.074E-03    0   0.8524   age070_m72            0.0000     3.9432E+00    10.9004   3.3445    92.1271
 56      0.0000     0.0000E+00    0.0000E+00    2.512000E+07  0.05000  4.250E-03    0   0.7902   age090_m72            0.0000     3.6258E+00    10.3348   3.0097    95.2833
 57      0.0000     0.0000E+00    0.0000E+00    4.000000E+07  0.05000  3.087E-03    0   0.7618   age104_m72            0.0000     3.6617E+00    10.4053   2.7657    97.5930
 58      0.0000     0.0000E+00    0.0000E+00    1.015200E+08  0.05000  1.700E-03    0   0.7096   age116_m72            0.0000     2.7508E+00     8.6439   2.4775   101.9206
 59      0.0000     0.0000E+00    0.0000E+00    2.861200E+08  0.05000  7.384E-04    0   0.6633   age125_m72            0.0000     1.5852E+00     6.4002   1.8988   109.9657
 60      9.3011     2.8245E-01    3.5528E-01    5.088000E+08  0.05000  3.819E-04    0   0.6372   age130_m72            0.0000     8.6417E-01     4.8712   1.3853   113.1969
 61      0.1651     1.1424E-02    1.3779E-02    9.047900E+08  0.05000  1.676E-04    0   0.6110   age135_m72            0.0000     4.9549E-01     3.5166   0.6966   111.1540
 62      0.0000     0.0000E+00    0.0000E+00    1.434000E+09  0.05000  8.837E-05    0   0.5874   age139_m72            0.0000     4.5526E-01     3.3504   0.2353   111.0124
 63      0.0000     0.0000E+00    0.0000E+00    2.500000E+09  0.05000  4.233E-05    0   0.5598   age150_m72            0.0000     3.9939E-01     3.4001  -0.0706   109.6946
 64      0.0000     0.0000E+00    0.0000E+00    6.250000E+09  0.05000  1.435E-05    0   0.5249   age166_m72            0.0000     5.0206E-01     4.0547  -0.5188   108.3184
 65      0.0000     0.0000E+00    0.0000E+00    1.300000E+10  0.05000  6.513E-06    0   0.5036   age193_m72            0.0000     7.6017E-01     5.0295  -0.7933   109.2892
 66      0.0000     0.0000E+00    0.0000E+00    1.800000E+10  0.05000  4.527E-06    0   0.4945   age213_m72            0.0000     9.7254E-01     5.6802  -0.9486   108.9121


## Synthesis Results - Average & Chains ##

# j      x_j: min, <> & last-chain-values for 1 ...  7 chains
  1      0.0000      0.0057      0.0000      0.0000      0.0000      0.0000      0.0000      0.0000      0.0000
  2      0.0000      0.0643      0.0000      0.0000      0.0000      0.0000      0.0000      0.0000      0.0287
  3      0.0000      0.0075      0.0000      0.0000      0.0462      0.0000      0.0000      0.0000      0.0000
  4      0.0000      0.0190      0.0000      0.0000      0.0000      0.0000      0.0000      0.0000      0.0000
  5      0.0000      0.0340      0.0000      0.1571      0.0000      0.0000      0.0000      0.0000      0.0000
  6      0.0000      0.0135      0.0000      0.0000      0.0000      0.0000      0.0000      0.0000      0.0000
  7      0.0000      0.0161      0.0000      0.0000      0.0000      0.0000      0.0000      0.0000      0.0000
  8      0.0000      0.0260      0.0000      0.0175      0.0000      0.0000      0.0000      0.0000      0.0000
  9      0.0000      0.0868      0.0000      0.0000      0.0000      0.0000      0.0000      0.0000      0.0000
 10      0.0000      0.0551      0.0000      0.0000      0.0000      0.0000      0.0000      0.0000      0.0000
 11      0.0000      0.1524      0.0000      0.0000      0.0000      1.6103      0.0000      0.0000      0.0000
 12      0.0000      0.2334      0.0000      0.0000      0.0000      0.0000      0.0691      2.6902      0.0000
 13      0.0000      1.8283      1.3891      0.7520      1.6538      1.7800      1.3536      2.7961      2.2627
 14      0.0000      0.6640      0.0000      0.0000      0.0000      0.0000      0.3288      0.3785      0.0000
 15      0.0000      1.4300      0.0000      0.5931      1.5804      1.3679      0.0000      0.3992      0.0000
 16      0.0000      1.2022      0.0000      0.0000      1.5494      0.0000      6.2883      0.5718      1.6013
 17      0.0000      1.2343      0.1726      1.0809      0.0000      0.0602      0.0000      0.0000      0.0000
 18      0.0000      0.0029      0.0000      0.0000      0.0000      0.0166      0.0000      0.0000      0.0000
 19      0.0000      0.0029      0.0000      0.0000      0.0000      0.0000      0.0000      0.0000      0.0000
 20      0.0000      0.0083      0.0000      0.0000      0.0000      0.0000      0.0000      0.0000      0.0000
 21      0.0000      0.0355      0.0000      0.0000      0.0000      0.0000      0.0116      0.0000      0.0000
 22      0.0000      0.0213      0.1486      0.0000      0.0000      0.0000      0.0000      0.0000      0.0000
 23      0.0000      0.0100      0.0000      0.0000      0.0000      0.0000      0.0000      0.0000      0.0000
 24      0.0000      0.0111      0.0199      0.0000      0.0000      0.0000      0.0000      0.0000      0.0000
 25      0.0000      0.0136      0.0000      0.0000      0.0000      0.0000      0.0000      0.0000      0.0000
 26      0.0000      0.0628      0.9132      0.0000      0.0000      0.0000      0.0000      0.0000      0.0000
 27      0.0000      0.2246      0.0000      0.0000      0.2495      0.0000      0.0000      0.5840      0.0000
 28      6.6308      3.3388      5.2253      4.2772      3.3149      4.5883      4.5413      4.3355      3.7236
 29      0.0000      1.0432      0.0000      0.6500      1.9678      2.3869      2.5861      0.0000      0.0000
 30      0.0000      1.1379      1.5103      0.0000      0.0000      3.4242      1.1568      0.0000      0.0000
 31      0.0005      1.2879      1.6329      0.0000      0.0000      1.1967      0.0000      0.1572      2.6002
 32      0.0000      5.3112      2.1191     12.9603      3.4919      0.0000      0.4573      0.0000      7.0247
 33      0.0000      0.6347      0.0000      0.0633      0.0000      0.0000      0.0000      0.0000      1.1033
 34      4.0154      1.1724      3.5092      0.6898      0.0000      0.0000      1.1395      3.8945      0.8816
 35      0.0000      0.0034      0.0000      0.0000      0.0000      0.0000      0.0000      0.0000      0.0000
 36      0.0000      0.0075      0.0000      0.0000      0.0000      0.0000      0.0000      0.0000      0.0000
 37      0.0000      0.0306      0.0000      0.0000      0.0000      0.0000      0.0000      0.0000      0.0000
 38      0.0000      0.0068      0.0000      0.0000      0.0000      0.0000      0.0000      0.0000      0.0000
 39      0.0000      0.0121      0.0000      0.0000      0.0000      0.0000      0.0000      0.0000      0.0000
 40      0.0000      0.0169      0.0000      0.0000      0.0000      0.0000      0.0000      0.0000      0.0000
 41      0.0000      0.0164      0.0000      0.0000      0.0000      0.0000      0.0000      0.0000      0.0000
 42      0.0000      0.0563      0.0000      0.0000      0.0000      0.0000      0.0000      0.0960      0.0000
 43      0.0000      0.2868      0.0000      0.0000      0.0000      0.0000      1.4710      0.0000      0.1342
 44     14.6940      8.1454      9.6973      8.9785      9.5768      8.0256      9.9599      8.5933     11.5530
 45      4.9743      1.7511      0.0000      4.6030      1.1376      1.5108      2.8566      3.5969      4.6177
 46      0.0000      0.6276      0.0000      0.0000      0.0000      0.0000      0.0000      0.0000      0.5647
