###################################################################
## OUTPUT of StarlightChains_v04.for    [Cid@UFSC - 01/Apr/2007] ##
###################################################################

## Some input info
2006qp.txt                               [arq_obs]
Base.CB07.vall.4m                        [arq_base]
Masks.EmLines.NEW.gm                     [arq_masks]
StCv04.C11.config                        [arq_config]
   66                                    [N_base]
    0                                    [N_YAV_components = # of components with extra extinction!]
    0                                    [i_FitPowerLaw (1/0 = Yes/No)]
-9.99                                    [alpha_PowerLaw]
CCM                                      [red_law_option]
 1.458241                                [q_norm = A(l_norm)/A(V)]

## (Re)Sampling Parameters
 3741.00                                 [l_ini (A)]
 7218.00                                 [l_fin (A)]
    1.00                                 [dl    (A)]     (OBS: dl_cushion =    50.00 A)

## Normalization info
 4020.00                                 [l_norm (A) - for base]
 4010.00                                 [llow_norm (A) - window for f_obs]
 4060.00                                 [lupp_norm (A) - window for f_obs]
4.386076E-17                             [fobs_norm (in input units)]

## S/N
 3691.00                                 [llow_SN (A) - window for S/N]
 7268.00                                 [lupp_SN (A) - window for S/N]
   4.040                                 [S/N in S/N window]
   5.416                                 [S/N in norm. window]
  10.000                                 [S/N_err in S/N window]
  13.405                                 [S/N_err in norm. window]
  1.0000                                 [fscale_chi2]

## etc...
    -2007324                             [idum_orig]
  2374                                   [NOl_eff]
  2182                                   [Nl_eff]
   192    NSIGMA                         [Ntot_cliped & clip_method]
   729540                                [Nglobal_steps]
   7                                     [N_chains]
  12                                     [NEX0s_base = N_base in EX0s-fits]
 0   0   1       25   2.0   2.658E+01    [Clip-Bug, RC-Crash & Burn-In warning-flags, n_censored_weights, wei_nsig_threshold & wei_limit]
    11     10.089      9.583      0.506  [idt_all, wdt_TotTime, wdt_UsrTime & wdt_SysTime (sec)]

## Synthesis Results - Best model ##

 1.61673E+00                             [chi2/Nl_eff]
    10.41424                             [adev (%)]

    99.44074                             [sum-of-x (%)]
 3.59439E-17                             [Flux_tot (units of input spectrum!)]
 3.89513E-13                             [Mini_tot (???)]
 2.08885E-13                             [Mcor_tot (???)]

  89.62                                  [v0_min  (km/s)]
 156.88                                  [vd_min  (km/s)]
-0.1440                                  [AV_min  (mag)]
 0.0000                                  [YAV_min (mag)]

# j     x_j(%)      Mini_j(%)     Mcor_j(%)     age_j(yr)     Z_j      (L/M)_j    YAV?  Mstars   component_j        a/Fe...       SSP_chi2r SSP_adev(%)   SSP_AV   SSP_x(%)
  1      0.0000     0.0000E+00    0.0000E+00    1.000000E+06  0.00400  1.094E-02    0   1.0000   age020_m42            0.0000     2.7540E+00    12.8221   2.5707    77.0798
  2      0.0000     0.0000E+00    0.0000E+00    3.160000E+06  0.00400  4.007E-02    0   0.9999   age045_m42            0.0000     2.2479E+00    11.9251   1.8025    84.1113
  3      0.0000     0.0000E+00    0.0000E+00    5.010000E+06  0.00400  2.539E-02    0   0.9488   age055_m42            0.0000     2.4536E+00    12.3072   2.1427    81.2456
  4      0.0000     0.0000E+00    0.0000E+00    6.610000E+06  0.00400  2.620E-02    0   0.9220   age061_m42            0.0000     2.2175E+00    11.8486   1.7266    84.3861
  5      0.0000     0.0000E+00    0.0000E+00    1.000000E+07  0.00400  1.322E-02    0   0.8862   age070_m42            0.0000     2.3145E+00    11.9329   1.4471    85.9473
  6      0.0000     0.0000E+00    0.0000E+00    1.445000E+07  0.00400  7.883E-03    0   0.8571   age078_m42            0.0000     2.4487E+00    12.2098   1.7855    83.2944
  7      0.0000     0.0000E+00    0.0000E+00    2.512000E+07  0.00400  5.251E-03    0   0.8174   age090_m42            0.0000     2.3118E+00    11.9042   1.3150    86.5063
  8      0.0000     0.0000E+00    0.0000E+00    4.000000E+07  0.00400  3.649E-03    0   0.7851   age104_m42            0.0000     2.2056E+00    11.7006   1.0789    87.6301
  9      0.0000     0.0000E+00    0.0000E+00    5.500000E+07  0.00400  3.098E-03    0   0.7629   age110_m42            0.0000     2.1019E+00    11.5104   1.2269    87.9370
 10      0.0000     0.0000E+00    0.0000E+00    1.015200E+08  0.00400  2.228E-03    0   0.7207   age116_m42            0.0000     2.0298E+00    11.3537   1.2410    88.4104
 11      0.0000     0.0000E+00    0.0000E+00    2.861200E+08  0.00400  1.093E-03    0   0.6648   age125_m42            0.0000     1.9472E+00    11.1701   0.6532    91.8123
 12      0.0000     0.0000E+00    0.0000E+00    5.088000E+08  0.00400  6.597E-04    0   0.6365   age130_m42            0.0000     1.8353E+00    10.9180   0.6357    93.0285
 13      0.2464     1.0725E-01    1.1595E-01    1.434000E+09  0.00400  2.132E-04    0   0.5798   age139_m42            0.0000     1.6565E+00    10.4664  -0.3442    95.4956
 14      0.0000     0.0000E+00    0.0000E+00    4.250000E+09  0.00400  5.895E-05    0   0.5377   age158_m42            0.0000     1.8430E+00    10.9208  -0.7682    91.2408
 15      0.0000     0.0000E+00    0.0000E+00    7.500000E+09  0.00400  3.510E-05    0   0.5212   age171_m42            0.0000     1.9359E+00    11.1482  -0.9512    90.4799
 16      0.0000     0.0000E+00    0.0000E+00    1.300000E+10  0.00400  2.005E-05    0   0.5034   age193_m42            0.0000     2.0812E+00    11.4685  -1.0000    86.0681
 17      0.0000     0.0000E+00    0.0000E+00    1.800000E+10  0.00400  1.525E-05    0   0.4967   age213_m42            0.0000     2.0961E+00    11.4968  -1.0000    84.9146
 18      0.0000     0.0000E+00    0.0000E+00    1.000000E+06  0.00800  1.238E-02    0   1.0000   age020_m52            0.0000     2.7540E+00    12.8211   2.5675    77.2156
 19      0.0000     0.0000E+00    0.0000E+00    3.160000E+06  0.00800  3.074E-02    0   0.9966   age045_m52            0.0000     2.7062E+00    12.7424   2.4885    78.0116
 20      0.0000     0.0000E+00    0.0000E+00    5.010000E+06  0.00800  2.668E-02    0   0.9443   age055_m52            0.0000     2.5148E+00    12.4120   2.2299    80.3273
 21      0.0000     0.0000E+00    0.0000E+00    6.610000E+06  0.00800  2.136E-02    0   0.9177   age061_m52            0.0000     2.2726E+00    11.7877   0.9496    86.9253
 22      0.0000     0.0000E+00    0.0000E+00    1.000000E+07  0.00800  1.215E-02    0   0.8827   age070_m52            0.0000     2.4346E+00    12.1494   1.6306    85.5030
 23      0.0000     0.0000E+00    0.0000E+00    1.445000E+07  0.00800  8.717E-03    0   0.8552   age078_m52            0.0000     2.3881E+00    12.0747   1.7449    84.6981
 24      0.0000     0.0000E+00    0.0000E+00    2.512000E+07  0.00800  5.592E-03    0   0.8162   age090_m52            0.0000     2.2772E+00    11.8310   1.3734    87.7446
 25      0.0000     0.0000E+00    0.0000E+00    4.000000E+07  0.00800  3.896E-03    0   0.7841   age104_m52            0.0000     2.1649E+00    11.6291   1.2771    88.8290
 26      0.0000     0.0000E+00    0.0000E+00    1.015200E+08  0.00800  2.148E-03    0   0.7226   age116_m52            0.0000     2.0217E+00    11.3658   1.2049    89.2247
 27      0.0000     0.0000E+00    0.0000E+00    2.861200E+08  0.00800  9.925E-04    0   0.6683   age125_m52            0.0000     1.8181E+00    10.8854   0.6975    94.0060
 28     19.4773     5.7544E+00    6.5863E+00    9.047900E+08  0.00800  3.141E-04    0   0.6138   age135_m52            0.0000     1.6366E+00    10.4480  -0.1246    99.2561
 29      0.0000     0.0000E+00    0.0000E+00    1.434000E+09  0.00800  1.719E-04    0   0.5853   age139_m52            0.0000     1.7244E+00    10.6366  -0.6881    96.5613
 30      0.0000     0.0000E+00    0.0000E+00    2.500000E+09  0.00800  7.872E-05    0   0.5600   age150_m52            0.0000     1.8660E+00    11.0330  -0.9431    93.5400
 31      0.0000     0.0000E+00    0.0000E+00    4.250000E+09  0.00800  4.336E-05    0   0.5426   age158_m52            0.0000     1.9326E+00    11.1805  -0.9543    92.4875
 32      0.0000     0.0000E+00    0.0000E+00    6.250000E+09  0.00800  3.159E-05    0   0.5319   age166_m52            0.0000     2.1236E+00    11.5624  -1.0000    87.1239
 33      4.4598     3.0409E+01    2.8766E+01    1.300000E+10  0.00800  1.361E-05    0   0.5073   age193_m52            0.0000     3.4976E+00    14.1686  -1.0000    71.1766
 34      0.0000     0.0000E+00    0.0000E+00    1.800000E+10  0.00800  9.886E-06    0   0.4990   age213_m52            0.0000     4.0400E+00    15.0571  -1.0000    67.5584
 35      0.0000     0.0000E+00    0.0000E+00    1.000000E+06  0.02000  1.544E-02    0   1.0000   age020_m62            0.0000     2.7663E+00    12.8420   2.5639    77.3811
 36      0.0000     0.0000E+00    0.0000E+00    3.160000E+06  0.02000  3.762E-02    0   0.9858   age045_m62            0.0000     2.7472E+00    12.8149   2.5018    78.1172
 37      0.0000     0.0000E+00    0.0000E+00    5.010000E+06  0.02000  3.296E-02    0   0.9342   age055_m62            0.0000     2.3455E+00    12.1230   2.0924    82.6742
 38      0.0000     0.0000E+00    0.0000E+00    8.710000E+06  0.02000  1.154E-02    0   0.8861   age067_m62            0.0000     3.1461E+00    13.4260   1.0916    87.1024
 39      0.0000     0.0000E+00    0.0000E+00    1.445000E+07  0.02000  7.663E-03    0   0.8472   age078_m62            0.0000     2.5529E+00    12.3333   1.2729    87.5196
 40      0.0000     0.0000E+00    0.0000E+00    2.512000E+07  0.02000  4.532E-03    0   0.8099   age090_m62            0.0000     2.5740E+00    12.3909   1.2633    87.3245
 41      0.0000     0.0000E+00    0.0000E+00    5.500000E+07  0.02000  2.733E-03    0   0.7595   age110_m62            0.0000     2.2017E+00    11.6819   1.2647    87.9892
 42      0.0000     0.0000E+00    0.0000E+00    1.609000E+08  0.02000  1.369E-03    0   0.6985   age120_m62            0.0000     1.9535E+00    11.1513   1.0780    91.6182
 43      0.0000     0.0000E+00    0.0000E+00    2.861200E+08  0.02000  9.013E-04    0   0.6714   age125_m62            0.0000     1.8131E+00    10.8240   0.8090    95.1768
 44     15.4138     2.8448E+00    3.4211E+00    5.088000E+08  0.02000  5.028E-04    0   0.6449   age130_m62            0.0000     1.6754E+00    10.6135   0.4127    98.7477
 45      0.0000     0.0000E+00    0.0000E+00    9.047900E+08  0.02000  2.428E-04    0   0.6179   age135_m62            0.0000     1.6900E+00    10.6121  -0.1715    98.2112
 46      0.0000     0.0000E+00    0.0000E+00    1.434000E+09  0.02000  1.263E-04    0   0.5908   age139_m62            0.0000     1.8175E+00    10.9045  -0.6025    96.2632
 47      0.0000     0.0000E+00    0.0000E+00    2.500000E+09  0.02000  5.985E-05    0   0.5673   age150_m62            0.0000     1.9882E+00    11.3394  -0.9574    94.5645
 48      0.0000     0.0000E+00    0.0000E+00    4.250000E+09  0.02000  3.271E-05    0   0.5468   age158_m62            0.0000     2.3909E+00    12.0873  -1.0000    84.6852
 49      7.4079     5.0547E+01    4.8702E+01    1.000000E+10  0.02000  1.360E-05    0   0.5167   age181_m62            0.0000     3.6018E+00    14.2558  -1.0000    72.8627
 50      0.0000     0.0000E+00    0.0000E+00    1.800000E+10  0.02000  7.124E-06    0   0.5013   age213_m62            0.0000     4.6391E+00    15.8746  -1.0000    65.8698
 51      0.0000     0.0000E+00    0.0000E+00    1.000000E+06  0.05000  2.592E-02    0   0.9998   age020_m72            0.0000     2.8200E+00    12.9214   2.5602    77.2259
 52      0.0000     0.0000E+00    0.0000E+00    3.160000E+06  0.05000  4.845E-02    0   0.9577   age045_m72            0.0000     2.5905E+00    12.5731   2.3725    79.6443
 53      0.0000     0.0000E+00    0.0000E+00    5.010000E+06  0.05000  3.072E-02    0   0.9147   age055_m72            0.0000     2.6405E+00    12.5800   1.8728    83.6934
 54      0.0000     0.0000E+00    0.0000E+00    6.610000E+06  0.05000  1.455E-02    0   0.8877   age061_m72            0.0000     3.9290E+00    14.9560   1.1309    87.7902
 55      0.0000     0.0000E+00    0.0000E+00    1.000000E+07  0.05000  9.074E-03    0   0.8524   age070_m72            0.0000     2.8409E+00    13.0612   2.0518    83.5099
 56      0.0000     0.0000E+00    0.0000E+00    2.512000E+07  0.05000  4.250E-03    0   0.7902   age090_m72            0.0000     2.5176E+00    12.4080   1.7362    85.7836
 57      0.0000     0.0000E+00    0.0000E+00    4.000000E+07  0.05000  3.087E-03    0   0.7618   age104_m72            0.0000     2.4407E+00    12.2306   1.4982    87.6357
 58      0.0000     0.0000E+00    0.0000E+00    1.015200E+08  0.05000  1.700E-03    0   0.7096   age116_m72            0.0000     2.0338E+00    11.3390   1.2227    91.0545
 59     20.4925     2.5754E+00    3.1854E+00    2.861200E+08  0.05000  7.384E-04    0   0.6633   age125_m72            0.0000     1.7157E+00    10.6539   0.6657    97.0939
 60     31.9426     7.7617E+00    9.2225E+00    5.088000E+08  0.05000  3.819E-04    0   0.6372   age130_m72            0.0000     1.6395E+00    10.5124   0.1656    99.2284
 61      0.0000     0.0000E+00    0.0000E+00    9.047900E+08  0.05000  1.676E-04    0   0.6110   age135_m72            0.0000     1.8822E+00    11.1158  -0.5128    96.9049
 62      0.0000     0.0000E+00    0.0000E+00    1.434000E+09  0.05000  8.837E-05    0   0.5874   age139_m72            0.0000     2.0263E+00    11.4062  -0.9617    96.1433
 63      0.0004     9.0984E-04    9.4976E-04    2.500000E+09  0.05000  4.233E-05    0   0.5598   age150_m72            0.0000     2.4681E+00    12.2528  -1.0000    85.4198
 64      0.0000     0.0000E+00    0.0000E+00    6.250000E+09  0.05000  1.435E-05    0   0.5249   age166_m72            0.0000     4.0267E+00    14.9868  -1.0000    69.5520
 65      0.0000     0.0000E+00    0.0000E+00    1.300000E+10  0.05000  6.513E-06    0   0.5036   age193_m72            0.0000     5.5287E+00    17.2336  -1.0000    61.8434
 66      0.0000     0.0000E+00    0.0000E+00    1.800000E+10  0.05000  4.527E-06    0   0.4945   age213_m72            0.0000     6.4994E+00    18.5976  -1.0000    57.2462


## Synthesis Results - Average & Chains ##

# j      x_j: min, <> & last-chain-values for 1 ...  7 chains
  1      0.0000      0.0102      0.0000      0.0000      0.0000      0.0000      0.0000      0.0000      0.0000
  2      0.0000      0.0853      0.0000      0.1224      0.0000      0.0000      0.0000      0.0000      0.0000
  3      0.0000      0.0240      0.0000      0.0000      0.0000      0.0000      0.0000      0.0000      0.0000
  4      0.0000      0.0574      0.0000      0.0000      0.0000      0.0000      0.0000      0.0000      0.0000
  5      0.0000      0.0783      0.0000      0.0000      0.0000      0.0000      0.0000      0.0000      0.0000
  6      0.0000      0.0370      0.0000      0.0000      0.0000      0.0000      0.0754      0.0000      0.0000
  7      0.0000      0.0612      0.0000      0.0000      0.0000      0.0000      0.0000      0.0000      0.0000
  8      0.0000      0.0836      0.0000      0.0000      0.0000      0.0000      0.0000      0.0000      0.0000
  9      0.0000      0.1023      0.0000      0.0000      0.0000      0.0000      0.0000      0.0000      0.0000
 10      0.0000      0.2129      0.0000      0.0000      0.0000      0.0000      0.0000      0.0000      0.0000
 11      0.0000      0.3333      0.0000      0.9684      0.0000      0.0000      0.4245      0.0000      0.1135
 12      0.0000      0.6274      0.0000      0.0000      0.3585      0.7040      0.0000      0.0000      0.0000
 13      0.2464      9.2135      8.0523     11.1164      9.2925     10.5312      7.0947      6.8754     10.5030
 14      0.0000      0.5671      0.0000      0.3192      0.0000      0.0000      2.8341      0.0000      0.0000
 15      0.0000      0.4017      0.0000      0.0000      0.1112      1.3653      0.0000      0.7475      0.0000
 16      0.0000      0.2178      0.3531      0.0000      0.1060      0.0000      0.0000      0.6950      0.0000
 17      0.0000      0.2515      0.2329      0.0000      0.0000      0.0000      0.8690      0.0000      0.3473
 18      0.0000      0.0165      0.0000      0.0000      0.0000      0.0000      0.0000      0.0000      0.0000
 19      0.0000      0.0332      0.0000      0.0000      0.0000      0.0000      0.0000      0.0000      0.0000
 20      0.0000      0.0165      0.0000      0.0000      0.0000      0.0000      0.0000      0.0000      0.0000
 21      0.0000      0.1041      0.0000      0.0000      0.0000      0.0000      0.0000      0.0000      0.0000
 22      0.0000      0.0446      0.0000      0.0000      0.0000      0.0000      0.0000      0.0000      0.0000
 23      0.0000      0.0608      0.0000      0.0872      0.0000      0.0000      0.0000      0.0000      0.0000
 24      0.0000      0.1001      0.0000      0.0000      0.0000      0.0000      0.0000      0.0000      0.0000
 25      0.0000      0.1212      0.0000      0.0000      0.0973      0.0000      0.0000      0.0000      0.0000
 26      0.0000      0.1219      0.0000      0.0000      0.1081      0.0000      0.0000      0.0000      0.0000
 27      0.0000      0.4556      0.0000      0.2293      0.0000      0.0000      0.0000      0.0782      0.0000
 28     19.4773     15.9846     16.1788     17.3329     22.1825     16.6399     17.8610     18.0764     13.8829
 29      0.0000      0.3900      0.0000      0.0000      0.0000      0.5582      0.0000      0.0000      0.0000
 30      0.0000      0.1198      0.0000      0.0000      0.0000      0.0000      0.0000      0.0000      0.0000
 31      0.0000      0.1407      0.0000      0.1197      0.0000      0.0000      0.0000      0.0000      0.0000
 32      0.0000      0.0908      0.0000      0.4994      0.0000      0.5655      0.0000      0.0000      0.0000
 33      4.4598      0.3746      0.0961      0.0000      0.7596      0.0000      1.7416      0.9670      0.3792
 34      0.0000      0.1197      0.1704      0.0000      0.5837      0.0000      0.0000      0.0000      0.0000
 35      0.0000      0.0160      0.0000      0.0000      0.0000      0.0000      0.0000      0.0000      0.0000
 36      0.0000      0.0226      0.0000      0.0000      0.0000      0.0000      0.0000      0.0168      0.0000
 37      0.0000      0.0574      0.0000      0.0000      0.0000      0.0000      0.0000      0.0000      0.0000
 38      0.0000      0.0601      0.0000      0.0000      0.0000      0.0000      0.0000      0.0000      0.0000
 39      0.0000      0.0494      0.0000      0.0000      0.0000      0.0000      0.0000      0.0000      0.0000
 40      0.0000      0.0496      0.0000      0.0000      0.0000      0.3134      0.0000      0.0000      0.0000
 41      0.0000      0.1058      0.0000      0.0000      0.0000      0.0000      0.0000      0.0000      0.0000
 42      0.0000      0.3366      0.0000      0.0000      0.0661      0.2238      0.0000      1.3741      0.0000
 43      0.0000      1.5390      3.3796      2.2552      2.6672      4.9437      0.0000      0.0000      0.0000
 44     15.4138     19.2503     22.5668     19.5960     14.8546     18.7831     23.9542     22.7875     20.1489
 45      0.0000      2.4453      0.0000      2.0781      0.0000      0.0000      1.3348      4.5107      0.0000
 46      0.0000      0.7466      0.7652      1.0867      2.1075      0.0000      0.0000      0.1398      0.8925
