###################################################################
## OUTPUT of StarlightChains_v04.for    [Cid@UFSC - 01/Apr/2007] ##
###################################################################

## Some input info
2006eh.txt                               [arq_obs]
Base.CB07.vall.4m                        [arq_base]
Masks.EmLines.NEW.gm                     [arq_masks]
StCv04.C11.config                        [arq_config]
   66                                    [N_base]
    0                                    [N_YAV_components = # of components with extra extinction!]
    0                                    [i_FitPowerLaw (1/0 = Yes/No)]
-9.99                                    [alpha_PowerLaw]
CCM                                      [red_law_option]
 1.458241                                [q_norm = A(l_norm)/A(V)]

## (Re)Sampling Parameters
 3741.00                                 [l_ini (A)]
 7218.00                                 [l_fin (A)]
    1.00                                 [dl    (A)]     (OBS: dl_cushion =    50.00 A)

## Normalization info
 4020.00                                 [l_norm (A) - for base]
 4010.00                                 [llow_norm (A) - window for f_obs]
 4060.00                                 [lupp_norm (A) - window for f_obs]
4.253291E-17                             [fobs_norm (in input units)]

## S/N
 3691.00                                 [llow_SN (A) - window for S/N]
 7268.00                                 [lupp_SN (A) - window for S/N]
   8.265                                 [S/N in S/N window]
   9.710                                 [S/N in norm. window]
   8.818                                 [S/N_err in S/N window]
  10.360                                 [S/N_err in norm. window]
  1.0000                                 [fscale_chi2]

## etc...
    -2007319                             [idum_orig]
  2340                                   [NOl_eff]
  2338                                   [Nl_eff]
     2    NSIGMA                         [Ntot_cliped & clip_method]
  2068290                                [Nglobal_steps]
   7                                     [N_chains]
  36                                     [NEX0s_base = N_base in EX0s-fits]
 0   0   1        0   2.0   2.648E+01    [Clip-Bug, RC-Crash & Burn-In warning-flags, n_censored_weights, wei_nsig_threshold & wei_limit]
    18     17.842     17.336      0.506  [idt_all, wdt_TotTime, wdt_UsrTime & wdt_SysTime (sec)]

## Synthesis Results - Best model ##

 4.27554E-01                             [chi2/Nl_eff]
     5.90795                             [adev (%)]

    96.89485                             [sum-of-x (%)]
 5.69946E-17                             [Flux_tot (units of input spectrum!)]
 5.53812E-13                             [Mini_tot (???)]
 3.05058E-13                             [Mcor_tot (???)]

  44.50                                  [v0_min  (km/s)]
 132.21                                  [vd_min  (km/s)]
 0.2414                                  [AV_min  (mag)]
 0.0000                                  [YAV_min (mag)]

# j     x_j(%)      Mini_j(%)     Mcor_j(%)     age_j(yr)     Z_j      (L/M)_j    YAV?  Mstars   component_j        a/Fe...       SSP_chi2r SSP_adev(%)   SSP_AV   SSP_x(%)
  1      2.8131     2.7311E-02    4.9581E-02    1.000000E+06  0.00400  1.094E-02    0   1.0000   age020_m42            0.0000     7.0129E-01     7.6040   2.9925    79.3862
  2      0.0593     1.5719E-04    2.8533E-04    3.160000E+06  0.00400  4.007E-02    0   0.9999   age045_m42            0.0000     6.4189E-01     7.0629   2.2505    85.5659
  3      0.9978     4.1740E-03    7.1897E-03    5.010000E+06  0.00400  2.539E-02    0   0.9488   age055_m42            0.0000     6.5236E-01     7.2032   2.5712    83.3991
  4      0.0000     0.0000E+00    0.0000E+00    6.610000E+06  0.00400  2.620E-02    0   0.9220   age061_m42            0.0000     6.1926E-01     6.9891   2.1605    86.4254
  5      0.0000     0.0000E+00    0.0000E+00    1.000000E+07  0.00400  1.322E-02    0   0.8862   age070_m42            0.0000     5.6467E-01     6.7530   1.7768    92.5344
  6      0.6591     8.8798E-03    1.3817E-02    1.445000E+07  0.00400  7.883E-03    0   0.8571   age078_m42            0.0000     5.9160E-01     6.9468   2.1198    89.4988
  7      2.1609     4.3708E-02    6.4860E-02    2.512000E+07  0.00400  5.251E-03    0   0.8174   age090_m42            0.0000     5.6327E-01     6.7699   1.6275    93.9023
  8      0.0000     0.0000E+00    0.0000E+00    4.000000E+07  0.00400  3.649E-03    0   0.7851   age104_m42            0.0000     5.4455E-01     6.6200   1.4073    94.3930
  9      0.0000     0.0000E+00    0.0000E+00    5.500000E+07  0.00400  3.098E-03    0   0.7629   age110_m42            0.0000     5.5382E-01     6.6473   1.6023    92.6100
 10      0.3757     1.7912E-02    2.3436E-02    1.015200E+08  0.00400  2.228E-03    0   0.7207   age116_m42            0.0000     5.6132E-01     6.7534   1.6489    91.6824
 11      0.0000     0.0000E+00    0.0000E+00    2.861200E+08  0.00400  1.093E-03    0   0.6648   age125_m42            0.0000     5.7991E-01     6.7881   1.0332    96.6351
 12      0.0000     0.0000E+00    0.0000E+00    5.088000E+08  0.00400  6.597E-04    0   0.6365   age130_m42            0.0000     5.5216E-01     6.8205   1.0679    95.4675
 13     12.6044     6.2792E+00    6.6094E+00    1.434000E+09  0.00400  2.132E-04    0   0.5798   age139_m42            0.0000     4.5547E-01     6.3169   0.1209    96.3624
 14      3.8396     6.9179E+00    6.7530E+00    4.250000E+09  0.00400  5.895E-05    0   0.5377   age158_m42            0.0000     4.7941E-01     6.5519  -0.2430    89.4503
 15      0.0907     2.7459E-01    2.5982E-01    7.500000E+09  0.00400  3.510E-05    0   0.5212   age171_m42            0.0000     5.0305E-01     6.7929  -0.4044    87.8285
 16      0.0002     1.2300E-03    1.1240E-03    1.300000E+10  0.00400  2.005E-05    0   0.5034   age193_m42            0.0000     5.3790E-01     7.0678  -0.5471    86.5118
 17      0.0000     0.0000E+00    0.0000E+00    1.800000E+10  0.00400  1.525E-05    0   0.4967   age213_m42            0.0000     5.3334E-01     7.0025  -0.5746    86.3027
 18      0.7484     6.4211E-03    1.1657E-02    1.000000E+06  0.00800  1.238E-02    0   1.0000   age020_m52            0.0000     7.0029E-01     7.6056   2.9889    79.5409
 19      0.0000     0.0000E+00    0.0000E+00    3.160000E+06  0.00800  3.074E-02    0   0.9966   age045_m52            0.0000     6.9360E-01     7.5680   2.9151    80.1413
 20      0.0000     0.0000E+00    0.0000E+00    5.010000E+06  0.00800  2.668E-02    0   0.9443   age055_m52            0.0000     6.4708E-01     7.2364   2.6520    82.7103
 21      1.9592     9.7422E-03    1.6231E-02    6.610000E+06  0.00800  2.136E-02    0   0.9177   age061_m52            0.0000     5.0757E-01     6.4237   1.2898    93.0547
 22      0.0000     0.0000E+00    0.0000E+00    1.000000E+07  0.00800  1.215E-02    0   0.8827   age070_m52            0.0000     5.7785E-01     6.9359   1.9298    93.4837
 23      0.8561     1.0431E-02    1.6194E-02    1.445000E+07  0.00800  8.717E-03    0   0.8552   age078_m52            0.0000     5.6728E-01     6.8371   2.0797    90.9855
 24      0.0000     0.0000E+00    0.0000E+00    2.512000E+07  0.00800  5.592E-03    0   0.8162   age090_m52            0.0000     5.4946E-01     6.7434   1.6836    95.3956
 25      4.0239     1.0970E-01    1.5615E-01    4.000000E+07  0.00800  3.896E-03    0   0.7841   age104_m52            0.0000     5.4954E-01     6.6692   1.6111    95.4963
 26      0.0000     0.0000E+00    0.0000E+00    1.015200E+08  0.00800  2.148E-03    0   0.7226   age116_m52            0.0000     5.4545E-01     6.6362   1.5927    93.4584
 27      0.0000     0.0000E+00    0.0000E+00    2.861200E+08  0.00800  9.925E-04    0   0.6683   age125_m52            0.0000     5.3078E-01     6.7362   1.1283    96.5443
 28      0.0000     0.0000E+00    0.0000E+00    9.047900E+08  0.00800  3.141E-04    0   0.6138   age135_m52            0.0000     5.0169E-01     6.7398   0.3850    98.1890
 29      0.0000     0.0000E+00    0.0000E+00    1.434000E+09  0.00800  1.719E-04    0   0.5853   age139_m52            0.0000     4.9700E-01     6.5805  -0.1818    95.6768
 30      0.0000     0.0000E+00    0.0000E+00    2.500000E+09  0.00800  7.872E-05    0   0.5600   age150_m52            0.0000     5.1580E-01     7.0076  -0.3753    89.9455
 31      0.0000     0.0000E+00    0.0000E+00    4.250000E+09  0.00800  4.336E-05    0   0.5426   age158_m52            0.0000     5.2450E-01     7.0520  -0.3855    88.8889
 32      0.0000     0.0000E+00    0.0000E+00    6.250000E+09  0.00800  3.159E-05    0   0.5319   age166_m52            0.0000     5.7450E-01     7.5487  -0.5492    87.3791
 33      0.0000     0.0000E+00    0.0000E+00    1.300000E+10  0.00800  1.361E-05    0   0.5073   age193_m52            0.0000     6.5197E-01     8.2836  -0.9687    84.9434
 34      0.0000     0.0000E+00    0.0000E+00    1.800000E+10  0.00800  9.886E-06    0   0.4990   age213_m52            0.0000     7.2781E-01     9.0016  -1.0000    81.5747
 35      1.3068     8.9894E-03    1.6320E-02    1.000000E+06  0.02000  1.544E-02    0   1.0000   age020_m62            0.0000     7.0282E-01     7.6337   2.9859    79.6865
 36      1.8029     5.0901E-03    9.1095E-03    3.160000E+06  0.02000  3.762E-02    0   0.9858   age045_m62            0.0000     7.0401E-01     7.6454   2.9275    80.2984
 37      0.0000     0.0000E+00    0.0000E+00    5.010000E+06  0.02000  3.296E-02    0   0.9342   age055_m62            0.0000     6.3957E-01     7.1676   2.5396    84.1217
 38     15.6452     1.4399E-01    2.3164E-01    8.710000E+06  0.02000  1.154E-02    0   0.8861   age067_m62            0.0000     8.1071E-01     8.9967   1.2040   104.4583
 39      0.8182     1.1340E-02    1.7442E-02    1.445000E+07  0.02000  7.663E-03    0   0.8472   age078_m62            0.0000     6.1572E-01     7.2354   1.5165    98.4091
 40      0.0000     0.0000E+00    0.0000E+00    2.512000E+07  0.02000  4.532E-03    0   0.8099   age090_m62            0.0000     6.5081E-01     7.4116   1.4968    98.7137
 41      0.0071     2.7715E-04    3.8214E-04    5.500000E+07  0.02000  2.733E-03    0   0.7595   age110_m62            0.0000     5.3499E-01     6.6407   1.5959    94.7125
 42      0.0000     0.0000E+00    0.0000E+00    1.609000E+08  0.02000  1.369E-03    0   0.6985   age120_m62            0.0000     5.3351E-01     6.7176   1.4781    95.4230
 43      0.0000     0.0000E+00    0.0000E+00    2.861200E+08  0.02000  9.013E-04    0   0.6714   age125_m62            0.0000     5.1890E-01     6.8371   1.2475    97.2958
 44      0.0049     1.0345E-03    1.2111E-03    5.088000E+08  0.02000  5.028E-04    0   0.6449   age130_m62            0.0000     5.2213E-01     7.0254   0.9310    97.1974
 45      0.0000     0.0000E+00    0.0000E+00    9.047900E+08  0.02000  2.428E-04    0   0.6179   age135_m62            0.0000     4.9463E-01     6.8636   0.3815    95.1117
 46      0.0000     0.0000E+00    0.0000E+00    1.434000E+09  0.02000  1.263E-04    0   0.5908   age139_m62            0.0000     4.9700E-01     6.9020  -0.0395    92.7479
 47      0.0000     0.0000E+00    0.0000E+00    2.500000E+09  0.02000  5.985E-05    0   0.5673   age150_m62            0.0000     5.6259E-01     7.5232  -0.3465    89.0799
 48      7.4165     2.4082E+01    2.3906E+01    4.250000E+09  0.02000  3.271E-05    0   0.5468   age158_m62            0.0000     6.5682E-01     8.3619  -0.5910    85.9672
 49      2.3063     1.8011E+01    1.6895E+01    1.000000E+10  0.02000  1.360E-05    0   0.5167   age181_m62            0.0000     7.8783E-01     9.4929  -0.8766    83.2772
 50      0.8936     1.3323E+01    1.2125E+01    1.800000E+10  0.02000  7.124E-06    0   0.5013   age213_m62            0.0000     9.0513E-01    10.4759  -1.0000    79.3989
 51      2.0615     8.4472E-03    1.5332E-02    1.000000E+06  0.05000  2.592E-02    0   0.9998   age020_m72            0.0000     7.0829E-01     7.7129   2.9753    79.7803
 52      0.0000     0.0000E+00    0.0000E+00    3.160000E+06  0.05000  4.845E-02    0   0.9577   age045_m72            0.0000     6.8974E-01     7.5030   2.8160    81.1785
 53      0.0116     4.0149E-05    6.6671E-05    5.010000E+06  0.05000  3.072E-02    0   0.9147   age055_m72            0.0000     6.7056E-01     7.3244   2.1797    91.4067
 54      0.0000     0.0000E+00    0.0000E+00    6.610000E+06  0.05000  1.455E-02    0   0.8877   age061_m72            0.0000     1.6522E+00    11.7462   1.1839   109.3567
 55      0.0000     0.0000E+00    0.0000E+00    1.000000E+07  0.05000  9.074E-03    0   0.8524   age070_m72            0.0000     8.9311E-01     7.8956   2.3702    91.1515
 56      0.0000     0.0000E+00    0.0000E+00    2.512000E+07  0.05000  4.250E-03    0   0.7902   age090_m72            0.0000     7.4674E-01     7.4150   2.0481    93.6068
 57      0.0000     0.0000E+00    0.0000E+00    4.000000E+07  0.05000  3.087E-03    0   0.7618   age104_m72            0.0000     7.5909E-01     7.4501   1.7988    96.1406
 58      0.0000     0.0000E+00    0.0000E+00    1.015200E+08  0.05000  1.700E-03    0   0.7096   age116_m72            0.0000     5.6223E-01     6.7990   1.5919    96.3242
 59      0.0000     0.0000E+00    0.0000E+00    2.861200E+08  0.05000  7.384E-04    0   0.6633   age125_m72            0.0000     5.0657E-01     6.8876   1.1433    97.4132
 60      2.9424     8.1831E-01    9.4662E-01    5.088000E+08  0.05000  3.819E-04    0   0.6372   age130_m72            0.0000     4.8780E-01     6.8877   0.7134    96.2444
 61     23.8578     1.5119E+01    1.6771E+01    9.047900E+08  0.05000  1.676E-04    0   0.6110   age135_m72            0.0000     5.5323E-01     7.5255   0.1086    90.7553
 62      1.4408     1.7317E+00    1.8467E+00    1.434000E+09  0.05000  8.837E-05    0   0.5874   age139_m72            0.0000     5.7836E-01     7.6984  -0.3406    90.1371
 63      5.1906     1.3024E+01    1.3236E+01    2.500000E+09  0.05000  4.233E-05    0   0.5598   age150_m72            0.0000     6.9560E-01     8.7021  -0.5712    85.9139
 64      0.0000     0.0000E+00    0.0000E+00    6.250000E+09  0.05000  1.435E-05    0   0.5249   age166_m72            0.0000     8.3827E-01     9.8255  -0.9512    82.1247
 65      0.0000     0.0000E+00    0.0000E+00    1.300000E+10  0.05000  6.513E-06    0   0.5036   age193_m72            0.0000     1.0628E+00    11.6509  -1.0000    74.2430
 66      0.0000     0.0000E+00    0.0000E+00    1.800000E+10  0.05000  4.527E-06    0   0.4945   age213_m72            0.0000     1.2916E+00    13.1145  -1.0000    68.5460


## Synthesis Results - Average & Chains ##

# j      x_j: min, <> & last-chain-values for 1 ...  7 chains
  1      2.8131      1.0586      0.1056      1.6062      1.3372      1.9266      3.1703      1.6831      0.9704
  2      0.0593      0.5444      0.0000      0.3482      0.0551      0.1886      0.7434      0.7877      0.0000
  3      0.9978      0.6083      0.4783      1.2203      0.7274      1.7840      0.5338      0.0000      0.1876
  4      0.0000      0.5911      0.8443      0.0000      0.0000      0.0000      0.0000      0.0000      0.0000
  5      0.0000      0.7398      2.2579      0.0000      3.3959      0.1861      0.1096      0.0000      0.0000
  6      0.6591      0.8135      0.0000      0.6775      1.2935      0.5612      0.8070      0.0000      1.4595
  7      2.1609      0.4416      1.1388      0.8186      0.0000      0.0000      1.9765      0.0000      0.3831
  8      0.0000      0.5535      1.4324      0.3492      0.5361      0.0272      0.0000      0.6991      0.1663
  9      0.0000      0.2989      0.0000      0.0000      0.0000      1.1684      0.0000      0.6867      0.3146
 10      0.3757      0.4037      0.0000      1.9475      2.3179      1.5200      0.5287      0.0000      0.0000
 11      0.0000      0.5278      0.0000      0.0000      0.0000      1.0897      0.0000      0.0000      2.0548
 12      0.0000      0.7508      0.0000      0.0000      0.0000      0.0000      0.0000      0.0000      0.3923
 13     12.6044      4.5615      5.5954      8.9904      5.4788      3.7900      4.6942      4.5463      8.8173
 14      3.8396      3.4644      3.5237      3.9349      5.0972      1.9445      4.7947      5.2207      2.9275
 15      0.0907      0.3662      0.0000      0.0000      1.8537      0.0000      0.3657      0.8773      0.0000
 16      0.0002      2.5696      2.8131      3.1576      2.3045      2.5116      2.4189      2.9989      3.5750
 17      0.0000      0.2850      0.7318      0.0000      1.3452      0.0000      0.0000      0.6714      0.0944
 18      0.7484      0.3476      0.0000      0.0000      0.0000      0.6252      0.4594      0.2313      1.8533
 19      0.0000      0.3702      0.2165      0.0000      0.3256      0.0000      0.0000      0.0000      0.0000
 20      0.0000      0.8504      1.0907      0.8913      0.0000      0.0000      0.2090      0.0000      1.0306
 21      1.9592      3.7040      4.8703      2.2682      5.8402      4.3490      4.4220      3.9726      3.3831
 22      0.0000      0.5562      1.0972      0.0000      0.4186      0.2467      0.0000      0.0000      0.0000
 23      0.8561      0.4032      0.9892      0.8025      0.0000      0.3455      0.8555      0.0000      0.0000
 24      0.0000      1.2243      1.5835      0.7066      1.6634      1.8371      0.0000      2.1090      0.0000
 25      4.0239      4.8715      5.3307      4.0341      5.9983      5.1377      3.7551      5.8069      5.3598
 26      0.0000      1.4007      1.9284      0.0222      0.4526      0.0000      2.3179      2.6687      1.5126
 27      0.0000      0.6588      0.0000      0.0000      0.0000      0.0000      0.0000      0.0000      0.0213
 28      0.0000      1.0320      0.0054      0.0000      0.2331      0.0000      0.5923      0.0000      0.0000
 29      0.0000      0.7864      0.0000      0.0000      0.5354      0.2133      0.0000      0.0000      0.0000
 30      0.0000      0.6330      0.1643      0.0000      1.6286      0.0000      0.2657      1.1803      0.0000
 31      0.0000      0.8113      0.0000      1.1704      0.0000      0.9442      0.5253      0.0725      0.7826
 32      0.0000      0.2973      0.2765      0.4604      0.0000      0.0000      0.2768      0.0000      0.0000
 33      0.0000      0.0496      0.0142      0.0000      0.0000      0.2467      0.3514      0.0000      0.0000
 34      0.0000      0.1685      0.0000      0.1101      0.0000      0.0000      0.0000      0.0000      0.2279
 35      1.3068      0.7562      0.8823      2.6813      0.8401      0.7197      1.2199      1.0232      1.6804
 36      1.8029      0.7091      0.0000      2.5148      0.9733      1.2178      0.4350      3.6681      0.0000
 37      0.0000      0.3740      1.4973      0.0000      0.6008      0.3421      0.0000      0.6985      1.3572
 38     15.6452      4.2274      5.1192      3.9878      5.2607      7.1462      7.1886      3.8928      6.3252
 39      0.8182      0.5321      2.2288      1.4173      0.8903      0.6413      0.4880      2.9994      1.7617
 40      0.0000      1.5495      2.1144      0.5926      2.5267      3.4588      1.1327      2.7346      2.9109
 41      0.0071      1.9464      0.3988      2.7563      1.6785      2.2275      2.7571      1.5495      1.1339
 42      0.0000      3.8932      2.8556      5.3876      3.3074      4.1442      4.2099      4.2200      4.1899
 43      0.0000      0.6322      0.0000      0.2153      0.0000      0.0000      0.0000      0.2149      0.0000
 44      0.0049      0.7930      0.4442      0.0000      0.0000      0.0000      0.6502      0.0000      0.0000
 45      0.0000      1.5616      0.7156      0.1957      0.1199      0.0000      0.0000      0.0000      0.2268
 46      0.0000      2.0282      2.4286      0.8444      0.0000      2.0697      0.0859      0.0000      0.3660
