###################################################################
## OUTPUT of StarlightChains_v04.for    [Cid@UFSC - 01/Apr/2007] ##
###################################################################

## Some input info
2006te.txt                               [arq_obs]
Base.CB07.vall.4m                        [arq_base]
Masks.EmLines.NEW.gm                     [arq_masks]
StCv04.C11.config                        [arq_config]
   66                                    [N_base]
    0                                    [N_YAV_components = # of components with extra extinction!]
    0                                    [i_FitPowerLaw (1/0 = Yes/No)]
-9.99                                    [alpha_PowerLaw]
CCM                                      [red_law_option]
 1.458241                                [q_norm = A(l_norm)/A(V)]

## (Re)Sampling Parameters
 3741.00                                 [l_ini (A)]
 7218.00                                 [l_fin (A)]
    1.00                                 [dl    (A)]     (OBS: dl_cushion =    50.00 A)

## Normalization info
 4020.00                                 [l_norm (A) - for base]
 4010.00                                 [llow_norm (A) - window for f_obs]
 4060.00                                 [lupp_norm (A) - window for f_obs]
3.923769E-18                             [fobs_norm (in input units)]

## S/N
 3691.00                                 [llow_SN (A) - window for S/N]
 7268.00                                 [lupp_SN (A) - window for S/N]
   5.957                                 [S/N in S/N window]
   6.847                                 [S/N in norm. window]
  10.000                                 [S/N_err in S/N window]
  11.493                                 [S/N_err in norm. window]
  1.0000                                 [fscale_chi2]

## etc...
    -2007325                             [idum_orig]
  2118                                   [NOl_eff]
  2063                                   [Nl_eff]
    55    NSIGMA                         [Ntot_cliped & clip_method]
  1295770                                [Nglobal_steps]
   7                                     [N_chains]
  22                                     [NEX0s_base = N_base in EX0s-fits]
 0   0   1       75   2.0   1.672E+01    [Clip-Bug, RC-Crash & Burn-In warning-flags, n_censored_weights, wei_nsig_threshold & wei_limit]
    12     12.139     11.632      0.507  [idt_all, wdt_TotTime, wdt_UsrTime & wdt_SysTime (sec)]

## Synthesis Results - Best model ##

 1.17755E+00                             [chi2/Nl_eff]
     8.74078                             [adev (%)]

   105.52635                             [sum-of-x (%)]
 4.38149E-18                             [Flux_tot (units of input spectrum!)]
 2.99432E-14                             [Mini_tot (???)]
 1.69934E-14                             [Mcor_tot (???)]

  29.86                                  [v0_min  (km/s)]
  80.24                                  [vd_min  (km/s)]
 0.0421                                  [AV_min  (mag)]
 0.0000                                  [YAV_min (mag)]

# j     x_j(%)      Mini_j(%)     Mcor_j(%)     age_j(yr)     Z_j      (L/M)_j    YAV?  Mstars   component_j        a/Fe...       SSP_chi2r SSP_adev(%)   SSP_AV   SSP_x(%)
  1      0.0000     0.0000E+00    0.0000E+00    1.000000E+06  0.00400  1.094E-02    0   1.0000   age020_m42            0.0000     1.6912E+00    10.1367   2.6771    87.7761
  2      0.0000     0.0000E+00    0.0000E+00    3.160000E+06  0.00400  4.007E-02    0   0.9999   age045_m42            0.0000     1.4339E+00     9.5110   1.9171    95.3683
  3      0.0000     0.0000E+00    0.0000E+00    5.010000E+06  0.00400  2.539E-02    0   0.9488   age055_m42            0.0000     1.5184E+00     9.6658   2.2514    92.4300
  4      0.0000     0.0000E+00    0.0000E+00    6.610000E+06  0.00400  2.620E-02    0   0.9220   age061_m42            0.0000     1.4375E+00     9.5026   1.8440    95.6599
  5      0.0000     0.0000E+00    0.0000E+00    1.000000E+07  0.00400  1.322E-02    0   0.8862   age070_m42            0.0000     1.4756E+00     9.6008   1.5927    96.8462
  6      0.0000     0.0000E+00    0.0000E+00    1.445000E+07  0.00400  7.883E-03    0   0.8571   age078_m42            0.0000     1.5282E+00     9.7098   1.9262    94.0558
  7      0.0002     6.5152E-06    9.3838E-06    2.512000E+07  0.00400  5.251E-03    0   0.8174   age090_m42            0.0000     1.4840E+00     9.6430   1.4648    97.3719
  8      5.5919     2.1250E-01    2.9396E-01    4.000000E+07  0.00400  3.649E-03    0   0.7851   age104_m42            0.0000     1.4265E+00     9.5096   1.2260    98.6523
  9      0.0000     0.0000E+00    0.0000E+00    5.500000E+07  0.00400  3.098E-03    0   0.7629   age110_m42            0.0000     1.4266E+00     9.4772   1.3652    99.1417
 10      0.0000     0.0000E+00    0.0000E+00    1.015200E+08  0.00400  2.228E-03    0   0.7207   age116_m42            0.0000     1.4654E+00     9.5438   1.3748    99.6860
 11      0.0000     0.0000E+00    0.0000E+00    2.861200E+08  0.00400  1.093E-03    0   0.6648   age125_m42            0.0000     1.4900E+00     9.6499   0.8153   102.7010
 12      0.0000     0.0000E+00    0.0000E+00    5.088000E+08  0.00400  6.597E-04    0   0.6365   age130_m42            0.0000     1.5220E+00     9.6973   0.7847   104.2613
 13      0.0000     0.0000E+00    0.0000E+00    1.434000E+09  0.00400  2.132E-04    0   0.5798   age139_m42            0.0000     1.3593E+00     9.2318  -0.2174   107.5240
 14      0.0000     0.0000E+00    0.0000E+00    4.250000E+09  0.00400  5.895E-05    0   0.5377   age158_m42            0.0000     1.3097E+00     9.0529  -0.6707   103.6617
 15      0.0000     0.0000E+00    0.0000E+00    7.500000E+09  0.00400  3.510E-05    0   0.5212   age171_m42            0.0000     1.3973E+00     9.2489  -0.8622   103.1416
 16      0.0000     0.0000E+00    0.0000E+00    1.300000E+10  0.00400  2.005E-05    0   0.5034   age193_m42            0.0000     1.5088E+00     9.5056  -1.0000   101.7105
 17      0.0000     0.0000E+00    0.0000E+00    1.800000E+10  0.00400  1.525E-05    0   0.4967   age213_m42            0.0000     1.4943E+00     9.4427  -1.0000   100.4527
 18      0.0000     0.0000E+00    0.0000E+00    1.000000E+06  0.00800  1.238E-02    0   1.0000   age020_m52            0.0000     1.6882E+00    10.1296   2.6726    87.9735
 19      0.0000     0.0000E+00    0.0000E+00    3.160000E+06  0.00800  3.074E-02    0   0.9966   age045_m52            0.0000     1.6524E+00    10.0294   2.5899    88.9717
 20      0.0000     0.0000E+00    0.0000E+00    5.010000E+06  0.00800  2.668E-02    0   0.9443   age055_m52            0.0000     1.5354E+00     9.7059   2.3378    91.4383
 21     47.6723     3.0948E-01    5.0043E-01    6.610000E+06  0.00800  2.136E-02    0   0.9177   age061_m52            0.0000     1.3532E+00     9.2791   1.0820    98.2979
 22      0.0000     0.0000E+00    0.0000E+00    1.000000E+07  0.00800  1.215E-02    0   0.8827   age070_m52            0.0000     1.5261E+00     9.7531   1.7869    96.1508
 23      0.0000     0.0000E+00    0.0000E+00    1.445000E+07  0.00800  8.717E-03    0   0.8552   age078_m52            0.0000     1.4994E+00     9.6586   1.8883    95.5050
 24      0.0000     0.0000E+00    0.0000E+00    2.512000E+07  0.00800  5.592E-03    0   0.8162   age090_m52            0.0000     1.4722E+00     9.6487   1.5292    98.5737
 25      0.0000     0.0000E+00    0.0000E+00    4.000000E+07  0.00800  3.896E-03    0   0.7841   age104_m52            0.0000     1.4284E+00     9.5368   1.4315    99.7825
 26      0.0000     0.0000E+00    0.0000E+00    1.015200E+08  0.00800  2.148E-03    0   0.7226   age116_m52            0.0000     1.4045E+00     9.4387   1.3483   100.3698
 27      0.0000     0.0000E+00    0.0000E+00    2.861200E+08  0.00800  9.925E-04    0   0.6683   age125_m52            0.0000     1.4919E+00     9.5953   0.8483   105.3340
 28      0.0000     0.0000E+00    0.0000E+00    9.047900E+08  0.00800  3.141E-04    0   0.6138   age135_m52            0.0000     1.4737E+00     9.5356   0.0144   111.2035
 29      0.0000     0.0000E+00    0.0000E+00    1.434000E+09  0.00800  1.719E-04    0   0.5853   age139_m52            0.0000     1.3541E+00     9.2067  -0.5632   108.8122
 30      4.7007     8.2802E+00    8.1704E+00    2.500000E+09  0.00800  7.872E-05    0   0.5600   age150_m52            0.0000     1.4370E+00     9.3791  -0.8503   106.4472
 31      0.0000     0.0000E+00    0.0000E+00    4.250000E+09  0.00800  4.336E-05    0   0.5426   age158_m52            0.0000     1.4675E+00     9.4379  -0.8653   105.3942
 32      0.0000     0.0000E+00    0.0000E+00    6.250000E+09  0.00800  3.159E-05    0   0.5319   age166_m52            0.0000     1.6598E+00     9.8459  -1.0000   103.0850
 33      0.0000     0.0000E+00    0.0000E+00    1.300000E+10  0.00800  1.361E-05    0   0.5073   age193_m52            0.0000     3.0272E+00    12.8348  -1.0000    86.3274
 34      0.0000     0.0000E+00    0.0000E+00    1.800000E+10  0.00800  9.886E-06    0   0.4990   age213_m52            0.0000     3.7100E+00    14.0924  -1.0000    82.2705
 35      0.0000     0.0000E+00    0.0000E+00    1.000000E+06  0.02000  1.544E-02    0   1.0000   age020_m62            0.0000     1.6948E+00    10.1455   2.6689    88.1625
 36      0.0412     1.5183E-04    2.6374E-04    3.160000E+06  0.02000  3.762E-02    0   0.9858   age045_m62            0.0000     1.6754E+00    10.0904   2.6045    89.0887
 37      0.0000     0.0000E+00    0.0000E+00    5.010000E+06  0.02000  3.296E-02    0   0.9342   age055_m62            0.0000     1.4683E+00     9.5567   2.2003    94.0259
 38      0.0000     0.0000E+00    0.0000E+00    8.710000E+06  0.02000  1.154E-02    0   0.8861   age067_m62            0.0000     2.0294E+00    11.3631   1.3014    96.9009
 39      0.0000     0.0000E+00    0.0000E+00    1.445000E+07  0.02000  7.663E-03    0   0.8472   age078_m62            0.0000     1.5731E+00     9.9784   1.4507    97.9613
 40      0.0000     0.0000E+00    0.0000E+00    2.512000E+07  0.02000  4.532E-03    0   0.8099   age090_m62            0.0000     1.6093E+00    10.0761   1.4457    97.6812
 41      0.0000     0.0000E+00    0.0000E+00    5.500000E+07  0.02000  2.733E-03    0   0.7595   age110_m62            0.0000     1.4404E+00     9.5266   1.4146    99.0033
 42      0.0000     0.0000E+00    0.0000E+00    1.609000E+08  0.02000  1.369E-03    0   0.6985   age120_m62            0.0000     1.4998E+00     9.6049   1.2246   102.8952
 43      0.0000     0.0000E+00    0.0000E+00    2.861200E+08  0.02000  9.013E-04    0   0.6714   age125_m62            0.0000     1.5940E+00     9.7981   0.9541   106.6908
 44     12.9190     3.5629E+00    4.0486E+00    5.088000E+08  0.02000  5.028E-04    0   0.6449   age130_m62            0.0000     1.6028E+00     9.8039   0.5440   110.8663
 45      0.0324     1.8494E-02    2.0135E-02    9.047900E+08  0.02000  2.428E-04    0   0.6179   age135_m62            0.0000     1.4571E+00     9.4524  -0.0528   110.6394
 46      0.0000     0.0000E+00    0.0000E+00    1.434000E+09  0.02000  1.263E-04    0   0.5908   age139_m62            0.0000     1.4487E+00     9.3873  -0.5016   109.1304
 47      0.6070     1.4064E+00    1.4059E+00    2.500000E+09  0.02000  5.985E-05    0   0.5673   age150_m62            0.0000     1.5947E+00     9.7532  -0.8811   108.0947
 48      3.5440     1.5024E+01    1.4475E+01    4.250000E+09  0.02000  3.271E-05    0   0.5468   age158_m62            0.0000     2.0333E+00    10.6960  -1.0000   100.5940
 49      0.0000     0.0000E+00    0.0000E+00    1.000000E+10  0.02000  1.360E-05    0   0.5167   age181_m62            0.0000     3.4407E+00    13.4803  -1.0000    87.9863
 50      0.0000     0.0000E+00    0.0000E+00    1.800000E+10  0.02000  7.124E-06    0   0.5013   age213_m62            0.0000     4.6841E+00    15.6533  -1.0000    80.2100
 51      0.0000     0.0000E+00    0.0000E+00    1.000000E+06  0.05000  2.592E-02    0   0.9998   age020_m72            0.0000     1.7334E+00    10.2484   2.6644    88.0204
 52      0.0000     0.0000E+00    0.0000E+00    3.160000E+06  0.05000  4.845E-02    0   0.9577   age045_m72            0.0000     1.5811E+00     9.8258   2.4738    90.8216
 53      0.0000     0.0000E+00    0.0000E+00    5.010000E+06  0.05000  3.072E-02    0   0.9147   age055_m72            0.0000     1.5904E+00     9.9313   2.0399    94.0080
 54      0.0000     0.0000E+00    0.0000E+00    6.610000E+06  0.05000  1.455E-02    0   0.8877   age061_m72            0.0000     2.4124E+00    12.4887   1.4087    96.5613
 55      0.0000     0.0000E+00    0.0000E+00    1.000000E+07  0.05000  9.074E-03    0   0.8524   age070_m72            0.0000     1.6281E+00    10.0706   2.2491    93.2748
 56      0.0000     0.0000E+00    0.0000E+00    2.512000E+07  0.05000  4.250E-03    0   0.7902   age090_m72            0.0000     1.5516E+00     9.8861   1.9194    95.9598
 57      0.0000     0.0000E+00    0.0000E+00    4.000000E+07  0.05000  3.087E-03    0   0.7618   age104_m72            0.0000     1.5652E+00     9.9524   1.6873    97.8010
 58      0.0000     0.0000E+00    0.0000E+00    1.015200E+08  0.05000  1.700E-03    0   0.7096   age116_m72            0.0000     1.5185E+00     9.7133   1.3821   101.9926
 59      0.0000     0.0000E+00    0.0000E+00    2.861200E+08  0.05000  7.384E-04    0   0.6633   age125_m72            0.0000     1.6105E+00     9.8147   0.8051   108.8418
 60      0.0000     0.0000E+00    0.0000E+00    5.088000E+08  0.05000  3.819E-04    0   0.6372   age130_m72            0.0000     1.5080E+00     9.5717   0.2828   111.7408
 61     11.6218     9.6153E+00    1.0352E+01    9.047900E+08  0.05000  1.676E-04    0   0.6110   age135_m72            0.0000     1.5699E+00     9.7435  -0.4327   110.4135
 62      0.0000     0.0000E+00    0.0000E+00    1.434000E+09  0.05000  8.837E-05    0   0.5874   age139_m72            0.0000     1.6837E+00     9.9533  -0.8854   109.8338
 63     18.7958     6.1571E+01    6.0733E+01    2.500000E+09  0.05000  4.233E-05    0   0.5598   age150_m72            0.0000     2.1505E+00    10.9482  -1.0000   101.4433
 64      0.0000     0.0000E+00    0.0000E+00    6.250000E+09  0.05000  1.435E-05    0   0.5249   age166_m72            0.0000     3.9022E+00    14.4151  -1.0000    84.3118
 65      0.0000     0.0000E+00    0.0000E+00    1.300000E+10  0.05000  6.513E-06    0   0.5036   age193_m72            0.0000     5.7093E+00    17.3822  -1.0000    75.7740
 66      0.0000     0.0000E+00    0.0000E+00    1.800000E+10  0.05000  4.527E-06    0   0.4945   age213_m72            0.0000     6.8535E+00    19.0641  -1.0000    70.5423


## Synthesis Results - Average & Chains ##

# j      x_j: min, <> & last-chain-values for 1 ...  7 chains
  1      0.0000      0.2631      0.0000      0.0000      0.0000      0.0000      0.2786      0.2933      0.0000
  2      0.0000      0.4037      0.0000      0.0000      0.0000      0.0000      0.0000      0.8466      1.5495
  3      0.0000      0.3744      0.0000      0.0000      0.0000      0.0000      0.6675      0.0000      0.3489
  4      0.0000      0.6529      0.0000      0.1646      0.0000      0.0000      0.0000      0.0000      0.6087
  5      0.0000      0.5206      0.0095      0.0000      2.1383      1.3686      0.3191      0.0000      0.0000
  6      0.0000      0.2794      0.0000      0.0000      0.0000      0.0000      0.0000      0.0000      0.1210
  7      0.0002      0.9459      1.7343      2.1335      0.0000      1.0505      0.0000      1.9229      0.0000
  8      5.5919      4.6664      4.7002      4.9886      6.3999      6.2205      5.1264      5.1425      5.2940
  9      0.0000      0.7549      0.5127      0.4640      0.0000      0.0000      0.6284      0.0000      0.0000
 10      0.0000      0.8402      0.0000      1.5459      2.8622      0.0000      0.0000      0.0000      0.0000
 11      0.0000      0.5763      0.0000      0.0000      0.0000      0.0000      0.0000      0.0000      0.0000
 12      0.0000      0.4528      0.1510      0.0000      0.0000      0.0000      0.0000      0.0000      0.1776
 13      0.0000      1.7542      3.5709      1.2403      2.9499      0.0174      0.0000      0.0000      1.8606
 14      0.0000      1.1969      0.0000      0.0000      1.5848      0.1617      2.6024      3.7791      0.0000
 15      0.0000      2.0898      0.0000      3.5663      0.0000      2.8397      2.5941      2.0394      2.8045
 16      0.0000      1.6555      0.0000      2.0756      2.8934      3.2255      1.9983      1.0615      0.0000
 17      0.0000      0.3548      1.1933      0.0000      0.0000      0.0000      0.0000      0.0000      0.1136
 18      0.0000      1.4445      1.0301      1.7924      0.0000      0.0000      3.5529      0.0000      0.0000
 19      0.0000      1.8666      0.0000      3.0394      2.6747      0.8498      1.4092      1.9673      2.0657
 20      0.0000      0.3698      0.3184      0.0000      2.2188      1.3251      0.0000      0.0000      0.8704
 21     47.6723     18.1756     30.5043     20.4304     24.3995     19.2473     21.2906     17.1903     23.4247
 22      0.0000      0.7088      0.0000      1.5581      0.0505      0.9597      0.0000      0.0000      1.0457
 23      0.0000      0.4366      0.2917      0.8415      0.0000      0.1756      0.3400      0.0000      0.0000
 24      0.0000      0.5924      0.0000      0.4794      0.0000      0.4884      1.1991      1.4811      0.0000
 25      0.0000      1.1678      0.0000      4.8305      2.5363      0.0000      0.0000      0.5637      0.0000
 26      0.0000      0.6470      0.0000      0.7550      0.0000      0.4730      1.5548      0.0000      0.0000
 27      0.0000      0.7377      0.0000      0.0257      0.0000      0.2971      0.0000      3.4546      0.0881
 28      0.0000      1.7399      0.0000      0.5425      0.0000      0.0000      0.0000      0.0000      0.4716
 29      0.0000      1.2178      0.0000      0.0000      2.3913      0.0000      3.5739      0.0000      0.0000
 30      4.7007      2.5168      2.5252      1.9383      0.0000      2.6889      0.9842      3.4420      1.2717
 31      0.0000      0.7143      0.9899      0.0000      0.0000      0.0000      0.0000      0.0000      2.4477
 32      0.0000      0.7108      3.1038      0.0000      1.6323      3.0549      0.0000      1.7069      0.9407
 33      0.0000      0.1188      0.0000      0.1004      0.0000      0.0000      0.0710      0.0000      0.0000
 34      0.0000      0.0664      0.0000      0.0000      0.0000      0.0000      0.0000      0.0000      0.0000
 35      0.0000      0.5639      0.0000      0.0000      0.0000      0.0000      2.5836      0.0000      1.1960
 36      0.0412      0.6219      2.0286      1.5443      1.3966      0.0000      1.5103      1.8667      0.0000
 37      0.0000      0.8229      0.8181      0.5245      1.5657      3.9210      0.0000      0.0000      5.6030
 38      0.0000      0.6105      0.0000      0.0000      0.0000      0.0000      0.0000      0.1422      0.0000
 39      0.0000      1.9451      3.0543      0.0000      0.0000      1.5112      0.0000      7.5759      0.0000
 40      0.0000      0.6086      0.0000      0.1497      0.0000      3.5844      0.6018      0.0000      0.0000
 41      0.0000      0.6931      0.0000      0.0000      0.3422      0.9345      0.1401      0.0000      3.2927
 42      0.0000      0.6192      0.0000      0.6368      0.3083      0.0000      2.7040      0.0000      0.4101
 43      0.0000      0.3636      0.3042      0.0000      0.8509      0.0000      3.1752      0.3237      0.2294
 44     12.9190      1.7270      3.2867      0.0000      4.5897      3.2421      3.1095      4.6573      0.0000
 45      0.0324      4.2017      1.5317      5.9083      0.0000      4.5601      4.7564      3.4684      8.2551
 46      0.0000      1.5284      2.1379      3.4765      1.2723      1.1342      0.0000      0.0000      0.0000
