###################################################################
## OUTPUT of StarlightChains_v04.for    [Cid@UFSC - 01/Apr/2007] ##
###################################################################

## Some input info
2006ab.txt                               [arq_obs]
Base.CB07.vall.4m                        [arq_base]
Masks.EmLines.NEW.gm                     [arq_masks]
StCv04.C11.config                        [arq_config]
   66                                    [N_base]
    0                                    [N_YAV_components = # of components with extra extinction!]
    0                                    [i_FitPowerLaw (1/0 = Yes/No)]
-9.99                                    [alpha_PowerLaw]
CCM                                      [red_law_option]
 1.458241                                [q_norm = A(l_norm)/A(V)]

## (Re)Sampling Parameters
 3741.00                                 [l_ini (A)]
 7218.00                                 [l_fin (A)]
    1.00                                 [dl    (A)]     (OBS: dl_cushion =    50.00 A)

## Normalization info
 4020.00                                 [l_norm (A) - for base]
 4010.00                                 [llow_norm (A) - window for f_obs]
 4060.00                                 [lupp_norm (A) - window for f_obs]
6.363483E-17                             [fobs_norm (in input units)]

## S/N
 3691.00                                 [llow_SN (A) - window for S/N]
 7268.00                                 [lupp_SN (A) - window for S/N]
   4.178                                 [S/N in S/N window]
   2.394                                 [S/N in norm. window]
  10.000                                 [S/N_err in S/N window]
   5.729                                 [S/N_err in norm. window]
  1.0000                                 [fscale_chi2]

## etc...
    -2007310                             [idum_orig]
  2356                                   [NOl_eff]
  2022                                   [Nl_eff]
   334    NSIGMA                         [Ntot_cliped & clip_method]
  1074010                                [Nglobal_steps]
   7                                     [N_chains]
  19                                     [NEX0s_base = N_base in EX0s-fits]
 0   0   1       51   2.0   1.742E+01    [Clip-Bug, RC-Crash & Burn-In warning-flags, n_censored_weights, wei_nsig_threshold & wei_limit]
    12     12.327     11.831      0.495  [idt_all, wdt_TotTime, wdt_UsrTime & wdt_SysTime (sec)]

## Synthesis Results - Best model ##

 7.59755E-01                             [chi2/Nl_eff]
     6.13160                             [adev (%)]

   116.53667                             [sum-of-x (%)]
 1.04738E-16                             [Flux_tot (units of input spectrum!)]
 1.13608E-11                             [Mini_tot (???)]
 5.69509E-12                             [Mcor_tot (???)]

-270.22                                  [v0_min  (km/s)]
 252.75                                  [vd_min  (km/s)]
 0.2571                                  [AV_min  (mag)]
 0.0000                                  [YAV_min (mag)]

# j     x_j(%)      Mini_j(%)     Mcor_j(%)     age_j(yr)     Z_j      (L/M)_j    YAV?  Mstars   component_j        a/Fe...       SSP_chi2r SSP_adev(%)   SSP_AV   SSP_x(%)
  1      0.0000     0.0000E+00    0.0000E+00    1.000000E+06  0.00400  1.094E-02    0   1.0000   age020_m42            0.0000     1.6404E+00     8.5916   4.0000   106.3981
  2      0.0000     0.0000E+00    0.0000E+00    3.160000E+06  0.00400  4.007E-02    0   0.9999   age045_m42            0.0000     1.3240E+00     8.3136   3.4797   104.8685
  3      0.0000     0.0000E+00    0.0000E+00    5.010000E+06  0.00400  2.539E-02    0   0.9488   age055_m42            0.0000     1.3608E+00     8.3111   3.8145   101.5776
  4      0.0000     0.0000E+00    0.0000E+00    6.610000E+06  0.00400  2.620E-02    0   0.9220   age061_m42            0.0000     1.3393E+00     8.3756   3.3998   105.3790
  5      0.0000     0.0000E+00    0.0000E+00    1.000000E+07  0.00400  1.322E-02    0   0.8862   age070_m42            0.0000     1.4920E+00     9.0663   3.0930   108.5024
  6      0.0000     0.0000E+00    0.0000E+00    1.445000E+07  0.00400  7.883E-03    0   0.8571   age078_m42            0.0000     1.5061E+00     9.0395   3.4331   105.1131
  7      0.0000     0.0000E+00    0.0000E+00    2.512000E+07  0.00400  5.251E-03    0   0.8174   age090_m42            0.0000     1.5293E+00     9.2336   2.9557   109.4151
  8      0.0000     0.0000E+00    0.0000E+00    4.000000E+07  0.00400  3.649E-03    0   0.7851   age104_m42            0.0000     1.4732E+00     9.0735   2.7228   110.6760
  9      0.0000     0.0000E+00    0.0000E+00    5.500000E+07  0.00400  3.098E-03    0   0.7629   age110_m42            0.0000     1.3995E+00     8.7517   2.8795   110.7015
 10      0.0000     0.0000E+00    0.0000E+00    1.015200E+08  0.00400  2.228E-03    0   0.7207   age116_m42            0.0000     1.3694E+00     8.5711   2.9024   110.9117
 11      0.0000     0.0000E+00    0.0000E+00    2.861200E+08  0.00400  1.093E-03    0   0.6648   age125_m42            0.0000     1.4549E+00     9.0361   2.3067   115.4222
 12      0.0000     0.0000E+00    0.0000E+00    5.088000E+08  0.00400  6.597E-04    0   0.6365   age130_m42            0.0000     1.3555E+00     8.5606   2.3016   116.3847
 13      0.0000     0.0000E+00    0.0000E+00    1.434000E+09  0.00400  2.132E-04    0   0.5798   age139_m42            0.0000     1.1035E+00     7.6286   1.3310   118.9880
 14      0.0000     0.0000E+00    0.0000E+00    4.250000E+09  0.00400  5.895E-05    0   0.5377   age158_m42            0.0000     9.3060E-01     6.9517   0.9268   112.7349
 15      0.0000     0.0000E+00    0.0000E+00    7.500000E+09  0.00400  3.510E-05    0   0.5212   age171_m42            0.0000     8.9479E-01     6.7651   0.7458   111.7429
 16      0.0000     0.0000E+00    0.0000E+00    1.300000E+10  0.00400  2.005E-05    0   0.5034   age193_m42            0.0000     8.8212E-01     6.6642   0.5857   110.9733
 17      0.0000     0.0000E+00    0.0000E+00    1.800000E+10  0.00400  1.525E-05    0   0.4967   age213_m42            0.0000     8.8356E-01     6.6797   0.5637   110.4090
 18      6.6143     4.2266E-03    8.4314E-03    1.000000E+06  0.00800  1.238E-02    0   1.0000   age020_m52            0.0000     1.6319E+00     8.5638   4.0000   106.4543
 19      0.0000     0.0000E+00    0.0000E+00    3.160000E+06  0.00800  3.074E-02    0   0.9966   age045_m52            0.0000     1.4958E+00     8.2351   4.0000   104.2173
 20      0.0000     0.0000E+00    0.0000E+00    5.010000E+06  0.00800  2.668E-02    0   0.9443   age055_m52            0.0000     1.3701E+00     8.2925   3.9009   100.4787
 21      0.0000     0.0000E+00    0.0000E+00    6.610000E+06  0.00800  2.136E-02    0   0.9177   age061_m52            0.0000     1.3539E+00     8.6514   2.6009   109.4539
 22      0.0000     0.0000E+00    0.0000E+00    1.000000E+07  0.00800  1.215E-02    0   0.8827   age070_m52            0.0000     1.5847E+00     9.3642   3.2705   108.1947
 23      0.0000     0.0000E+00    0.0000E+00    1.445000E+07  0.00800  8.717E-03    0   0.8552   age078_m52            0.0000     1.4943E+00     9.0072   3.3947   106.7719
 24      0.0000     0.0000E+00    0.0000E+00    2.512000E+07  0.00800  5.592E-03    0   0.8162   age090_m52            0.0000     1.5370E+00     9.2464   3.0155   110.9137
 25      0.0000     0.0000E+00    0.0000E+00    4.000000E+07  0.00800  3.896E-03    0   0.7841   age104_m52            0.0000     1.4828E+00     9.0920   2.9224   112.1273
 26      0.0000     0.0000E+00    0.0000E+00    1.015200E+08  0.00800  2.148E-03    0   0.7226   age116_m52            0.0000     1.3898E+00     8.7260   2.8648   111.9471
 27      0.0000     0.0000E+00    0.0000E+00    2.861200E+08  0.00800  9.925E-04    0   0.6683   age125_m52            0.0000     1.3388E+00     8.4600   2.3606   117.8074
 28      0.0000     0.0000E+00    0.0000E+00    9.047900E+08  0.00800  3.141E-04    0   0.6138   age135_m52            0.0000     1.1257E+00     7.6514   1.5671   122.7862
 29      0.0000     0.0000E+00    0.0000E+00    1.434000E+09  0.00800  1.719E-04    0   0.5853   age139_m52            0.0000     1.0020E+00     7.3105   0.9993   119.6709
 30      0.0000     0.0000E+00    0.0000E+00    2.500000E+09  0.00800  7.872E-05    0   0.5600   age150_m52            0.0000     8.7483E-01     6.6570   0.7577   115.3928
 31      0.0000     0.0000E+00    0.0000E+00    4.250000E+09  0.00800  4.336E-05    0   0.5426   age158_m52            0.0000     8.7694E-01     6.6721   0.7481   114.0101
 32      0.0000     0.0000E+00    0.0000E+00    6.250000E+09  0.00800  3.159E-05    0   0.5319   age166_m52            0.0000     8.6174E-01     6.5108   0.5516   113.9024
 33      0.0000     0.0000E+00    0.0000E+00    1.300000E+10  0.00800  1.361E-05    0   0.5073   age193_m52            0.0000     8.6613E-01     6.3460   0.0917   112.9805
 34      0.0000     0.0000E+00    0.0000E+00    1.800000E+10  0.00800  9.886E-06    0   0.4990   age213_m52            0.0000     9.1060E-01     6.4022  -0.0066   112.1088
 35      5.3926     2.7630E-03    5.5118E-03    1.000000E+06  0.02000  1.544E-02    0   1.0000   age020_m62            0.0000     1.6326E+00     8.5560   4.0000   106.5239
 36      6.8830     1.4474E-03    2.8463E-03    3.160000E+06  0.02000  3.762E-02    0   0.9858   age045_m62            0.0000     1.5298E+00     8.3048   4.0000   104.9082
 37      0.0000     0.0000E+00    0.0000E+00    5.010000E+06  0.02000  3.296E-02    0   0.9342   age055_m62            0.0000     1.3303E+00     8.1973   3.7679   103.2111
 38      0.0033     2.2334E-06    3.9478E-06    8.710000E+06  0.02000  1.154E-02    0   0.8861   age067_m62            0.0000     2.3243E+00    11.8190   2.6926   111.8657
 39      0.0000     0.0000E+00    0.0000E+00    1.445000E+07  0.02000  7.663E-03    0   0.8472   age078_m62            0.0000     1.7481E+00    10.0281   2.9010   111.2074
 40      0.0000     0.0000E+00    0.0000E+00    2.512000E+07  0.02000  4.532E-03    0   0.8099   age090_m62            0.0000     1.8077E+00    10.2332   2.8877   111.1392
 41      0.0000     0.0000E+00    0.0000E+00    5.500000E+07  0.02000  2.733E-03    0   0.7595   age110_m62            0.0000     1.4727E+00     9.0295   2.9092   111.1307
 42      0.0000     0.0000E+00    0.0000E+00    1.609000E+08  0.02000  1.369E-03    0   0.6985   age120_m62            0.0000     1.3884E+00     8.6383   2.7347   115.1754
 43      0.0000     0.0000E+00    0.0000E+00    2.861200E+08  0.02000  9.013E-04    0   0.6714   age125_m62            0.0000     1.3513E+00     8.3944   2.4738   119.2456
 44      0.0000     0.0000E+00    0.0000E+00    5.088000E+08  0.02000  5.028E-04    0   0.6449   age130_m62            0.0000     1.2242E+00     7.8436   2.1034   122.3210
 45      0.0000     0.0000E+00    0.0000E+00    9.047900E+08  0.02000  2.428E-04    0   0.6179   age135_m62            0.0000     1.0101E+00     7.1395   1.5352   120.7993
 46      0.0000     0.0000E+00    0.0000E+00    1.434000E+09  0.02000  1.263E-04    0   0.5908   age139_m62            0.0000     9.0398E-01     6.7403   1.1021   118.5530
 47      0.0000     0.0000E+00    0.0000E+00    2.500000E+09  0.02000  5.985E-05    0   0.5673   age150_m62            0.0000     8.4581E-01     6.4285   0.7528   116.2952
 48      0.0063     1.5157E-03    1.6533E-03    4.250000E+09  0.02000  3.271E-05    0   0.5468   age158_m62            0.0000     8.4635E-01     6.2787   0.4595   115.0102
 49      0.0029     1.6752E-03    1.7267E-03    1.000000E+10  0.02000  1.360E-05    0   0.5167   age181_m62            0.0000     9.3592E-01     6.3887   0.1231   114.2091
 50      0.0000     0.0000E+00    0.0000E+00    1.800000E+10  0.02000  7.124E-06    0   0.5013   age213_m62            0.0000     1.0423E+00     6.5774  -0.0729   112.7987
 51      8.3831     2.5586E-03    5.1030E-03    1.000000E+06  0.05000  2.592E-02    0   0.9998   age020_m72            0.0000     1.6408E+00     8.5525   4.0000   106.1597
 52      0.0000     0.0000E+00    0.0000E+00    3.160000E+06  0.05000  4.845E-02    0   0.9577   age045_m72            0.0000     1.3804E+00     8.1036   4.0000   101.4675
 53      0.0000     0.0000E+00    0.0000E+00    5.010000E+06  0.05000  3.072E-02    0   0.9147   age055_m72            0.0000     1.6553E+00     9.5601   3.5167   105.7076
 54      0.0000     0.0000E+00    0.0000E+00    6.610000E+06  0.05000  1.455E-02    0   0.8877   age061_m72            0.0000     3.2291E+00    14.2664   2.7146   113.3891
 55      0.0000     0.0000E+00    0.0000E+00    1.000000E+07  0.05000  9.074E-03    0   0.8524   age070_m72            0.0000     1.8622E+00    10.1276   3.6919   105.6347
 56      0.0000     0.0000E+00    0.0000E+00    2.512000E+07  0.05000  4.250E-03    0   0.7902   age090_m72            0.0000     1.7234E+00     9.8513   3.3747   108.5745
 57      0.0000     0.0000E+00    0.0000E+00    4.000000E+07  0.05000  3.087E-03    0   0.7618   age104_m72            0.0000     1.7597E+00    10.0262   3.1332   111.0591
 58      0.0000     0.0000E+00    0.0000E+00    1.015200E+08  0.05000  1.700E-03    0   0.7096   age116_m72            0.0000     1.4842E+00     8.9925   2.8722   114.7776
 59      0.0000     0.0000E+00    0.0000E+00    2.861200E+08  0.05000  7.384E-04    0   0.6633   age125_m72            0.0000     1.2786E+00     8.0496   2.3428   120.9979
 60      0.0000     0.0000E+00    0.0000E+00    5.088000E+08  0.05000  3.819E-04    0   0.6372   age130_m72            0.0000     1.0689E+00     7.2212   1.8691   122.2711
 61      0.0000     0.0000E+00    0.0000E+00    9.047900E+08  0.05000  1.676E-04    0   0.6110   age135_m72            0.0000     8.8630E-01     6.5001   1.2085   118.6045
 62      0.0000     0.0000E+00    0.0000E+00    1.434000E+09  0.05000  8.837E-05    0   0.5874   age139_m72            0.0000     8.4809E-01     6.3360   0.7514   118.1190
 63     14.0850     2.6323E+00    2.9396E+00    2.500000E+09  0.05000  4.233E-05    0   0.5598   age150_m72            0.0000     8.5629E-01     6.2542   0.4609   115.9896
 64     25.2731     1.3933E+01    1.4589E+01    6.250000E+09  0.05000  1.435E-05    0   0.5249   age166_m72            0.0000     9.4494E-01     6.3909   0.0313   113.5898
 65      7.0719     8.5899E+00    8.6294E+00    1.300000E+10  0.05000  6.513E-06    0   0.5036   age193_m72            0.0000     1.1066E+00     6.7276  -0.2303   113.9516
 66     42.8213     7.4831E+01    7.3817E+01    1.800000E+10  0.05000  4.527E-06    0   0.4945   age213_m72            0.0000     1.2178E+00     6.9766  -0.3777   113.1599


## Synthesis Results - Average & Chains ##

# j      x_j: min, <> & last-chain-values for 1 ...  7 chains
  1      0.0000      1.9647      4.1683      3.3452      3.2130      2.7774      0.2683      3.8951      5.0478
  2      0.0000      0.1770      0.0000      0.0000      0.0000      0.0000      0.8433      0.0000      0.0000
  3      0.0000      0.1462      0.1031      0.0000      0.0000      0.0000      0.0000      1.5850      0.0000
  4      0.0000      0.4202      0.0000      0.6301      0.0000      0.0000      1.5121      0.0000      0.0000
  5      0.0000      0.1799      0.0000      0.0000      1.1516      0.0000      0.0000      0.0000      0.0000
  6      0.0000      0.3514      0.2906      0.4470      0.0000      0.0000      2.6318      0.0000      1.5938
  7      0.0000      0.2948      0.0000      0.0000      0.0000      3.2148      0.3124      1.2648      0.0000
  8      0.0000      0.3111      0.0000      0.6599      0.0000      1.2048      0.0000      0.0000      1.3563
  9      0.0000      0.1497      0.0000      0.0000      0.0000      0.0000      0.3321      0.8880      0.0000
 10      0.0000      0.1474      0.7864      0.0000      0.1333      0.0000      0.0000      0.0000      0.2255
 11      0.0000      0.2637      0.0000      0.0000      0.0000      0.0000      0.0000      0.0037      0.0000
 12      0.0000      0.1829      0.0000      0.0000      0.0000      0.0000      0.7391      0.0000      0.9908
 13      0.0000      0.4488      0.0000      0.0000      0.0000      0.0000      0.0000      0.0000      0.0000
 14      0.0000      0.9217      0.0000      0.0000      0.0000      0.0000      0.0000      0.0000      1.7498
 15      0.0000      1.1904      0.0000      0.0000      0.0000      0.0000      0.0000      1.6293      0.0000
 16      0.0000      1.1588      0.0000      0.0000      0.0000      0.0000      0.0000      0.0000      0.3900
 17      0.0000      0.8941      0.0000      0.0000      0.7209      0.0000      0.2416      0.0000      0.5697
 18      6.6143      1.2996      3.3169      1.9305      0.0000      0.4623      1.7762      0.0000      1.3315
 19      0.0000      1.2450      2.0294      2.2633      2.1437      0.0000      0.0000      1.0898      1.5620
 20      0.0000      0.6187      0.6242      0.0000      0.9391      2.8428      0.0000      0.0000      0.0000
 21      0.0000      0.5943      0.0000      1.5303      0.0000      0.0000      0.0000      0.0000      0.0000
 22      0.0000      0.2799      1.5545      0.0000      0.0000      0.4716      0.0000      0.1661      0.0000
 23      0.0000      0.2733      0.0000      0.5069      0.0000      0.0000      0.0000      1.3200      0.0000
 24      0.0000      0.3898      0.0000      0.0000      2.7171      0.0000      0.0000      1.1604      0.0000
 25      0.0000      0.4332      0.2047      1.1410      1.2219      0.0000      0.0000      0.0000      0.0000
 26      0.0000      0.1398      0.0000      0.0000      0.0000      0.0000      0.0000      0.0000      0.0182
 27      0.0000      0.0808      0.0000      0.0000      0.0000      0.7388      0.0000      0.0000      0.0000
 28      0.0000      0.3439      0.0000      0.0000      0.0000      0.0000      0.0000      0.1989      0.0000
 29      0.0000      0.3183      0.0000      0.0000      0.0000      0.0000      0.0000      0.0000      0.0000
 30      0.0000      1.0180      0.0000      0.0000      0.0000      0.7677      0.0000      0.2320      0.0000
 31      0.0000      0.9644      0.0000      0.0000      0.0510      0.0000      0.0000      0.0000      0.0000
 32      0.0000      0.9333      0.0000      0.0000      0.0000      0.0000      0.0000      0.0000      0.0000
 33      0.0000      0.4579      0.0000      0.0000      1.7580      0.0000      0.0000      0.0000      0.0000
 34      0.0000      0.6409      0.0000      0.3357      0.0000      0.0000      1.2174      0.0000      0.0000
 35      5.3926      2.7390      2.8081      3.4565      3.7476      3.2905      4.7712      2.1920      3.5113
 36      6.8830      3.0996      0.0000      3.1722      1.9198      8.2845      3.4338      3.5668      3.2250
 37      0.0000      0.2793      0.6367      0.0948      0.1894      0.5714      0.0000      0.0105      0.0000
 38      0.0033      0.1712      0.0000      1.3170      0.0000      0.0000      1.0230      0.0000      0.0000
 39      0.0000      0.1768      0.0000      0.0000      0.0000      0.0000      0.0000      0.0000      0.0000
 40      0.0000      0.2282      0.0461      1.3723      0.0000      0.0000      0.8395      0.2846      0.0000
 41      0.0000      0.3461      0.0000      0.0000      0.0000      0.0000      0.0000      0.0000      0.0000
 42      0.0000      0.1198      0.0000      0.0000      0.0000      0.0000      0.0000      0.0000      0.0000
 43      0.0000      0.1444      0.0000      1.3096      0.0345      0.0000      0.0000      0.0000      0.3401
 44      0.0000      0.3483      0.0000      0.0000      0.0000      0.5991      0.0000      0.0586      0.0000
 45      0.0000      0.4911      0.9244      0.0000      0.3846      0.0000      0.0000      0.2371      0.0000
 46      0.0000      0.8544      0.0000      0.5567      0.0000      0.8810      3.0144      0.0000      0.0000
