###################################################################
## OUTPUT of StarlightChains_v04.for    [Cid@UFSC - 01/Apr/2007] ##
###################################################################

## Some input info
2006lv.txt                               [arq_obs]
Base.CB07.vall.4m                        [arq_base]
Masks.EmLines.NEW.gm                     [arq_masks]
StCv04.C11.config                        [arq_config]
   66                                    [N_base]
    0                                    [N_YAV_components = # of components with extra extinction!]
    0                                    [i_FitPowerLaw (1/0 = Yes/No)]
-9.99                                    [alpha_PowerLaw]
CCM                                      [red_law_option]
 1.458241                                [q_norm = A(l_norm)/A(V)]

## (Re)Sampling Parameters
 3741.00                                 [l_ini (A)]
 7218.00                                 [l_fin (A)]
    1.00                                 [dl    (A)]     (OBS: dl_cushion =    50.00 A)

## Normalization info
 4020.00                                 [l_norm (A) - for base]
 4010.00                                 [llow_norm (A) - window for f_obs]
 4060.00                                 [lupp_norm (A) - window for f_obs]
2.555572E-16                             [fobs_norm (in input units)]

## S/N
 3691.00                                 [llow_SN (A) - window for S/N]
 7268.00                                 [lupp_SN (A) - window for S/N]
   8.372                                 [S/N in S/N window]
   9.103                                 [S/N in norm. window]
  14.197                                 [S/N_err in S/N window]
  15.436                                 [S/N_err in norm. window]
  1.0000                                 [fscale_chi2]

## etc...
    -2007323                             [idum_orig]
  2386                                   [NOl_eff]
  2386                                   [Nl_eff]
     0    NSIGMA                         [Ntot_cliped & clip_method]
  1266930                                [Nglobal_steps]
   7                                     [N_chains]
  21                                     [NEX0s_base = N_base in EX0s-fits]
 0   0   1        2   2.0   2.643E+01    [Clip-Bug, RC-Crash & Burn-In warning-flags, n_censored_weights, wei_nsig_threshold & wei_limit]
    14     14.076     13.571      0.505  [idt_all, wdt_TotTime, wdt_UsrTime & wdt_SysTime (sec)]

## Synthesis Results - Best model ##

 1.89433E-01                             [chi2/Nl_eff]
     2.60897                             [adev (%)]

   109.77525                             [sum-of-x (%)]
 4.55543E-16                             [Flux_tot (units of input spectrum!)]
 1.79500E-12                             [Mini_tot (???)]
 1.07651E-12                             [Mcor_tot (???)]

  74.55                                  [v0_min  (km/s)]
 195.41                                  [vd_min  (km/s)]
 0.3609                                  [AV_min  (mag)]
 0.0000                                  [YAV_min (mag)]

# j     x_j(%)      Mini_j(%)     Mcor_j(%)     age_j(yr)     Z_j      (L/M)_j    YAV?  Mstars   component_j        a/Fe...       SSP_chi2r SSP_adev(%)   SSP_AV   SSP_x(%)
  1      0.0000     0.0000E+00    0.0000E+00    1.000000E+06  0.00400  1.094E-02    0   1.0000   age020_m42            0.0000     6.7363E-01     5.3381   2.7849    94.2912
  2      3.5715     2.0606E-02    3.4355E-02    3.160000E+06  0.00400  4.007E-02    0   0.9999   age045_m42            0.0000     4.7501E-01     4.1304   2.0769    99.9954
  3      0.0000     0.0000E+00    0.0000E+00    5.010000E+06  0.00400  2.539E-02    0   0.9488   age055_m42            0.0000     5.4546E-01     4.5847   2.3866    98.0026
  4      2.9616     2.6132E-02    4.0175E-02    6.610000E+06  0.00400  2.620E-02    0   0.9220   age061_m42            0.0000     4.6440E-01     4.0504   1.9984   100.4600
  5      0.0000     0.0000E+00    0.0000E+00    1.000000E+07  0.00400  1.322E-02    0   0.8862   age070_m42            0.0000     5.8962E-01     4.8920   1.6763   104.5126
  6      0.0000     0.0000E+00    0.0000E+00    1.445000E+07  0.00400  7.883E-03    0   0.8571   age078_m42            0.0000     6.0549E-01     4.9983   2.0038   101.8246
  7      0.0000     0.0000E+00    0.0000E+00    2.512000E+07  0.00400  5.251E-03    0   0.8174   age090_m42            0.0000     6.4009E-01     5.1272   1.5397   105.4168
  8      0.0000     0.0000E+00    0.0000E+00    4.000000E+07  0.00400  3.649E-03    0   0.7851   age104_m42            0.0000     5.8068E-01     4.8418   1.3178   106.0475
  9      2.6245     1.9585E-01    2.4914E-01    5.500000E+07  0.00400  3.098E-03    0   0.7629   age110_m42            0.0000     4.9250E-01     4.2038   1.4931   105.0006
 10      1.2206     1.2666E-01    1.5220E-01    1.015200E+08  0.00400  2.228E-03    0   0.7207   age116_m42            0.0000     4.5695E-01     3.9161   1.5278   104.5142
 11      0.0000     0.0000E+00    0.0000E+00    2.861200E+08  0.00400  1.093E-03    0   0.6648   age125_m42            0.0000     5.6637E-01     4.4744   0.9440   108.3671
 12      0.0000     0.0000E+00    0.0000E+00    5.088000E+08  0.00400  6.597E-04    0   0.6365   age130_m42            0.0000     4.4279E-01     3.9438   0.9555   108.2387
 13      0.0000     0.0000E+00    0.0000E+00    1.434000E+09  0.00400  2.132E-04    0   0.5798   age139_m42            0.0000     2.8779E-01     3.1665  -0.0042   109.9620
 14      0.0000     0.0000E+00    0.0000E+00    4.250000E+09  0.00400  5.895E-05    0   0.5377   age158_m42            0.0000     2.3926E-01     2.9073  -0.4253   104.9068
 15      1.0628     7.0001E+00    6.0835E+00    7.500000E+09  0.00400  3.510E-05    0   0.5212   age171_m42            0.0000     2.9798E-01     3.1976  -0.6015   103.7114
 16      0.0000     0.0000E+00    0.0000E+00    1.300000E+10  0.00400  2.005E-05    0   0.5034   age193_m42            0.0000     3.8328E-01     3.5557  -0.7565   102.7341
 17      0.5606     8.4984E+00    7.0384E+00    1.800000E+10  0.00400  1.525E-05    0   0.4967   age213_m42            0.0000     3.7657E-01     3.5416  -0.7833   102.4388
 18      0.0000     0.0000E+00    0.0000E+00    1.000000E+06  0.00800  1.238E-02    0   1.0000   age020_m52            0.0000     6.7260E-01     5.3356   2.7827    94.4210
 19      0.0000     0.0000E+00    0.0000E+00    3.160000E+06  0.00800  3.074E-02    0   0.9966   age045_m52            0.0000     6.5354E-01     5.2217   2.7082    95.1841
 20      0.0000     0.0000E+00    0.0000E+00    5.010000E+06  0.00800  2.668E-02    0   0.9443   age055_m52            0.0000     5.5802E-01     4.7124   2.4656    97.2909
 21     21.7994     2.3594E-01    3.6103E-01    6.610000E+06  0.00800  2.136E-02    0   0.9177   age061_m52            0.0000     4.3708E-01     4.4691   1.1757   105.8082
 22      0.0000     0.0000E+00    0.0000E+00    1.000000E+07  0.00800  1.215E-02    0   0.8827   age070_m52            0.0000     6.8618E-01     5.4147   1.8417   104.9347
 23      0.0000     0.0000E+00    0.0000E+00    1.445000E+07  0.00800  8.717E-03    0   0.8552   age078_m52            0.0000     5.8471E-01     4.9254   1.9682   103.2942
 24      0.0000     0.0000E+00    0.0000E+00    2.512000E+07  0.00800  5.592E-03    0   0.8162   age090_m52            0.0000     6.5313E-01     5.1884   1.6023   106.7350
 25      0.0000     0.0000E+00    0.0000E+00    4.000000E+07  0.00800  3.896E-03    0   0.7841   age104_m52            0.0000     5.9112E-01     4.8080   1.5256   107.0327
 26      0.0000     0.0000E+00    0.0000E+00    1.015200E+08  0.00800  2.148E-03    0   0.7226   age116_m52            0.0000     4.6393E-01     4.0733   1.4849   105.8666
 27      0.0000     0.0000E+00    0.0000E+00    2.861200E+08  0.00800  9.925E-04    0   0.6683   age125_m52            0.0000     4.2109E-01     3.8347   1.0199   109.2920
 28      0.0000     0.0000E+00    0.0000E+00    9.047900E+08  0.00800  3.141E-04    0   0.6138   age135_m52            0.0000     3.1060E-01     3.3050   0.2520   112.4029
 29      0.0000     0.0000E+00    0.0000E+00    1.434000E+09  0.00800  1.719E-04    0   0.5853   age139_m52            0.0000     2.9745E-01     3.1217  -0.3327   110.4367
 30      0.0000     0.0000E+00    0.0000E+00    2.500000E+09  0.00800  7.872E-05    0   0.5600   age150_m52            0.0000     3.0850E-01     3.2172  -0.5716   106.1773
 31      0.0000     0.0000E+00    0.0000E+00    4.250000E+09  0.00800  4.336E-05    0   0.5426   age158_m52            0.0000     3.3242E-01     3.3041  -0.5864   105.1563
 32      0.0000     0.0000E+00    0.0000E+00    6.250000E+09  0.00800  3.159E-05    0   0.5319   age166_m52            0.0000     4.5831E-01     3.8092  -0.7706   104.3713
 33      0.0000     0.0000E+00    0.0000E+00    1.300000E+10  0.00800  1.361E-05    0   0.5073   age193_m52            0.0000     1.0424E+00     6.1627  -1.0000    93.7007
 34      0.0000     0.0000E+00    0.0000E+00    1.800000E+10  0.00800  9.886E-06    0   0.4990   age213_m52            0.0000     1.5474E+00     7.5905  -1.0000    88.9649
 35      0.0000     0.0000E+00    0.0000E+00    1.000000E+06  0.02000  1.544E-02    0   1.0000   age020_m62            0.0000     6.8020E-01     5.3770   2.7776    94.6868
 36      0.0000     0.0000E+00    0.0000E+00    3.160000E+06  0.02000  3.762E-02    0   0.9858   age045_m62            0.0000     6.7744E-01     5.3363   2.7183    95.4718
 37      0.0000     0.0000E+00    0.0000E+00    5.010000E+06  0.02000  3.296E-02    0   0.9342   age055_m62            0.0000     5.0077E-01     4.2717   2.3541    98.8907
 38      0.0000     0.0000E+00    0.0000E+00    8.710000E+06  0.02000  1.154E-02    0   0.8861   age067_m62            0.0000     1.7741E+00     9.1711   1.2113   112.0233
 39      0.0000     0.0000E+00    0.0000E+00    1.445000E+07  0.02000  7.663E-03    0   0.8472   age078_m62            0.0000     9.1770E-01     6.4644   1.4626   108.6118
 40      0.0000     0.0000E+00    0.0000E+00    2.512000E+07  0.02000  4.532E-03    0   0.8099   age090_m62            0.0000     1.0275E+00     6.7331   1.4524   108.4353
 41      0.0000     0.0000E+00    0.0000E+00    5.500000E+07  0.02000  2.733E-03    0   0.7595   age110_m62            0.0000     5.7775E-01     4.7750   1.5055   106.4048
 42      0.0000     0.0000E+00    0.0000E+00    1.609000E+08  0.02000  1.369E-03    0   0.6985   age120_m62            0.0000     4.6750E-01     4.0222   1.3731   107.9280
 43      0.0000     0.0000E+00    0.0000E+00    2.861200E+08  0.02000  9.013E-04    0   0.6714   age125_m62            0.0000     4.2599E-01     3.9461   1.1374   110.3094
 44      3.0536     1.4040E+00    1.5098E+00    5.088000E+08  0.02000  5.028E-04    0   0.6449   age130_m62            0.0000     3.2220E-01     3.5435   0.7915   111.6945
 45      6.4814     6.1714E+00    6.3584E+00    9.047900E+08  0.02000  2.428E-04    0   0.6179   age135_m62            0.0000     2.4031E-01     2.9594   0.2155   110.6704
 46      0.0000     0.0000E+00    0.0000E+00    1.434000E+09  0.02000  1.263E-04    0   0.5908   age139_m62            0.0000     2.8102E-01     3.0507  -0.2247   108.9421
 47      0.0000     0.0000E+00    0.0000E+00    2.500000E+09  0.02000  5.985E-05    0   0.5673   age150_m62            0.0000     4.2589E-01     3.6793  -0.5685   106.4802
 48      0.0000     0.0000E+00    0.0000E+00    4.250000E+09  0.02000  3.271E-05    0   0.5468   age158_m62            0.0000     6.8076E-01     4.7251  -0.8464   104.3954
 49      0.0000     0.0000E+00    0.0000E+00    1.000000E+10  0.02000  1.360E-05    0   0.5167   age181_m62            0.0000     1.2731E+00     6.8544  -1.0000    95.7673
 50      0.0000     0.0000E+00    0.0000E+00    1.800000E+10  0.02000  7.124E-06    0   0.5013   age213_m62            0.0000     2.2306E+00     9.2485  -1.0000    86.7241
 51      0.0000     0.0000E+00    0.0000E+00    1.000000E+06  0.05000  2.592E-02    0   0.9998   age020_m72            0.0000     7.0769E-01     5.5263   2.7657    94.8561
 52      0.0000     0.0000E+00    0.0000E+00    3.160000E+06  0.05000  4.845E-02    0   0.9577   age045_m72            0.0000     6.1862E-01     4.9305   2.6105    96.3569
 53      0.0000     0.0000E+00    0.0000E+00    5.010000E+06  0.05000  3.072E-02    0   0.9147   age055_m72            0.0000     7.8351E-01     5.7676   2.0746   103.2620
 54      0.0000     0.0000E+00    0.0000E+00    6.610000E+06  0.05000  1.455E-02    0   0.8877   age061_m72            0.0000     3.2853E+00    12.0135   1.2291   114.6334
 55      0.0014     3.5432E-05    5.0360E-05    1.000000E+07  0.05000  9.074E-03    0   0.8524   age070_m72            0.0000     1.1377E+00     6.4459   2.2601   102.9332
 56      0.0000     0.0000E+00    0.0000E+00    2.512000E+07  0.05000  4.250E-03    0   0.7902   age090_m72            0.0000     9.1833E-01     5.8765   1.9609   104.7564
 57      0.0000     0.0000E+00    0.0000E+00    4.000000E+07  0.05000  3.087E-03    0   0.7618   age104_m72            0.0000     9.9609E-01     6.0616   1.7288   106.7028
 58      0.0000     0.0000E+00    0.0000E+00    1.015200E+08  0.05000  1.700E-03    0   0.7096   age116_m72            0.0000     5.9016E-01     4.5175   1.5018   108.1217
 59      0.0000     0.0000E+00    0.0000E+00    2.861200E+08  0.05000  7.384E-04    0   0.6633   age125_m72            0.0000     3.6170E-01     3.6999   1.0208   111.0622
 60     21.5032     1.3017E+01    1.3830E+01    5.088000E+08  0.05000  3.819E-04    0   0.6372   age130_m72            0.0000     2.4753E-01     3.1190   0.5530   111.7395
 61     44.6110     6.1536E+01    6.2692E+01    9.047900E+08  0.05000  1.676E-04    0   0.6110   age135_m72            0.0000     3.6836E-01     3.5322  -0.1119   108.4566
 62      0.0000     0.0000E+00    0.0000E+00    1.434000E+09  0.05000  8.837E-05    0   0.5874   age139_m72            0.0000     4.9245E-01     3.9518  -0.5661   107.9126
 63      0.3237     1.7678E+00    1.6501E+00    2.500000E+09  0.05000  4.233E-05    0   0.5598   age150_m72            0.0000     7.8335E-01     5.1107  -0.8386   104.9307
 64      0.0000     0.0000E+00    0.0000E+00    6.250000E+09  0.05000  1.435E-05    0   0.5249   age166_m72            0.0000     1.6496E+00     7.9278  -1.0000    91.4776
 65      0.0000     0.0000E+00    0.0000E+00    1.300000E+10  0.05000  6.513E-06    0   0.5036   age193_m72            0.0000     3.2884E+00    11.3138  -1.0000    81.5727
 66      0.0000     0.0000E+00    0.0000E+00    1.800000E+10  0.05000  4.527E-06    0   0.4945   age213_m72            0.0000     4.5398E+00    13.3642  -1.0000    75.6747


## Synthesis Results - Average & Chains ##

# j      x_j: min, <> & last-chain-values for 1 ...  7 chains
  1      0.0000      0.1393      0.0000      0.0000      0.3151      0.0770      0.2801      0.0000      0.0000
  2      3.5715      2.1008      2.8769      2.2157      2.1848      1.9454      2.1373      1.5759      1.9505
  3      0.0000      1.0552      0.0000      1.3342      0.0000      1.5491      1.2472      1.2498      2.5862
  4      2.9616      1.8145      2.1765      3.5218      2.7278      1.8563      1.3915      2.7341      3.8070
  5      0.0000      0.2105      0.0000      0.1942      0.0000      0.0000      0.0000      0.0655      0.0000
  6      0.0000      0.2319      1.2959      0.0000      0.0000      0.0000      1.3662      0.0000      0.0000
  7      0.0000      0.4384      0.0000      0.0167      0.1718      0.0560      0.7189      0.0000      0.8529
  8      0.0000      0.5443      4.3391      0.0000      0.3280      1.6808      0.0000      1.2824      2.7127
  9      2.6245      1.4757      0.0000      0.3009      2.3660      0.0000      0.6746      3.3535      0.0000
 10      1.2206      0.4740      0.0000      0.0000      0.0000      0.0000      0.4898      0.0000      0.0000
 11      0.0000      0.9582      1.3556      0.3711      0.0000      0.0000      0.0000      0.0896      0.0000
 12      0.0000      1.4053      0.1761      1.8036      2.9004      1.2367      0.3693      0.6473      0.7424
 13      0.0000      0.7119      0.0000      0.0000      0.0000      0.5715      0.0000      0.0000      0.0000
 14      0.0000      0.5149      0.0000      0.0000      0.9742      0.6526      0.0000      0.0000      0.8592
 15      1.0628      0.1550      0.0000      0.0000      0.0000      0.0000      0.4664      0.0000      0.0000
 16      0.0000      0.2207      0.2739      0.0000      0.4527      0.5445      0.1741      0.0000      0.0000
 17      0.5606      0.5124      0.0000      0.0000      0.0000      0.6482      0.8329      1.3353      0.6240
 18      0.0000      0.1612      0.3035      0.2201      0.0005      0.0000      0.0000      0.0000      0.4293
 19      0.0000      0.1992      0.0000      0.0000      0.0000      0.0000      0.0000      0.0000      0.0000
 20      0.0000      0.2805      0.2575      0.8166      0.7271      0.1829      0.0000      0.0000      0.0000
 21     21.7994      6.2116      9.3483      7.0745      8.4455      8.7044     11.7620      7.6483      7.2906
 22      0.0000      0.3481      0.0000      0.0000      0.0000      0.0000      0.0000      0.0000      0.0000
 23      0.0000      0.3700      0.0000      2.2759      0.0000      0.0000      0.0000      0.0000      0.0000
 24      0.0000      0.2598      0.0000      0.0000      0.3093      0.2980      0.0000      0.0506      0.0000
 25      0.0000      0.2908      2.6189      0.0000      0.0000      0.0504      2.3265      0.0000      0.0000
 26      0.0000      0.5830      0.0000      0.0000      0.0000      0.5047      0.0000      0.5083      0.5998
 27      0.0000      0.8823      0.0000      0.0000      2.3397      0.0000      0.0000      1.6660      0.2547
 28      0.0000      1.0716      0.5313      0.0000      0.0000      0.0000      0.4389      1.0469      1.5451
 29      0.0000      0.2061      0.0000      0.0000      0.0000      0.0000      0.0000      0.0000      1.0218
 30      0.0000      0.4461      0.4830      0.0000      0.0000      0.2905      0.0289      0.7910      0.0000
 31      0.0000      0.2645      0.2731      0.0000      0.0000      0.0000      0.5496      0.0000      1.0118
 32      0.0000      0.0653      0.3822      0.0000      0.0000      0.0000      0.0000      0.0000      0.0000
 33      0.0000      0.0579      0.0000      0.0000      0.1440      0.0000      0.0000      0.0000      0.0000
 34      0.0000      0.0153      0.0000      0.0000      0.0000      0.0000      0.0000      0.0000      0.0000
 35      0.0000      1.2598      1.1098      0.6968      0.7126      3.4780      2.4065      1.1731      1.8788
 36      0.0000      0.1257      0.0000      0.1238      0.0000      0.0000      0.0000      1.1870      0.3287
 37      0.0000      0.2170      0.0000      0.0000      0.0462      0.0800      0.0000      0.0000      0.0000
 38      0.0000      0.2010      0.0000      0.0000      0.0000      0.0000      0.0000      1.1932      0.3149
 39      0.0000      0.3372      0.0000      0.1963      0.0000      0.0000      0.0000      0.0000      0.0000
 40      0.0000      0.2350      0.1933      0.0000      0.0000      0.0000      0.0000      0.0000      0.0000
 41      0.0000      0.3902      0.0000      0.0000      0.7937      1.0507      0.2453      0.3139      0.0000
 42      0.0000      0.7927      0.0000      0.2299      0.0000      0.5256      0.0000      2.2681      0.0000
 43      0.0000      0.5813      0.0000      0.0000      0.0000      0.4327      0.0000      0.3088      0.0000
 44      3.0536      1.0186      0.0000      0.0000      0.0000      0.0000      2.3697      0.0000      2.2846
 45      6.4814     12.8223     13.2421     11.7555     14.3795     11.2681      8.5279      7.2776      9.4322
 46      0.0000      1.0884      0.0000      4.7736      0.0000      0.1474      0.2436      0.0551      0.0000
