###################################################################
## OUTPUT of StarlightChains_v04.for    [Cid@UFSC - 01/Apr/2007] ##
###################################################################

## Some input info
2006E.txt                                [arq_obs]
Base.CB07.vall.4m                        [arq_base]
Masks.EmLines.NEW.gm                     [arq_masks]
StCv04.C11.config                        [arq_config]
   66                                    [N_base]
    0                                    [N_YAV_components = # of components with extra extinction!]
    0                                    [i_FitPowerLaw (1/0 = Yes/No)]
-9.99                                    [alpha_PowerLaw]
CCM                                      [red_law_option]
 1.458241                                [q_norm = A(l_norm)/A(V)]

## (Re)Sampling Parameters
 3741.00                                 [l_ini (A)]
 7218.00                                 [l_fin (A)]
    1.00                                 [dl    (A)]     (OBS: dl_cushion =    50.00 A)

## Normalization info
 4020.00                                 [l_norm (A) - for base]
 4010.00                                 [llow_norm (A) - window for f_obs]
 4060.00                                 [lupp_norm (A) - window for f_obs]
2.754242E-17                             [fobs_norm (in input units)]

## S/N
 3691.00                                 [llow_SN (A) - window for S/N]
 7268.00                                 [lupp_SN (A) - window for S/N]
   6.738                                 [S/N in S/N window]
   5.901                                 [S/N in norm. window]
  11.948                                 [S/N_err in S/N window]
  10.464                                 [S/N_err in norm. window]
  1.0000                                 [fscale_chi2]

## etc...
    -2007317                             [idum_orig]
  2384                                   [NOl_eff]
  2344                                   [Nl_eff]
    40    NSIGMA                         [Ntot_cliped & clip_method]
  1618960                                [Nglobal_steps]
   7                                     [N_chains]
  25                                     [NEX0s_base = N_base in EX0s-fits]
 0   0   1       38   2.0   1.888E+01    [Clip-Bug, RC-Crash & Burn-In warning-flags, n_censored_weights, wei_nsig_threshold & wei_limit]
    14     13.969     13.405      0.564  [idt_all, wdt_TotTime, wdt_UsrTime & wdt_SysTime (sec)]

## Synthesis Results - Best model ##

 4.78136E-01                             [chi2/Nl_eff]
     4.65051                             [adev (%)]

   106.92189                             [sum-of-x (%)]
 3.10121E-17                             [Flux_tot (units of input spectrum!)]
 9.68920E-13                             [Mini_tot (???)]
 5.07768E-13                             [Mcor_tot (???)]

  47.12                                  [v0_min  (km/s)]
 120.18                                  [vd_min  (km/s)]
 0.0385                                  [AV_min  (mag)]
 0.0000                                  [YAV_min (mag)]

# j     x_j(%)      Mini_j(%)     Mcor_j(%)     age_j(yr)     Z_j      (L/M)_j    YAV?  Mstars   component_j        a/Fe...       SSP_chi2r SSP_adev(%)   SSP_AV   SSP_x(%)
  1      0.0000     0.0000E+00    0.0000E+00    1.000000E+06  0.00400  1.094E-02    0   1.0000   age020_m42            0.0000     1.4685E+00     7.5969   3.5373    86.7169
  2      0.1827     1.3646E-04    2.6036E-04    3.160000E+06  0.00400  4.007E-02    0   0.9999   age045_m42            0.0000     1.2444E+00     6.9599   2.7621    95.0874
  3      0.0000     0.0000E+00    0.0000E+00    5.010000E+06  0.00400  2.539E-02    0   0.9488   age055_m42            0.0000     1.3388E+00     7.1947   3.1054    91.6283
  4      0.0000     0.0000E+00    0.0000E+00    6.610000E+06  0.00400  2.620E-02    0   0.9220   age061_m42            0.0000     1.2502E+00     6.9017   2.6830    95.5386
  5      0.0000     0.0000E+00    0.0000E+00    1.000000E+07  0.00400  1.322E-02    0   0.8862   age070_m42            0.0000     1.3663E+00     7.0860   2.3747    98.6665
  6      0.0000     0.0000E+00    0.0000E+00    1.445000E+07  0.00400  7.883E-03    0   0.8571   age078_m42            0.0000     1.4262E+00     7.2493   2.7192    95.3222
  7      0.0049     2.7701E-05    4.3208E-05    2.512000E+07  0.00400  5.251E-03    0   0.8174   age090_m42            0.0000     1.3981E+00     7.1644   2.2350    99.6804
  8      0.0000     0.0000E+00    0.0000E+00    4.000000E+07  0.00400  3.649E-03    0   0.7851   age104_m42            0.0000     1.2927E+00     6.9431   1.9984   101.0250
  9      0.0000     0.0000E+00    0.0000E+00    5.500000E+07  0.00400  3.098E-03    0   0.7629   age110_m42            0.0000     1.2398E+00     6.7908   2.1582   100.8239
 10      0.0000     0.0000E+00    0.0000E+00    1.015200E+08  0.00400  2.228E-03    0   0.7207   age116_m42            0.0000     1.2305E+00     6.7401   2.1811   100.9567
 11      0.0000     0.0000E+00    0.0000E+00    2.861200E+08  0.00400  1.093E-03    0   0.6648   age125_m42            0.0000     1.2249E+00     6.8739   1.5781   105.7564
 12      0.0000     0.0000E+00    0.0000E+00    5.088000E+08  0.00400  6.597E-04    0   0.6365   age130_m42            0.0000     1.1149E+00     6.5711   1.5690   106.7172
 13      0.0000     0.0000E+00    0.0000E+00    1.434000E+09  0.00400  2.132E-04    0   0.5798   age139_m42            0.0000     6.8802E-01     5.4752   0.5699   110.4910
 14     10.8447     5.5070E+00    5.6503E+00    4.250000E+09  0.00400  5.895E-05    0   0.5377   age158_m42            0.0000     5.2921E-01     4.8941   0.1564   104.9803
 15     12.2243     1.0425E+01    1.0369E+01    7.500000E+09  0.00400  3.510E-05    0   0.5212   age171_m42            0.0000     5.4672E-01     4.8993  -0.0247   104.0365
 16      6.9898     1.0436E+01    1.0024E+01    1.300000E+10  0.00400  2.005E-05    0   0.5034   age193_m42            0.0000     5.9337E-01     5.0104  -0.1823   103.1838
 17      0.0000     0.0000E+00    0.0000E+00    1.800000E+10  0.00400  1.525E-05    0   0.4967   age213_m42            0.0000     5.8097E-01     4.9750  -0.2067   102.7710
 18      0.0000     0.0000E+00    0.0000E+00    1.000000E+06  0.00800  1.238E-02    0   1.0000   age020_m52            0.0000     1.4628E+00     7.5991   3.5359    86.7974
 19      0.0140     1.3636E-05    2.5931E-05    3.160000E+06  0.00800  3.074E-02    0   0.9966   age045_m52            0.0000     1.4335E+00     7.5286   3.4582    87.6202
 20      0.0000     0.0000E+00    0.0000E+00    5.010000E+06  0.00800  2.668E-02    0   0.9443   age055_m52            0.0000     1.3411E+00     7.2267   3.1929    90.5601
 21      0.0000     0.0000E+00    0.0000E+00    6.610000E+06  0.00800  2.136E-02    0   0.9177   age061_m52            0.0000     1.0843E+00     6.4409   1.8691   100.1252
 22      0.0000     0.0000E+00    0.0000E+00    1.000000E+07  0.00800  1.215E-02    0   0.8827   age070_m52            0.0000     1.4596E+00     7.3178   2.5529    98.4264
 23      0.0000     0.0000E+00    0.0000E+00    1.445000E+07  0.00800  8.717E-03    0   0.8552   age078_m52            0.0000     1.3775E+00     7.1288   2.6785    96.9398
 24      4.4541     2.3844E-02    3.7136E-02    2.512000E+07  0.00800  5.592E-03    0   0.8162   age090_m52            0.0000     1.3764E+00     7.1275   2.2934   101.1332
 25      1.9991     1.5360E-02    2.2982E-02    4.000000E+07  0.00800  3.896E-03    0   0.7841   age104_m52            0.0000     1.2886E+00     6.9624   2.1989   102.3491
 26      0.0000     0.0000E+00    0.0000E+00    1.015200E+08  0.00800  2.148E-03    0   0.7226   age116_m52            0.0000     1.1668E+00     6.6790   2.1382   102.2623
 27      0.0000     0.0000E+00    0.0000E+00    2.861200E+08  0.00800  9.925E-04    0   0.6683   age125_m52            0.0000     1.0858E+00     6.4837   1.6311   107.8423
 28      0.0000     0.0000E+00    0.0000E+00    9.047900E+08  0.00800  3.141E-04    0   0.6138   age135_m52            0.0000     7.1964E-01     5.6622   0.8017   114.3425
 29      0.0000     0.0000E+00    0.0000E+00    1.434000E+09  0.00800  1.719E-04    0   0.5853   age139_m52            0.0000     5.8324E-01     5.1353   0.2352   111.3053
 30      0.0000     0.0000E+00    0.0000E+00    2.500000E+09  0.00800  7.872E-05    0   0.5600   age150_m52            0.0000     5.6920E-01     4.9659  -0.0055   107.0438
 31      0.0000     0.0000E+00    0.0000E+00    4.250000E+09  0.00800  4.336E-05    0   0.5426   age158_m52            0.0000     5.8281E-01     5.0133  -0.0180   105.9071
 32      0.0000     0.0000E+00    0.0000E+00    6.250000E+09  0.00800  3.159E-05    0   0.5319   age166_m52            0.0000     6.6851E-01     5.2464  -0.2126   105.6387
 33      8.0835     1.7779E+01    1.7211E+01    1.300000E+10  0.00800  1.361E-05    0   0.5073   age193_m52            0.0000     8.4701E-01     5.7347  -0.6676   104.4252
 34      0.0000     0.0000E+00    0.0000E+00    1.800000E+10  0.00800  9.886E-06    0   0.4990   age213_m52            0.0000     1.0373E+00     6.2480  -0.7585   103.1830
 35      0.0000     0.0000E+00    0.0000E+00    1.000000E+06  0.02000  1.544E-02    0   1.0000   age020_m62            0.0000     1.4676E+00     7.6164   3.5322    86.9757
 36      0.0000     0.0000E+00    0.0000E+00    3.160000E+06  0.02000  3.762E-02    0   0.9858   age045_m62            0.0000     1.4557E+00     7.6074   3.4738    87.6401
 37      0.0000     0.0000E+00    0.0000E+00    5.010000E+06  0.02000  3.296E-02    0   0.9342   age055_m62            0.0000     1.2819E+00     7.0384   3.0605    93.0244
 38     13.8451     3.5914E-02    6.0726E-02    8.710000E+06  0.02000  1.154E-02    0   0.8861   age067_m62            0.0000     2.4160E+00     9.3704   1.9719   102.3612
 39      2.3188     9.0582E-03    1.4644E-02    1.445000E+07  0.02000  7.663E-03    0   0.8472   age078_m62            0.0000     1.5990E+00     7.6507   2.1788   101.6125
 40      0.9821     6.4867E-03    1.0025E-02    2.512000E+07  0.02000  4.532E-03    0   0.8099   age090_m62            0.0000     1.6969E+00     7.8466   2.1669   101.5269
 41      0.0000     0.0000E+00    0.0000E+00    5.500000E+07  0.02000  2.733E-03    0   0.7595   age110_m62            0.0000     1.2850E+00     6.8752   2.1870   101.3153
 42      0.0000     0.0000E+00    0.0000E+00    1.609000E+08  0.02000  1.369E-03    0   0.6985   age120_m62            0.0000     1.2075E+00     6.6627   2.0162   104.7982
 43      0.0000     0.0000E+00    0.0000E+00    2.861200E+08  0.02000  9.013E-04    0   0.6714   age125_m62            0.0000     1.1502E+00     6.5276   1.7472   108.8963
 44      0.0000     0.0000E+00    0.0000E+00    5.088000E+08  0.02000  5.028E-04    0   0.6449   age130_m62            0.0000     9.3966E-01     6.1604   1.3561   112.7793
 45      0.0014     1.7643E-04    2.0802E-04    9.047900E+08  0.02000  2.428E-04    0   0.6179   age135_m62            0.0000     6.5238E-01     5.3403   0.7681   112.3741
 46      0.0013     3.0264E-04    3.4118E-04    1.434000E+09  0.02000  1.263E-04    0   0.5908   age139_m62            0.0000     5.8074E-01     5.0448   0.3346   110.2214
 47      0.0000     0.0000E+00    0.0000E+00    2.500000E+09  0.02000  5.985E-05    0   0.5673   age150_m62            0.0000     6.6260E-01     5.2366  -0.0086   107.6578
 48     30.7119     2.8106E+01    2.9326E+01    4.250000E+09  0.02000  3.271E-05    0   0.5468   age158_m62            0.0000     8.4138E-01     5.7465  -0.2952   105.9687
 49      7.2209     1.5894E+01    1.5671E+01    1.000000E+10  0.02000  1.360E-05    0   0.5167   age181_m62            0.0000     1.1915E+00     6.7426  -0.6197   104.5420
 50      0.9874     4.1492E+00    3.9690E+00    1.800000E+10  0.02000  7.124E-06    0   0.5013   age213_m62            0.0000     1.5072E+00     7.5713  -0.8010   102.4608
 51      0.0000     0.0000E+00    0.0000E+00    1.000000E+06  0.05000  2.592E-02    0   0.9998   age020_m72            0.0000     1.4917E+00     7.7002   3.5277    86.8158
 52      0.0000     0.0000E+00    0.0000E+00    3.160000E+06  0.05000  4.845E-02    0   0.9577   age045_m72            0.0000     1.3853E+00     7.3912   3.3459    89.3196
 53      0.7206     7.0215E-04    1.2256E-03    5.010000E+06  0.05000  3.072E-02    0   0.9147   age055_m72            0.0000     1.5632E+00     7.6310   2.8064    95.9121
 54      0.0000     0.0000E+00    0.0000E+00    6.610000E+06  0.05000  1.455E-02    0   0.8877   age061_m72            0.0000     3.6702E+00    11.6513   2.0066   103.9057
 55      0.0000     0.0000E+00    0.0000E+00    1.000000E+07  0.05000  9.074E-03    0   0.8524   age070_m72            0.0000     1.8649E+00     8.2642   2.9954    95.5305
 56      0.5816     4.0965E-03    6.1770E-03    2.512000E+07  0.05000  4.250E-03    0   0.7902   age090_m72            0.0000     1.6446E+00     7.7797   2.6666    98.6136
 57      0.4175     4.0483E-03    5.8849E-03    4.000000E+07  0.05000  3.087E-03    0   0.7618   age104_m72            0.0000     1.6745E+00     7.8427   2.4213   101.0967
 58      0.6895     1.2142E-02    1.6441E-02    1.015200E+08  0.05000  1.700E-03    0   0.7096   age116_m72            0.0000     1.3170E+00     6.9691   2.1545   104.4857
 59      0.0000     0.0000E+00    0.0000E+00    2.861200E+08  0.05000  7.384E-04    0   0.6633   age125_m72            0.0000     1.0402E+00     6.3041   1.6091   110.8316
 60      0.0000     0.0000E+00    0.0000E+00    5.088000E+08  0.05000  3.819E-04    0   0.6372   age130_m72            0.0000     7.5444E-01     5.5746   1.1126   113.0665
 61      0.0000     0.0000E+00    0.0000E+00    9.047900E+08  0.05000  1.676E-04    0   0.6110   age135_m72            0.0000     6.8543E-01     5.3482   0.4452   109.8150
 62      0.0000     0.0000E+00    0.0000E+00    1.434000E+09  0.05000  8.837E-05    0   0.5874   age139_m72            0.0000     7.0277E-01     5.3801  -0.0122   109.4161
 63      0.0118     8.3609E-03    8.9312E-03    2.500000E+09  0.05000  4.233E-05    0   0.5598   age150_m72            0.0000     9.3454E-01     6.0435  -0.2887   106.5578
 64      3.6349     7.5826E+00    7.5948E+00    6.250000E+09  0.05000  1.435E-05    0   0.5249   age166_m72            0.0000     1.2738E+00     7.0335  -0.7051   103.5768
 65      0.0000     0.0000E+00    0.0000E+00    1.300000E+10  0.05000  6.513E-06    0   0.5036   age193_m72            0.0000     1.6994E+00     8.1489  -0.9469   102.8530
 66      0.0000     0.0000E+00    0.0000E+00    1.800000E+10  0.05000  4.527E-06    0   0.4945   age213_m72            0.0000     2.0065E+00     8.7621  -1.0000    97.8821


## Synthesis Results - Average & Chains ##

# j      x_j: min, <> & last-chain-values for 1 ...  7 chains
  1      0.0000      0.2451      1.6946      0.0000      1.0145      0.0000      0.0000      0.0000      1.5747
  2      0.1827      0.4609      0.0000      1.2622      0.9232      0.0000      0.0000      1.1217      0.0000
  3      0.0000      0.4259      0.0000      0.0000      0.0000      1.9724      0.3223      1.3119      0.0000
  4      0.0000      1.1194      1.1124      0.0000      3.3669      0.5387      1.9937      2.3881      1.1031
  5      0.0000      0.2258      0.0000      0.0000      0.6943      0.1025      0.0000      0.0000      0.0000
  6      0.0000      0.5855      1.3487      0.0000      0.0000      1.5400      0.0000      1.4270      0.0000
  7      0.0049      0.6989      0.1545      2.1247      0.8310      0.0923      0.5615      1.1601      0.9204
  8      0.0000      0.6281      1.0952      0.0000      3.0498      0.8041      0.0335      0.0000      0.0000
  9      0.0000      0.5585      0.0000      0.1218      0.0000      0.0000      0.0000      0.0000      0.0000
 10      0.0000      0.2646      0.0000      0.0000      0.0316      0.1655      0.0000      0.0000      0.5286
 11      0.0000      0.3355      0.0696      0.0000      0.0000      0.0000      0.0000      0.0000      1.4645
 12      0.0000      0.3464      0.0198      0.0000      0.0000      0.0000      0.0000      0.0000      0.0000
 13      0.0000      1.2447      2.1437      0.0000      1.3349      0.0000      0.0000      0.0000      4.5733
 14     10.8447      6.8481      7.0172      4.2590      3.2066      4.6654      0.0000     10.9370      5.9755
 15     12.2243      7.2774      8.6434     14.4029      8.0251      9.0970      7.6704      6.1147      5.3945
 16      6.9898     10.3258      7.6314      9.7577      9.2361      3.8152     13.4486     10.4663     11.7668
 17      0.0000      3.2042      5.0746      0.0000      4.7650      7.0414      6.0893      3.4913      2.9093
 18      0.0000      0.3930      0.0000      0.1730      0.2022      0.0000      0.0000      0.0000      0.7532
 19      0.0140      0.2243      0.0000      0.5740      0.0000      0.0000      0.0000      0.8543      0.0213
 20      0.0000      0.4906      0.0000      0.0000      0.0000      0.9323      0.5749      0.0000      0.0000
 21      0.0000      0.2526      0.1761      0.0000      0.5833      0.0000      0.0000      0.0000      0.2021
 22      0.0000      0.4803      0.5117      0.0000      0.7365      2.2433      0.0000      0.0000      0.0000
 23      0.0000      0.2504      1.7730      0.0000      0.3739      0.0000      0.9130      0.0000      0.0000
 24      4.4541      1.0209      0.0000      1.4939      0.4223      1.1699      4.9176      3.2762      0.2116
 25      1.9991      0.7075      1.2329      1.7223      0.0000      0.0000      4.0277      0.0000      0.0000
 26      0.0000      0.2288      0.0000      0.0000      0.0000      0.0000      0.0000      0.0000      0.0000
 27      0.0000      0.1835      0.0000      0.0000      0.0000      0.9166      0.1055      0.0000      0.0000
 28      0.0000      0.3621      0.1514      0.0000      0.0000      0.0000      0.0000      0.0160      2.0802
 29      0.0000      1.6372      0.0000      1.3279      0.0000      0.9234      0.0000      0.0000      0.0000
 30      0.0000      1.5787      1.9828      0.0000      0.0000      0.6019      0.0000      3.2496      0.0000
 31      0.0000      1.7544      0.0000      0.0000      0.6658      0.6757      2.5660      0.0000      0.0929
 32      0.0000      1.2333      0.1629      0.0065      2.3914      1.0415      0.0000      0.0000      1.2666
 33      8.0835      4.8037      7.0270      3.9101      5.2412      5.7372      6.5461      4.8991      3.9777
 34      0.0000      0.2637      0.0000      0.0000      0.0000      0.0000      0.1916      0.0000      0.9159
 35      0.0000      0.3324      1.3331      0.1886      0.4038      0.9497      0.5425      0.0000      0.0000
 36      0.0000      0.3415      0.0000      0.0000      0.0000      0.0000      0.0000      0.0000      2.6316
 37      0.0000      0.2124      0.0000      0.0000      0.6294      1.8837      0.0000      0.1798      0.0000
 38     13.8451      4.4537      5.9367      5.0738      6.0263      5.2421      5.6571      4.5418      4.4668
 39      2.3188      2.2852      1.8021      3.5063      2.8928      2.1813      0.0000      1.3618      3.0952
 40      0.9821      0.2733      0.0000      1.1786      0.2742      0.4404      0.5582      1.5428      1.0779
 41      0.0000      0.4039      0.2407      0.5025      0.0000      2.3955      0.1618      0.0000      0.0000
 42      0.0000      0.2291      0.0000      0.0000      0.0000      0.9028      0.0000      0.0000      0.0000
 43      0.0000      0.1786      0.0000      0.0000      0.0000      0.0000      1.2106      0.0000      0.0000
 44      0.0000      0.2754      0.0000      0.0000      1.3184      0.0000      0.0000      0.0000      0.0000
 45      0.0014      0.5411      1.7649      0.6036      0.0000      0.0000      0.0000      0.6545      0.0000
 46      0.0013      1.3594      1.6457      3.6017      0.4226      0.0000      1.1141      0.0000      1.2584
