###################################################################
## OUTPUT of StarlightChains_v04.for    [Cid@UFSC - 01/Apr/2007] ##
###################################################################

## Some input info
2006cm.txt                               [arq_obs]
Base.CB07.vall.4m                        [arq_base]
Masks.EmLines.NEW.gm                     [arq_masks]
StCv04.C11.config                        [arq_config]
   66                                    [N_base]
    0                                    [N_YAV_components = # of components with extra extinction!]
    0                                    [i_FitPowerLaw (1/0 = Yes/No)]
-9.99                                    [alpha_PowerLaw]
CCM                                      [red_law_option]
 1.458241                                [q_norm = A(l_norm)/A(V)]

## (Re)Sampling Parameters
 3741.00                                 [l_ini (A)]
 7218.00                                 [l_fin (A)]
    1.00                                 [dl    (A)]     (OBS: dl_cushion =    50.00 A)

## Normalization info
 4020.00                                 [l_norm (A) - for base]
 4010.00                                 [llow_norm (A) - window for f_obs]
 4060.00                                 [lupp_norm (A) - window for f_obs]
1.540475E-16                             [fobs_norm (in input units)]

## S/N
 3691.00                                 [llow_SN (A) - window for S/N]
 7268.00                                 [lupp_SN (A) - window for S/N]
   5.801                                 [S/N in S/N window]
   5.014                                 [S/N in norm. window]
  18.146                                 [S/N_err in S/N window]
  15.684                                 [S/N_err in norm. window]
  1.0000                                 [fscale_chi2]

## etc...
    -2007314                             [idum_orig]
  2384                                   [NOl_eff]
  2367                                   [Nl_eff]
    17    NSIGMA                         [Ntot_cliped & clip_method]
  2534420                                [Nglobal_steps]
   7                                     [N_chains]
  41                                     [NEX0s_base = N_base in EX0s-fits]
 0   0   1        4   2.0   3.148E+01    [Clip-Bug, RC-Crash & Burn-In warning-flags, n_censored_weights, wei_nsig_threshold & wei_limit]
    25     24.052     23.551      0.501  [idt_all, wdt_TotTime, wdt_UsrTime & wdt_SysTime (sec)]

## Synthesis Results - Best model ##

 4.94897E-01                             [chi2/Nl_eff]
     3.12267                             [adev (%)]

    98.27801                             [sum-of-x (%)]
 4.06404E-16                             [Flux_tot (units of input spectrum!)]
 1.44478E-11                             [Mini_tot (???)]
 7.26916E-12                             [Mcor_tot (???)]

 -36.91                                  [v0_min  (km/s)]
 169.85                                  [vd_min  (km/s)]
 0.7352                                  [AV_min  (mag)]
 0.0000                                  [YAV_min (mag)]

# j     x_j(%)      Mini_j(%)     Mcor_j(%)     age_j(yr)     Z_j      (L/M)_j    YAV?  Mstars   component_j        a/Fe...       SSP_chi2r SSP_adev(%)   SSP_AV   SSP_x(%)
  1      0.9151     2.3942E-03    4.7586E-03    1.000000E+06  0.00400  1.094E-02    0   1.0000   age020_m42            0.0000     1.7431E+00     6.6666   3.8936    76.2943
  2      0.0000     0.0000E+00    0.0000E+00    3.160000E+06  0.00400  4.007E-02    0   0.9999   age045_m42            0.0000     1.3940E+00     5.6016   3.1084    84.1234
  3      0.0000     0.0000E+00    0.0000E+00    5.010000E+06  0.00400  2.539E-02    0   0.9488   age055_m42            0.0000     1.4989E+00     5.9771   3.4501    81.1106
  4      0.0000     0.0000E+00    0.0000E+00    6.610000E+06  0.00400  2.620E-02    0   0.9220   age061_m42            0.0000     1.3138E+00     5.4155   3.0203    84.9157
  5      1.8809     4.0722E-03    7.1726E-03    1.000000E+07  0.00400  1.322E-02    0   0.8862   age070_m42            0.0000     1.1488E+00     4.8390   2.6630    89.8237
  6      0.5644     2.0493E-03    3.4910E-03    1.445000E+07  0.00400  7.883E-03    0   0.8571   age078_m42            0.0000     1.2669E+00     5.2005   3.0155    86.4383
  7      0.0000     0.0000E+00    0.0000E+00    2.512000E+07  0.00400  5.251E-03    0   0.8174   age090_m42            0.0000     1.1505E+00     4.7803   2.5145    91.1237
  8      1.3316     1.0445E-02    1.6298E-02    4.000000E+07  0.00400  3.649E-03    0   0.7851   age104_m42            0.0000     1.0480E+00     4.5570   2.2830    92.1191
  9      1.6204     1.4970E-02    2.2699E-02    5.500000E+07  0.00400  3.098E-03    0   0.7629   age110_m42            0.0000     1.0445E+00     4.6045   2.4606    91.1681
 10      0.3866     4.9668E-03    7.1145E-03    1.015200E+08  0.00400  2.228E-03    0   0.7207   age116_m42            0.0000     1.0867E+00     4.7149   2.4944    90.8137
 11      0.0138     3.6207E-04    4.7841E-04    2.861200E+08  0.00400  1.093E-03    0   0.6648   age125_m42            0.0000     9.8946E-01     4.4628   1.8736    96.1068
 12      0.0000     0.0000E+00    0.0000E+00    5.088000E+08  0.00400  6.597E-04    0   0.6365   age130_m42            0.0000     9.6407E-01     4.4360   1.8883    95.8408
 13      0.0004     4.8570E-05    5.5970E-05    1.434000E+09  0.00400  2.132E-04    0   0.5798   age139_m42            0.0000     6.4935E-01     3.6059   0.9135    97.9278
 14      0.0000     0.0000E+00    0.0000E+00    4.250000E+09  0.00400  5.895E-05    0   0.5377   age158_m42            0.0000     8.1160E-01     4.1565   0.5487    90.8238
 15      0.0000     0.0000E+00    0.0000E+00    7.500000E+09  0.00400  3.510E-05    0   0.5212   age171_m42            0.0000     9.1813E-01     4.4890   0.3839    89.3195
 16      6.2001     8.8509E+00    8.8556E+00    1.300000E+10  0.00400  2.005E-05    0   0.5034   age193_m42            0.0000     1.0427E+00     4.8482   0.2407    88.0068
 17      8.0610     1.5129E+01    1.4936E+01    1.800000E+10  0.00400  1.525E-05    0   0.4967   age213_m42            0.0000     1.0295E+00     4.7829   0.2141    87.7371
 18      1.7238     3.9854E-03    7.9211E-03    1.000000E+06  0.00800  1.238E-02    0   1.0000   age020_m52            0.0000     1.7382E+00     6.6642   3.8899    76.4422
 19      2.7601     2.5699E-03    5.0905E-03    3.160000E+06  0.00800  3.074E-02    0   0.9966   age045_m52            0.0000     1.7147E+00     6.5939   3.8109    77.2155
 20      0.0000     0.0000E+00    0.0000E+00    5.010000E+06  0.00800  2.668E-02    0   0.9443   age055_m52            0.0000     1.5052E+00     6.0348   3.5359    80.2119
 21      0.0000     0.0000E+00    0.0000E+00    6.610000E+06  0.00800  2.136E-02    0   0.9177   age061_m52            0.0000     9.8372E-01     4.5302   2.1737    90.3433
 22      0.0000     0.0000E+00    0.0000E+00    1.000000E+07  0.00800  1.215E-02    0   0.8827   age070_m52            0.0000     1.2102E+00     5.0076   2.8293    90.1556
 23      1.6746     5.4984E-03    9.3458E-03    1.445000E+07  0.00800  8.717E-03    0   0.8552   age078_m52            0.0000     1.1814E+00     5.0081   2.9706    88.0840
 24      0.2539     1.2997E-03    2.1084E-03    2.512000E+07  0.00800  5.592E-03    0   0.8162   age090_m52            0.0000     1.0766E+00     4.6522   2.5670    92.7470
 25      0.9599     7.0520E-03    1.0990E-02    4.000000E+07  0.00800  3.896E-03    0   0.7841   age104_m52            0.0000     9.8875E-01     4.4823   2.4798    93.5629
 26      0.5134     6.8414E-03    9.8255E-03    1.015200E+08  0.00800  2.148E-03    0   0.7226   age116_m52            0.0000     9.6726E-01     4.4827   2.4405    92.5012
 27      6.8292     1.9694E-01    2.6159E-01    2.861200E+08  0.00800  9.925E-04    0   0.6683   age125_m52            0.0000     8.8766E-01     4.2716   1.9468    96.9931
 28      7.6602     6.9803E-01    8.5156E-01    9.047900E+08  0.00800  3.141E-04    0   0.6138   age135_m52            0.0000     7.7476E-01     4.0217   1.1574   100.8586
 29      0.0009     1.4523E-04    1.6895E-04    1.434000E+09  0.00800  1.719E-04    0   0.5853   age139_m52            0.0000     7.1815E-01     3.7888   0.5991    97.7830
 30      0.0000     0.0000E+00    0.0000E+00    2.500000E+09  0.00800  7.872E-05    0   0.5600   age150_m52            0.0000     9.6173E-01     4.5749   0.3998    92.0972
 31      0.0025     1.6815E-03    1.8134E-03    4.250000E+09  0.00800  4.336E-05    0   0.5426   age158_m52            0.0000     1.0049E+00     4.6995   0.3923    90.8954
 32      0.0000     0.0000E+00    0.0000E+00    6.250000E+09  0.00800  3.159E-05    0   0.5319   age166_m52            0.0000     1.2586E+00     5.3166   0.2186    89.7671
 33      6.5916     1.3862E+01    1.3977E+01    1.300000E+10  0.00800  1.361E-05    0   0.5073   age193_m52            0.0000     1.6746E+00     6.2267  -0.2131    87.7336
 34     11.2408     3.2544E+01    3.2277E+01    1.800000E+10  0.00800  9.886E-06    0   0.4990   age213_m52            0.0000     2.0579E+00     7.0126  -0.2858    85.9496
 35      0.6943     1.2870E-03    2.5580E-03    1.000000E+06  0.02000  1.544E-02    0   1.0000   age020_m62            0.0000     1.7473E+00     6.6987   3.8876    76.5531
 36      0.0000     0.0000E+00    0.0000E+00    3.160000E+06  0.02000  3.762E-02    0   0.9858   age045_m62            0.0000     1.7432E+00     6.6861   3.8278    77.1915
 37      0.0000     0.0000E+00    0.0000E+00    5.010000E+06  0.02000  3.296E-02    0   0.9342   age055_m62            0.0000     1.4366E+00     5.8449   3.4080    82.2407
 38      0.0000     0.0000E+00    0.0000E+00    8.710000E+06  0.02000  1.154E-02    0   0.8861   age067_m62            0.0000     2.5738E+00     7.0398   2.1737    97.2999
 39      0.0000     0.0000E+00    0.0000E+00    1.445000E+07  0.02000  7.663E-03    0   0.8472   age078_m62            0.0000     1.3889E+00     5.2319   2.4301    94.2932
 40      0.0000     0.0000E+00    0.0000E+00    2.512000E+07  0.02000  4.532E-03    0   0.8099   age090_m62            0.0000     1.4971E+00     5.3584   2.4095    94.6556
 41      1.6175     1.6940E-02    2.5571E-02    5.500000E+07  0.02000  2.733E-03    0   0.7595   age110_m62            0.0000     9.9602E-01     4.4726   2.4693    92.5561
 42      0.5783     1.2091E-02    1.6786E-02    1.609000E+08  0.02000  1.369E-03    0   0.6985   age120_m62            0.0000     9.7064E-01     4.4191   2.3163    94.9206
 43      0.0000     0.0000E+00    0.0000E+00    2.861200E+08  0.02000  9.013E-04    0   0.6714   age125_m62            0.0000     9.7456E-01     4.4027   2.0605    97.9949
 44      7.4704     4.2525E-01    5.4508E-01    5.088000E+08  0.02000  5.028E-04    0   0.6449   age130_m62            0.0000     1.0066E+00     4.6115   1.7096    99.5399
 45      0.0000     0.0000E+00    0.0000E+00    9.047900E+08  0.02000  2.428E-04    0   0.6179   age135_m62            0.0000     8.7499E-01     4.3584   1.1501    97.8137
 46      0.0000     0.0000E+00    0.0000E+00    1.434000E+09  0.02000  1.263E-04    0   0.5908   age139_m62            0.0000     9.2535E-01     4.4692   0.7312    95.2182
 47      0.0000     0.0000E+00    0.0000E+00    2.500000E+09  0.02000  5.985E-05    0   0.5673   age150_m62            0.0000     1.2611E+00     5.3357   0.4181    91.6545
 48      0.0000     0.0000E+00    0.0000E+00    4.250000E+09  0.02000  3.271E-05    0   0.5468   age158_m62            0.0000     1.7457E+00     6.4199   0.1613    88.9194
 49      2.0379     4.2889E+00    4.4045E+00    1.000000E+10  0.02000  1.360E-05    0   0.5167   age181_m62            0.0000     2.4141E+00     7.6950  -0.1397    86.7646
 50      0.0463     1.8619E-01    1.8551E-01    1.800000E+10  0.02000  7.124E-06    0   0.5013   age213_m62            0.0000     3.0008E+00     8.7140  -0.3030    84.3287
 51      1.8532     2.0463E-03    4.0664E-03    1.000000E+06  0.05000  2.592E-02    0   0.9998   age020_m72            0.0000     1.7760E+00     6.7761   3.8794    76.5433
 52      1.0519     6.2139E-04    1.1828E-03    3.160000E+06  0.05000  4.845E-02    0   0.9577   age045_m72            0.0000     1.6542E+00     6.4266   3.7022    78.6103
 53      0.0000     0.0000E+00    0.0000E+00    5.010000E+06  0.05000  3.072E-02    0   0.9147   age055_m72            0.0000     1.4805E+00     5.5852   3.0883    87.7621
 54      2.5556     5.0272E-03    8.8697E-03    6.610000E+06  0.05000  1.455E-02    0   0.8877   age061_m72            0.0000     5.7042E+00     9.5128   2.1774   100.8248
 55      1.1550     3.6432E-03    6.1723E-03    1.000000E+07  0.05000  9.074E-03    0   0.8524   age070_m72            0.0000     2.2152E+00     6.3146   3.2728    87.7985
 56      0.0006     3.7930E-06    5.9571E-06    2.512000E+07  0.05000  4.250E-03    0   0.7902   age090_m72            0.0000     1.6093E+00     5.4757   2.9371    90.8506
 57      0.0000     0.0000E+00    0.0000E+00    4.000000E+07  0.05000  3.087E-03    0   0.7618   age104_m72            0.0000     1.6375E+00     5.4150   2.6822    93.5927
 58      1.2310     2.0726E-02    2.9231E-02    1.015200E+08  0.05000  1.700E-03    0   0.7096   age116_m72            0.0000     1.0217E+00     4.5442   2.4391    95.4150
 59      7.1813     2.7836E-01    3.6698E-01    2.861200E+08  0.05000  7.384E-04    0   0.6633   age125_m72            0.0000     9.3339E-01     4.4024   1.9372    99.0555
 60      5.9799     4.4818E-01    5.6760E-01    5.088000E+08  0.05000  3.819E-04    0   0.6372   age130_m72            0.0000     9.3200E-01     4.4604   1.4818    98.9913
 61      0.0000     0.0000E+00    0.0000E+00    9.047900E+08  0.05000  1.676E-04    0   0.6110   age135_m72            0.0000     1.3118E+00     5.4643   0.8655    93.7532
 62      0.0000     0.0000E+00    0.0000E+00    1.434000E+09  0.05000  8.837E-05    0   0.5874   age139_m72            0.0000     1.3692E+00     5.5087   0.4161    93.0847
 63      0.0000     0.0000E+00    0.0000E+00    2.500000E+09  0.05000  4.233E-05    0   0.5598   age150_m72            0.0000     1.9497E+00     6.7930   0.1744    89.1376
 64      0.0120     2.3958E-02    2.4994E-02    6.250000E+09  0.05000  1.435E-05    0   0.5249   age166_m72            0.0000     2.6470E+00     8.1019  -0.2183    85.6807
 65      0.0000     0.0000E+00    0.0000E+00    1.300000E+10  0.05000  6.513E-06    0   0.5036   age193_m72            0.0000     3.4379E+00     9.4101  -0.4386    84.2340
 66      3.6278     2.2937E+01    2.2543E+01    1.800000E+10  0.05000  4.527E-06    0   0.4945   age213_m72            0.0000     3.9759E+00    10.2152  -0.5599    82.5829


## Synthesis Results - Average & Chains ##

# j      x_j: min, <> & last-chain-values for 1 ...  7 chains
  1      0.9151      0.1561      0.0000      0.7314      0.1719      0.4642      0.0000      0.7819      0.0069
  2      0.0000      0.1134      0.0000      0.0000      0.0000      0.0000      0.0000      0.0000      0.0000
  3      0.0000      0.6430      0.0000      0.7039      1.1099      0.1014      0.7799      0.3297      0.1609
  4      0.0000      0.2196      0.0000      0.0000      0.7752      0.0000      1.5107      0.0000      0.0000
  5      1.8809      2.2336      2.0247      1.4672      3.3128      2.7808      1.9757      1.6740      3.2037
  6      0.5644      1.3286      0.7757      1.6662      1.4405      0.8332      1.2339      1.3674      1.4250
  7      0.0000      0.3629      0.8695      0.0000      0.0000      0.2464      0.0000      0.0000      0.0000
  8      1.3316      1.4954      1.2519      1.3945      0.1826      2.1237      1.6687      2.4829      1.7788
  9      1.6204      1.2202      1.8885      1.4170      1.3929      1.3346      1.2387      1.3663      1.6075
 10      0.3866      0.5063      0.7749      0.3885      0.0000      0.8090      0.0000      1.9293      0.0000
 11      0.0138      0.7559      1.5919      1.5851      0.8008      0.6658      0.7428      0.6206      2.0913
 12      0.0000      0.2628      0.0000      1.4540      0.0000      0.0000      0.2133      0.4439      0.0000
 13      0.0004      3.7996      4.6810      3.3636      3.1786      3.6179      3.1120      0.6074      3.9777
 14      0.0000      0.9307      0.7102      0.0000      0.4188      0.4421      0.5648      0.5775      2.5292
 15      0.0000      0.7381      0.0000      1.5569      0.5039      0.0000      0.8368      0.6739      0.3511
 16      6.2001      2.7154      3.6355      2.6637      2.4932      3.5213      3.7661      3.8546      3.6725
 17      8.0610      5.7902      7.4031      8.8455      6.0843      5.8802      5.9588      5.2869      6.2681
 18      1.7238      0.4923      0.3931      0.0921      1.0489      0.8011      0.8974      0.7148      0.4373
 19      2.7601      2.1370      2.1587      1.2355      2.5892      2.5950      2.4088      2.1074      2.2000
 20      0.0000      0.2084      0.0000      0.3461      0.0000      0.0000      0.0667      0.0266      0.0000
 21      0.0000      0.3244      0.3020      0.0000      0.9474      0.0000      0.1919      0.0000      0.0000
 22      0.0000      0.2113      0.0000      1.1828      0.0000      0.0000      0.0000      0.3433      0.1443
 23      1.6746      1.5835      2.8241      1.5629      1.5241      2.4581      1.8324      1.3970      1.8752
 24      0.2539      0.3515      0.0000      0.3370      0.2746      0.5725      0.0000      0.5065      0.0000
 25      0.9599      0.5229      0.3776      0.7153      0.5273      0.4909      1.1889      0.5371      0.3852
 26      0.5134      0.3280      0.4712      0.3409      0.0000      0.5807      0.2735      0.9621      0.2574
 27      6.8292      5.2240      4.7450      6.7698      5.9405      5.2242      5.7693      5.6352      5.7770
 28      7.6602      5.7949      5.8083      5.1264      6.1102      5.9176      7.1053      6.8832      6.1615
 29      0.0009      2.8765      1.6653      1.4393      0.3639      2.5034      1.2623      2.2738      1.5733
 30      0.0000      0.5093      0.0000      0.0000      0.8830      0.0000      0.4226      0.0000      0.0000
 31      0.0025      0.5842      0.0318      0.0000      0.0000      1.5529      0.4393      0.6582      0.4662
 32      0.0000      2.1142      0.4126      1.9213      1.7474      0.9625      2.1132      2.0789      1.4099
 33      6.5916      3.1058      3.4380      2.9305      3.4109      3.4007      3.8707      4.8685      2.8544
 34     11.2408      7.9576      8.7164      7.8803      9.5163      8.5613      8.5048      8.4108      8.3432
 35      0.6943      0.2068      0.7395      0.0000      0.4743      0.6637      0.0000      0.0000      0.0000
 36      0.0000      0.0816      0.0000      0.0000      0.0000      0.0000      0.0000      0.0113      0.0000
 37      0.0000      0.3547      0.6226      0.5239      0.0969      0.3427      0.4938      0.3561      0.4164
 38      0.0000      0.6537      0.1743      0.2261      0.5155      0.0000      0.2782      0.8044      0.9777
 39      0.0000      1.0376      0.8715      0.9400      1.3412      0.0000      0.8226      1.1994      1.1262
 40      0.0000      1.0898      1.1821      0.4390      1.2179      0.3777      2.7870      1.0762      0.9858
 41      1.6175      1.6104      1.8454      1.7978      2.2545      2.0475      1.7084      0.2739      2.3223
 42      0.5783      1.9057      2.2963      1.8426      1.9942      2.0102      0.7019      1.1286      2.1036
 43      0.0000      0.3582      0.0000      1.7162      0.2230      0.0000      1.4271      0.2506      0.8285
 44      7.4704      4.0667      4.0265      3.6035      4.6945      6.7284      4.1188      4.3233      3.6620
 45      0.0000      0.6883      1.0785      0.4935      0.2634      0.0000      0.2495      0.6146      0.0000
 46      0.0000      1.1018      0.0000      1.1839      0.0000      0.9012      0.0000      1.7986      0.5616
