###################################################################
## OUTPUT of StarlightChains_v04.for    [Cid@UFSC - 01/Apr/2007] ##
###################################################################

## Some input info
2006bb.txt                               [arq_obs]
Base.CB07.vall.4m                        [arq_base]
Masks.EmLines.NEW.gm                     [arq_masks]
StCv04.C11.config                        [arq_config]
   66                                    [N_base]
    0                                    [N_YAV_components = # of components with extra extinction!]
    0                                    [i_FitPowerLaw (1/0 = Yes/No)]
-9.99                                    [alpha_PowerLaw]
CCM                                      [red_law_option]
 1.458241                                [q_norm = A(l_norm)/A(V)]

## (Re)Sampling Parameters
 3741.00                                 [l_ini (A)]
 7218.00                                 [l_fin (A)]
    1.00                                 [dl    (A)]     (OBS: dl_cushion =    50.00 A)

## Normalization info
 4020.00                                 [l_norm (A) - for base]
 4010.00                                 [llow_norm (A) - window for f_obs]
 4060.00                                 [lupp_norm (A) - window for f_obs]
5.828162E-16                             [fobs_norm (in input units)]

## S/N
 3691.00                                 [llow_SN (A) - window for S/N]
 7268.00                                 [lupp_SN (A) - window for S/N]
   3.876                                 [S/N in S/N window]
   5.494                                 [S/N in norm. window]
   8.638                                 [S/N_err in S/N window]
  12.242                                 [S/N_err in norm. window]
  1.0000                                 [fscale_chi2]

## etc...
    -2007312                             [idum_orig]
  2390                                   [NOl_eff]
  2390                                   [Nl_eff]
     0    NSIGMA                         [Ntot_cliped & clip_method]
   727860                                [Nglobal_steps]
   7                                     [N_chains]
  12                                     [NEX0s_base = N_base in EX0s-fits]
 0   0   1       46   2.0   1.803E+01    [Clip-Bug, RC-Crash & Burn-In warning-flags, n_censored_weights, wei_nsig_threshold & wei_limit]
    11     10.887     10.394      0.493  [idt_all, wdt_TotTime, wdt_UsrTime & wdt_SysTime (sec)]

## Synthesis Results - Best model ##

 3.14591E-01                             [chi2/Nl_eff]
     5.25851                             [adev (%)]

   105.61850                             [sum-of-x (%)]
 1.22979E-15                             [Flux_tot (units of input spectrum!)]
 8.04822E-13                             [Mini_tot (???)]
 4.49108E-13                             [Mcor_tot (???)]

 -57.61                                  [v0_min  (km/s)]
 400.10                                  [vd_min  (km/s)]
 0.5153                                  [AV_min  (mag)]
 0.0000                                  [YAV_min (mag)]

# j     x_j(%)      Mini_j(%)     Mcor_j(%)     age_j(yr)     Z_j      (L/M)_j    YAV?  Mstars   component_j        a/Fe...       SSP_chi2r SSP_adev(%)   SSP_AV   SSP_x(%)
  1      0.1051     1.3897E-02    2.4904E-02    1.000000E+06  0.00400  1.094E-02    0   1.0000   age020_m42            0.0000     5.3047E-01     7.0320   1.8558    96.0527
  2      0.0000     0.0000E+00    0.0000E+00    3.160000E+06  0.00400  4.007E-02    0   0.9999   age045_m42            0.0000     5.1729E-01     6.8049   1.1729   100.7650
  3      0.0000     0.0000E+00    0.0000E+00    5.010000E+06  0.00400  2.539E-02    0   0.9488   age055_m42            0.0000     4.9743E-01     6.7485   1.4744    99.1287
  4      0.0000     0.0000E+00    0.0000E+00    6.610000E+06  0.00400  2.620E-02    0   0.9220   age061_m42            0.0000     4.9767E-01     6.6524   1.1026   100.9269
  5      0.0000     0.0000E+00    0.0000E+00    1.000000E+07  0.00400  1.322E-02    0   0.8862   age070_m42            0.0000     3.8220E-01     5.7440   0.8257   103.3333
  6      0.0000     0.0000E+00    0.0000E+00    1.445000E+07  0.00400  7.883E-03    0   0.8571   age078_m42            0.0000     3.8672E-01     5.8394   1.1414   101.1537
  7      0.0000     0.0000E+00    0.0000E+00    2.512000E+07  0.00400  5.251E-03    0   0.8174   age090_m42            0.0000     3.7037E-01     5.6175   0.7003   103.8032
  8      0.0000     0.0000E+00    0.0000E+00    4.000000E+07  0.00400  3.649E-03    0   0.7851   age104_m42            0.0000     3.8860E-01     5.7228   0.4778   104.3934
  9      0.0000     0.0000E+00    0.0000E+00    5.500000E+07  0.00400  3.098E-03    0   0.7629   age110_m42            0.0000     4.5160E-01     6.1580   0.6382   103.8866
 10      0.0000     0.0000E+00    0.0000E+00    1.015200E+08  0.00400  2.228E-03    0   0.7207   age116_m42            0.0000     5.0382E-01     6.5149   0.6631   103.7452
 11      0.0000     0.0000E+00    0.0000E+00    2.861200E+08  0.00400  1.093E-03    0   0.6648   age125_m42            0.0000     5.1822E-01     6.5210   0.1050   106.4753
 12      0.0000     0.0000E+00    0.0000E+00    5.088000E+08  0.00400  6.597E-04    0   0.6365   age130_m42            0.0000     6.1058E-01     7.0331   0.1013   106.8817
 13      0.0000     0.0000E+00    0.0000E+00    1.434000E+09  0.00400  2.132E-04    0   0.5798   age139_m42            0.0000     7.0789E-01     7.3561  -0.8637   108.6390
 14      0.0000     0.0000E+00    0.0000E+00    4.250000E+09  0.00400  5.895E-05    0   0.5377   age158_m42            0.0000     1.1835E+00     9.0559  -1.0000    94.4479
 15      2.1947     9.0462E+01    8.4492E+01    7.500000E+09  0.00400  3.510E-05    0   0.5212   age171_m42            0.0000     1.7724E+00    11.3303  -1.0000    87.6118
 16      0.0000     0.0000E+00    0.0000E+00    1.300000E+10  0.00400  2.005E-05    0   0.5034   age193_m42            0.0000     2.4520E+00    13.4872  -1.0000    81.7986
 17      0.0000     0.0000E+00    0.0000E+00    1.800000E+10  0.00400  1.525E-05    0   0.4967   age213_m42            0.0000     2.5255E+00    13.7414  -1.0000    80.7273
 18      0.0000     0.0000E+00    0.0000E+00    1.000000E+06  0.00800  1.238E-02    0   1.0000   age020_m52            0.0000     5.3110E-01     7.0314   1.8522    96.2425
 19      1.3703     6.4493E-02    1.1518E-01    3.160000E+06  0.00800  3.074E-02    0   0.9966   age045_m52            0.0000     5.2764E-01     7.0005   1.7782    96.9814
 20      0.0000     0.0000E+00    0.0000E+00    5.010000E+06  0.00800  2.668E-02    0   0.9443   age055_m52            0.0000     4.9015E-01     6.7090   1.5515    98.5020
 21     35.3222     2.3924E+00    3.9345E+00    6.610000E+06  0.00800  2.136E-02    0   0.9177   age061_m52            0.0000     3.8929E-01     5.8192   0.3150   104.9514
 22      0.0000     0.0000E+00    0.0000E+00    1.000000E+07  0.00800  1.215E-02    0   0.8827   age070_m52            0.0000     3.5473E-01     5.5532   1.0007   103.4250
 23      0.0000     0.0000E+00    0.0000E+00    1.445000E+07  0.00800  8.717E-03    0   0.8552   age078_m52            0.0000     3.7971E-01     5.7682   1.1103   102.4276
 24      0.0000     0.0000E+00    0.0000E+00    2.512000E+07  0.00800  5.592E-03    0   0.8162   age090_m52            0.0000     3.6684E-01     5.5653   0.7678   104.9011
 25      0.0000     0.0000E+00    0.0000E+00    4.000000E+07  0.00800  3.896E-03    0   0.7841   age104_m52            0.0000     4.0003E-01     5.7780   0.6879   105.2579
 26      0.0000     0.0000E+00    0.0000E+00    1.015200E+08  0.00800  2.148E-03    0   0.7226   age116_m52            0.0000     4.6066E-01     6.2247   0.6307   104.6919
 27      0.0000     0.0000E+00    0.0000E+00    2.861200E+08  0.00800  9.925E-04    0   0.6683   age125_m52            0.0000     6.0122E-01     6.8970   0.1693   107.7958
 28      0.0000     0.0000E+00    0.0000E+00    9.047900E+08  0.00800  3.141E-04    0   0.6138   age135_m52            0.0000     8.5190E-01     7.9210  -0.6135   111.2128
 29      0.0000     0.0000E+00    0.0000E+00    1.434000E+09  0.00800  1.719E-04    0   0.5853   age139_m52            0.0000     9.8268E-01     8.1838  -1.0000   102.4983
 30      0.0000     0.0000E+00    0.0000E+00    2.500000E+09  0.00800  7.872E-05    0   0.5600   age150_m52            0.0000     1.7435E+00    11.1601  -1.0000    90.6338
 31      0.0000     0.0000E+00    0.0000E+00    4.250000E+09  0.00800  4.336E-05    0   0.5426   age158_m52            0.0000     1.8311E+00    11.3785  -1.0000    89.2705
 32      0.0000     0.0000E+00    0.0000E+00    6.250000E+09  0.00800  3.159E-05    0   0.5319   age166_m52            0.0000     2.6812E+00    13.9897  -1.0000    82.5724
 33      0.0000     0.0000E+00    0.0000E+00    1.300000E+10  0.00800  1.361E-05    0   0.5073   age193_m52            0.0000     5.1111E+00    19.6315  -1.0000    67.5839
 34      0.0000     0.0000E+00    0.0000E+00    1.800000E+10  0.00800  9.886E-06    0   0.4990   age213_m52            0.0000     5.8466E+00    20.8299  -1.0000    64.1067
 35      0.0000     0.0000E+00    0.0000E+00    1.000000E+06  0.02000  1.544E-02    0   1.0000   age020_m62            0.0000     5.3289E-01     7.0410   1.8471    96.5147
 36      0.0000     0.0000E+00    0.0000E+00    3.160000E+06  0.02000  3.762E-02    0   0.9858   age045_m62            0.0000     5.3455E-01     7.0533   1.7855    97.3759
 37      0.0000     0.0000E+00    0.0000E+00    5.010000E+06  0.02000  3.296E-02    0   0.9342   age055_m62            0.0000     5.1118E-01     6.8117   1.4406   100.0537
 38     48.1493     6.0363E+00    9.5853E+00    8.710000E+06  0.02000  1.154E-02    0   0.8861   age067_m62            0.0000     3.6541E-01     5.8521   0.4457   107.5657
 39      0.0000     0.0000E+00    0.0000E+00    1.445000E+07  0.02000  7.663E-03    0   0.8472   age078_m62            0.0000     3.3763E-01     5.4244   0.6490   105.9685
 40      0.0000     0.0000E+00    0.0000E+00    2.512000E+07  0.02000  4.532E-03    0   0.8099   age090_m62            0.0000     3.4665E-01     5.5020   0.6459   105.5265
 41      0.0000     0.0000E+00    0.0000E+00    5.500000E+07  0.02000  2.733E-03    0   0.7595   age110_m62            0.0000     3.9371E-01     5.7646   0.6647   104.7703
 42      0.0000     0.0000E+00    0.0000E+00    1.609000E+08  0.02000  1.369E-03    0   0.6985   age120_m62            0.0000     5.1910E-01     6.5097   0.5225   106.5479
 43      0.0000     0.0000E+00    0.0000E+00    2.861200E+08  0.02000  9.013E-04    0   0.6714   age125_m62            0.0000     6.3653E-01     7.0276   0.2852   108.8710
 44      0.0000     0.0000E+00    0.0000E+00    5.088000E+08  0.02000  5.028E-04    0   0.6449   age130_m62            0.0000     8.3915E-01     7.9747  -0.0800   110.8491
 45      0.0000     0.0000E+00    0.0000E+00    9.047900E+08  0.02000  2.428E-04    0   0.6179   age135_m62            0.0000     9.2970E-01     8.2446  -0.6745   110.4555
 46      0.0000     0.0000E+00    0.0000E+00    1.434000E+09  0.02000  1.263E-04    0   0.5908   age139_m62            0.0000     1.0666E+00     8.3590  -1.0000   104.8599
 47      0.0000     0.0000E+00    0.0000E+00    2.500000E+09  0.02000  5.985E-05    0   0.5673   age150_m62            0.0000     1.9688E+00    11.5874  -1.0000    90.9549
 48      0.0000     0.0000E+00    0.0000E+00    4.250000E+09  0.02000  3.271E-05    0   0.5468   age158_m62            0.0000     3.2917E+00    15.4162  -1.0000    80.0927
 49      0.0000     0.0000E+00    0.0000E+00    1.000000E+10  0.02000  1.360E-05    0   0.5167   age181_m62            0.0000     5.2341E+00    19.4940  -1.0000    68.9467
 50      0.0000     0.0000E+00    0.0000E+00    1.800000E+10  0.02000  7.124E-06    0   0.5013   age213_m62            0.0000     6.5813E+00    21.7496  -1.0000    62.3620
 51     18.4768     1.0313E+00    1.8478E+00    1.000000E+06  0.05000  2.592E-02    0   0.9998   age020_m72            0.0000     5.3373E-01     7.0396   1.8344    96.7265
 52      0.0000     0.0000E+00    0.0000E+00    3.160000E+06  0.05000  4.845E-02    0   0.9577   age045_m72            0.0000     5.3223E-01     7.0172   1.6800    98.1569
 53      0.0000     0.0000E+00    0.0000E+00    5.010000E+06  0.05000  3.072E-02    0   0.9147   age055_m72            0.0000     3.9111E-01     5.9487   1.2209   102.2374
 54      0.0000     0.0000E+00    0.0000E+00    6.610000E+06  0.05000  1.455E-02    0   0.8877   age061_m72            0.0000     5.9088E-01     7.6659   0.4970   108.6900
 55      0.0000     0.0000E+00    0.0000E+00    1.000000E+07  0.05000  9.074E-03    0   0.8524   age070_m72            0.0000     4.5991E-01     6.5743   1.4109   101.7003
 56      0.0000     0.0000E+00    0.0000E+00    2.512000E+07  0.05000  4.250E-03    0   0.7902   age090_m72            0.0000     4.1640E-01     6.1186   1.1250   102.9696
 57      0.0000     0.0000E+00    0.0000E+00    4.000000E+07  0.05000  3.087E-03    0   0.7618   age104_m72            0.0000     4.2138E-01     6.1351   0.9053   104.3851
 58      0.0000     0.0000E+00    0.0000E+00    1.015200E+08  0.05000  1.700E-03    0   0.7096   age116_m72            0.0000     4.7650E-01     6.2771   0.6633   106.3064
 59      0.0000     0.0000E+00    0.0000E+00    2.861200E+08  0.05000  7.384E-04    0   0.6633   age125_m72            0.0000     7.3429E-01     7.4897   0.1603   109.8618
 60      0.0000     0.0000E+00    0.0000E+00    5.088000E+08  0.05000  3.819E-04    0   0.6372   age130_m72            0.0000     8.8121E-01     8.1246  -0.3330   111.4319
 61      0.0000     0.0000E+00    0.0000E+00    9.047900E+08  0.05000  1.676E-04    0   0.6110   age135_m72            0.0000     1.1887E+00     9.0029  -1.0000   108.3499
 62      0.0000     0.0000E+00    0.0000E+00    1.434000E+09  0.05000  8.837E-05    0   0.5874   age139_m72            0.0000     2.0285E+00    11.6634  -1.0000    92.2360
 63      0.0000     0.0000E+00    0.0000E+00    2.500000E+09  0.05000  4.233E-05    0   0.5598   age150_m72            0.0000     3.3794E+00    15.4868  -1.0000    80.7211
 64      0.0000     0.0000E+00    0.0000E+00    6.250000E+09  0.05000  1.435E-05    0   0.5249   age166_m72            0.0000     5.8132E+00    20.5525  -1.0000    65.8458
 65      0.0000     0.0000E+00    0.0000E+00    1.300000E+10  0.05000  6.513E-06    0   0.5036   age193_m72            0.0000     7.6724E+00    23.4569  -1.0000    58.6098
 66      0.0000     0.0000E+00    0.0000E+00    1.800000E+10  0.05000  4.527E-06    0   0.4945   age213_m72            0.0000     8.7947E+00    25.0332  -1.0000    54.2966


## Synthesis Results - Average & Chains ##

# j      x_j: min, <> & last-chain-values for 1 ...  7 chains
  1      0.1051      0.9463      1.7442      0.0000      2.4862      2.7273      3.0257      2.8330      0.0000
  2      0.0000      0.8036      0.2964      0.0000      0.0000      1.4292      0.0000      0.0000      0.0000
  3      0.0000      0.7846      0.0000      0.3423      0.0000      0.0000      0.7950      0.5138      0.0000
  4      0.0000      0.6800      2.2660      0.0000      0.0000      0.0000      0.0000      0.0000      0.1741
  5      0.0000      1.5420      0.0000      0.0000      4.1291      0.0000      0.0000      5.6170      1.0535
  6      0.0000      0.9462      0.0000      1.9244      0.0000      0.0000      4.9139      1.0071      0.0000
  7      0.0000      2.7789      0.0000      7.8362      0.0000      0.0000      0.0000      0.0000      2.8618
  8      0.0000      2.5417      0.0000      0.0000      1.0705      5.3693      0.0000     10.9517      0.0000
  9      0.0000      1.0999      1.9524      0.0000      0.0000      1.2429      0.0000      0.0000      0.0000
 10      0.0000      0.5588      0.0000      0.0000      0.0000      0.0000      0.0000      0.0000      2.2515
 11      0.0000      0.2826      0.0000      0.0000      0.0000      0.0000      0.0000      0.0000      0.0000
 12      0.0000      0.3415      0.0000      0.0000      0.0000      0.0000      0.0000      0.0000      0.0000
 13      0.0000      0.0943      1.4251      0.0000      0.0000      0.0000      0.0000      0.0000      0.0000
 14      0.0000      0.0772      0.0000      0.0000      0.0000      0.6740      0.0000      0.0000      0.0000
 15      2.1947      0.3757      1.6534      0.0000      0.0000      0.0000      0.0000      0.0000      0.0000
 16      0.0000      0.0918      0.5293      0.6198      0.0000      0.0000      0.0000      0.0000      0.0000
 17      0.0000      0.1577      0.0000      0.0853      0.0000      0.0000      0.0000      0.0000      0.0000
 18      0.0000      1.0708      0.0000      2.1441      4.9057      0.0000      6.5538      1.1351      0.0000
 19      1.3703      0.3488      2.7117      1.8668      0.0000      0.0000      0.9161      0.0000      0.0000
 20      0.0000      1.1873      0.0000      0.0000      0.0000      0.0000      0.0000      1.5281      5.7152
 21     35.3222     18.3595     22.3430     19.3273     25.4230     25.2418     25.7988     23.4082     34.0071
 22      0.0000      1.8523      0.0000      3.0405      1.4300      6.5088      0.0000      2.0486      1.2430
 23      0.0000      0.9951      0.0000      0.0000      2.2183      1.9449      1.7490      0.0000      0.0000
 24      0.0000      2.1020      0.0000      0.0000      7.2507      0.0000      0.2175      1.1696      0.0000
 25      0.0000      1.1403      0.0000      0.0000      0.7958      3.5166      0.0000      0.0000      0.0245
 26      0.0000      0.8432      0.0000      0.0000      0.0000      0.0000      0.9560      0.1047      0.0603
 27      0.0000      0.4617      0.0000      0.0762      0.0000      0.0000      0.0000      0.0000      0.0000
 28      0.0000      0.2164      0.0000      0.0000      0.0000      0.0000      1.7991      0.0000      0.0000
 29      0.0000      0.0770      0.0000      0.0000      0.0000      0.0000      0.0000      0.0000      0.0000
 30      0.0000      0.2042      0.0000      0.0000      0.0000      0.7903      0.9705      0.9362      0.0000
 31      0.0000      0.1483      0.0000      0.0000      0.0000      0.0000      0.0000      0.0000      0.0000
 32      0.0000      0.0401      0.0000      0.0000      0.0000      0.2018      0.0000      0.4555      0.0000
 33      0.0000      0.0271      0.0000      0.0000      0.0000      0.0000      0.0000      0.0000      0.0000
 34      0.0000      0.0061      0.0000      0.0000      0.0000      0.0000      0.0000      0.0000      0.0000
 35      0.0000      0.3226      0.0000      0.0000      0.0000      0.0000      0.0000      0.4122      0.0000
 36      0.0000      2.5673      0.0000      6.1067      0.6708      3.3321      8.4774      0.0000      2.3764
 37      0.0000      0.5265      0.0000      0.0000      2.5890      0.0000      0.0000      0.0000      0.0000
 38     48.1493     47.2970     47.2938     48.7090     50.7014     46.9456     43.9742     48.5393     51.9246
 39      0.0000      2.8315      0.0000      0.0000      0.0000      2.2106      1.4299      0.0000      0.0000
 40      0.0000      1.2944      0.0000      0.0000      0.0000      0.0000      0.0000      0.0000      0.0000
 41      0.0000      0.9038      0.0000      2.7043      0.0000      0.0000      0.0000      0.0000      0.0000
 42      0.0000      0.5703      1.0232      0.0000      0.0000      0.0000      0.0000      0.0000      0.5899
 43      0.0000      0.3067      0.0000      0.0000      0.0455      0.0000      0.0000      0.0000      0.0000
 44      0.0000      0.2729      0.0000      0.0147      0.0000      0.0000      0.0000      0.0000      0.0000
 45      0.0000      0.1398      0.0000      1.9604      0.0000      0.0000      0.0000      0.0000      0.0000
 46      0.0000      0.1706      0.0000      0.0000      0.0000      0.0000      1.4355      0.0000      1.1935
