###################################################################
## OUTPUT of StarlightChains_v04.for    [Cid@UFSC - 01/Apr/2007] ##
###################################################################

## Some input info
2006ee.txt                               [arq_obs]
Base.CB07.vall.4m                        [arq_base]
Masks.EmLines.NEW.gm                     [arq_masks]
StCv04.C11.config                        [arq_config]
   66                                    [N_base]
    0                                    [N_YAV_components = # of components with extra extinction!]
    0                                    [i_FitPowerLaw (1/0 = Yes/No)]
-9.99                                    [alpha_PowerLaw]
CCM                                      [red_law_option]
 1.458241                                [q_norm = A(l_norm)/A(V)]

## (Re)Sampling Parameters
 3741.00                                 [l_ini (A)]
 7218.00                                 [l_fin (A)]
    1.00                                 [dl    (A)]     (OBS: dl_cushion =    50.00 A)

## Normalization info
 4020.00                                 [l_norm (A) - for base]
 4010.00                                 [llow_norm (A) - window for f_obs]
 4060.00                                 [lupp_norm (A) - window for f_obs]
8.748668E-17                             [fobs_norm (in input units)]

## S/N
 3691.00                                 [llow_SN (A) - window for S/N]
 7268.00                                 [lupp_SN (A) - window for S/N]
   5.584                                 [S/N in S/N window]
   4.537                                 [S/N in norm. window]
  19.074                                 [S/N_err in S/N window]
  15.497                                 [S/N_err in norm. window]
  1.0000                                 [fscale_chi2]

## etc...
    -2007318                             [idum_orig]
  2383                                   [NOl_eff]
  2383                                   [Nl_eff]
     0    NSIGMA                         [Ntot_cliped & clip_method]
  1628340                                [Nglobal_steps]
   7                                     [N_chains]
  27                                     [NEX0s_base = N_base in EX0s-fits]
 0   0   1        2   2.0   2.357E+01    [Clip-Bug, RC-Crash & Burn-In warning-flags, n_censored_weights, wei_nsig_threshold & wei_limit]
    15     14.858     14.352      0.506  [idt_all, wdt_TotTime, wdt_UsrTime & wdt_SysTime (sec)]

## Synthesis Results - Best model ##

 3.02057E-01                             [chi2/Nl_eff]
     2.60782                             [adev (%)]

   106.34126                             [sum-of-x (%)]
 9.67051E-17                             [Flux_tot (units of input spectrum!)]
 4.35897E-12                             [Mini_tot (???)]
 2.25824E-12                             [Mcor_tot (???)]

  86.26                                  [v0_min  (km/s)]
 189.43                                  [vd_min  (km/s)]
 0.0288                                  [AV_min  (mag)]
 0.0000                                  [YAV_min (mag)]

# j     x_j(%)      Mini_j(%)     Mcor_j(%)     age_j(yr)     Z_j      (L/M)_j    YAV?  Mstars   component_j        a/Fe...       SSP_chi2r SSP_adev(%)   SSP_AV   SSP_x(%)
  1      0.4925     9.3921E-04    1.8129E-03    1.000000E+06  0.00400  1.094E-02    0   1.0000   age020_m42            0.0000     2.2233E+00     7.2188   3.5935    93.7718
  2      0.0000     0.0000E+00    0.0000E+00    3.160000E+06  0.00400  4.007E-02    0   0.9999   age045_m42            0.0000     2.0154E+00     6.5625   2.8854    99.3112
  3      0.0043     3.4932E-06    6.3975E-06    5.010000E+06  0.00400  2.539E-02    0   0.9488   age055_m42            0.0000     2.0943E+00     6.7898   3.1951    97.3654
  4      0.0000     0.0000E+00    0.0000E+00    6.610000E+06  0.00400  2.620E-02    0   0.9220   age061_m42            0.0000     2.0112E+00     6.6470   2.8055    99.7959
  5      0.0000     0.0000E+00    0.0000E+00    1.000000E+07  0.00400  1.322E-02    0   0.8862   age070_m42            0.0000     2.2674E+00     7.4669   2.4789   103.7991
  6      0.0000     0.0000E+00    0.0000E+00    1.445000E+07  0.00400  7.883E-03    0   0.8571   age078_m42            0.0000     2.3003E+00     7.5401   2.8064   101.1960
  7      0.0000     0.0000E+00    0.0000E+00    2.512000E+07  0.00400  5.251E-03    0   0.8174   age090_m42            0.0000     2.3705E+00     7.6787   2.3414   104.6734
  8      0.0000     0.0000E+00    0.0000E+00    4.000000E+07  0.00400  3.649E-03    0   0.7851   age104_m42            0.0000     2.2353E+00     7.4230   2.1204   105.2637
  9      0.0000     0.0000E+00    0.0000E+00    5.500000E+07  0.00400  3.098E-03    0   0.7629   age110_m42            0.0000     2.1011E+00     7.0760   2.2971   104.2422
 10      0.0000     0.0000E+00    0.0000E+00    1.015200E+08  0.00400  2.228E-03    0   0.7207   age116_m42            0.0000     2.0250E+00     6.9322   2.3327   103.7682
 11      0.0000     0.0000E+00    0.0000E+00    2.861200E+08  0.00400  1.093E-03    0   0.6648   age125_m42            0.0000     2.1707E+00     7.3536   1.7472   107.6547
 12      0.0000     0.0000E+00    0.0000E+00    5.088000E+08  0.00400  6.597E-04    0   0.6365   age130_m42            0.0000     1.8571E+00     6.8481   1.7604   107.5192
 13      0.0000     0.0000E+00    0.0000E+00    1.434000E+09  0.00400  2.132E-04    0   0.5798   age139_m42            0.0000     1.0934E+00     5.2772   0.7983   109.3276
 14      0.0000     0.0000E+00    0.0000E+00    4.250000E+09  0.00400  5.895E-05    0   0.5377   age158_m42            0.0000     5.7349E-01     3.5961   0.3765   104.5637
 15      0.0007     4.0761E-04    4.1007E-04    7.500000E+09  0.00400  3.510E-05    0   0.5212   age171_m42            0.0000     4.5448E-01     3.1253   0.1983   103.5532
 16      9.0429     9.4093E+00    9.1429E+00    1.300000E+10  0.00400  2.005E-05    0   0.5034   age193_m42            0.0000     3.9846E-01     2.8822   0.0417   102.7334
 17     10.6934     1.4629E+01    1.4025E+01    1.800000E+10  0.00400  1.525E-05    0   0.4967   age213_m42            0.0000     4.0030E-01     2.8713   0.0157   102.3975
 18      0.0000     0.0000E+00    0.0000E+00    1.000000E+06  0.00800  1.238E-02    0   1.0000   age020_m52            0.0000     2.2151E+00     7.2011   3.5898    93.9578
 19      2.6569     1.8031E-03    3.4687E-03    3.160000E+06  0.00800  3.074E-02    0   0.9966   age045_m52            0.0000     2.1870E+00     7.0936   3.5158    94.6768
 20      0.4856     3.7968E-04    6.9206E-04    5.010000E+06  0.00800  2.668E-02    0   0.9443   age055_m52            0.0000     2.0846E+00     6.8429   3.2728    96.7151
 21      0.0000     0.0000E+00    0.0000E+00    6.610000E+06  0.00800  2.136E-02    0   0.9177   age061_m52            0.0000     1.7662E+00     6.8122   1.9755   105.2659
 22      0.0000     0.0000E+00    0.0000E+00    1.000000E+07  0.00800  1.215E-02    0   0.8827   age070_m52            0.0000     2.4176E+00     7.8905   2.6424   104.2752
 23      0.0000     0.0000E+00    0.0000E+00    1.445000E+07  0.00800  8.717E-03    0   0.8552   age078_m52            0.0000     2.2400E+00     7.4375   2.7708   102.6270
 24      0.0000     0.0000E+00    0.0000E+00    2.512000E+07  0.00800  5.592E-03    0   0.8162   age090_m52            0.0000     2.3442E+00     7.6655   2.4035   105.9823
 25      0.0000     0.0000E+00    0.0000E+00    4.000000E+07  0.00800  3.896E-03    0   0.7841   age104_m52            0.0000     2.2376E+00     7.4217   2.3268   106.3143
 26      0.0000     0.0000E+00    0.0000E+00    1.015200E+08  0.00800  2.148E-03    0   0.7226   age116_m52            0.0000     2.0141E+00     6.9939   2.2884   105.1333
 27      0.0000     0.0000E+00    0.0000E+00    2.861200E+08  0.00800  9.925E-04    0   0.6683   age125_m52            0.0000     1.7917E+00     6.7851   1.8239   108.5568
 28      0.0000     0.0000E+00    0.0000E+00    9.047900E+08  0.00800  3.141E-04    0   0.6138   age135_m52            0.0000     1.0853E+00     5.2387   1.0546   111.8203
 29      0.0008     9.4392E-05    1.0664E-04    1.434000E+09  0.00800  1.719E-04    0   0.5853   age139_m52            0.0000     7.3072E-01     4.1979   0.4696   109.9685
 30      0.0000     0.0000E+00    0.0000E+00    2.500000E+09  0.00800  7.872E-05    0   0.5600   age150_m52            0.0000     4.0617E-01     3.0737   0.2277   106.0249
 31      0.0016     7.5326E-04    7.8893E-04    4.250000E+09  0.00800  4.336E-05    0   0.5426   age158_m52            0.0000     4.0292E-01     2.9485   0.2127   105.0450
 32      0.0000     0.0000E+00    0.0000E+00    6.250000E+09  0.00800  3.159E-05    0   0.5319   age166_m52            0.0000     3.6252E-01     2.8945   0.0269   104.4270
 33      0.0000     0.0000E+00    0.0000E+00    1.300000E+10  0.00800  1.361E-05    0   0.5073   age193_m52            0.0000     4.0081E-01     3.2600  -0.4207   102.9670
 34      0.0000     0.0000E+00    0.0000E+00    1.800000E+10  0.00800  9.886E-06    0   0.4990   age213_m52            0.0000     5.2315E-01     3.8378  -0.5095   101.7342
 35      0.0000     0.0000E+00    0.0000E+00    1.000000E+06  0.02000  1.544E-02    0   1.0000   age020_m62            0.0000     2.2213E+00     7.2122   3.5861    94.1699
 36      2.1222     1.1769E-03    2.2394E-03    3.160000E+06  0.02000  3.762E-02    0   0.9858   age045_m62            0.0000     2.2206E+00     7.1904   3.5254    95.0004
 37      0.0000     0.0000E+00    0.0000E+00    5.010000E+06  0.02000  3.296E-02    0   0.9342   age055_m62            0.0000     2.0191E+00     6.5798   3.1610    98.3216
 38      0.0000     0.0000E+00    0.0000E+00    8.710000E+06  0.02000  1.154E-02    0   0.8861   age067_m62            0.0000     4.1117E+00    11.2780   2.0052   111.2208
 39      0.0000     0.0000E+00    0.0000E+00    1.445000E+07  0.02000  7.663E-03    0   0.8472   age078_m62            0.0000     2.7487E+00     8.7432   2.2610   107.9291
 40      0.0000     0.0000E+00    0.0000E+00    2.512000E+07  0.02000  4.532E-03    0   0.8099   age090_m62            0.0000     2.9494E+00     8.9780   2.2505   107.7300
 41      0.0000     0.0000E+00    0.0000E+00    5.500000E+07  0.02000  2.733E-03    0   0.7595   age110_m62            0.0000     2.1721E+00     7.3505   2.3067   105.7094
 42      0.0000     0.0000E+00    0.0000E+00    1.609000E+08  0.02000  1.369E-03    0   0.6985   age120_m62            0.0000     1.9812E+00     7.0461   2.1760   107.2030
 43      0.0000     0.0000E+00    0.0000E+00    2.861200E+08  0.02000  9.013E-04    0   0.6714   age125_m62            0.0000     1.8316E+00     6.9287   1.9408   109.5468
 44      0.0000     0.0000E+00    0.0000E+00    5.088000E+08  0.02000  5.028E-04    0   0.6449   age130_m62            0.0000     1.4084E+00     6.0808   1.5964   110.9843
 45      0.0009     7.4333E-05    8.8657E-05    9.047900E+08  0.02000  2.428E-04    0   0.6179   age135_m62            0.0000     7.8581E-01     4.3906   1.0185   110.1754
 46      0.0000     0.0000E+00    0.0000E+00    1.434000E+09  0.02000  1.263E-04    0   0.5908   age139_m62            0.0000     5.1040E-01     3.4070   0.5769   108.5892
 47      0.0000     0.0000E+00    0.0000E+00    2.500000E+09  0.02000  5.985E-05    0   0.5673   age150_m62            0.0000     3.8129E-01     2.9247   0.2307   106.3998
 48     21.1948     1.3518E+01    1.4268E+01    4.250000E+09  0.02000  3.271E-05    0   0.5468   age158_m62            0.0000     4.2180E-01     3.2928  -0.0495   104.5452
 49      9.5056     1.4582E+01    1.4543E+01    1.000000E+10  0.02000  1.360E-05    0   0.5167   age181_m62            0.0000     6.7480E-01     4.3958  -0.3686   102.9946
 50      0.0000     0.0000E+00    0.0000E+00    1.800000E+10  0.02000  7.124E-06    0   0.5013   age213_m62            0.0000     9.8354E-01     5.3918  -0.5530   101.2044
 51      3.9792     3.2027E-03    6.1809E-03    1.000000E+06  0.05000  2.592E-02    0   0.9998   age020_m72            0.0000     2.2517E+00     7.3008   3.5743    94.3392
 52      0.1614     6.9506E-05    1.2849E-04    3.160000E+06  0.05000  4.845E-02    0   0.9577   age045_m72            0.0000     2.1502E+00     6.8922   3.4176    95.8554
 53      0.0000     0.0000E+00    0.0000E+00    5.010000E+06  0.05000  3.072E-02    0   0.9147   age055_m72            0.0000     2.5212E+00     8.1056   2.8758   102.7777
 54      5.1100     7.3268E-03    1.2554E-02    6.610000E+06  0.05000  1.455E-02    0   0.8877   age061_m72            0.0000     6.8842E+00    14.1109   2.0221   113.9647
 55      0.0000     0.0000E+00    0.0000E+00    1.000000E+07  0.05000  9.074E-03    0   0.8524   age070_m72            0.0000     3.1676E+00     8.7270   3.0652   102.4553
 56      0.0000     0.0000E+00    0.0000E+00    2.512000E+07  0.05000  4.250E-03    0   0.7902   age090_m72            0.0000     2.8424E+00     8.2791   2.7643   104.1195
 57      0.0000     0.0000E+00    0.0000E+00    4.000000E+07  0.05000  3.087E-03    0   0.7618   age104_m72            0.0000     2.9734E+00     8.4892   2.5306   106.0471
 58      0.0000     0.0000E+00    0.0000E+00    1.015200E+08  0.05000  1.700E-03    0   0.7096   age116_m72            0.0000     2.2368E+00     7.4819   2.3053   107.3263
 59      0.0000     0.0000E+00    0.0000E+00    2.861200E+08  0.05000  7.384E-04    0   0.6633   age125_m72            0.0000     1.5759E+00     6.4497   1.8248   110.3244
 60      0.0000     0.0000E+00    0.0000E+00    5.088000E+08  0.05000  3.819E-04    0   0.6372   age130_m72            0.0000     9.8268E-01     4.9866   1.3579   111.0657
 61      0.0000     0.0000E+00    0.0000E+00    9.047900E+08  0.05000  1.676E-04    0   0.6110   age135_m72            0.0000     5.4118E-01     3.4567   0.6898   108.1875
 62      0.0000     0.0000E+00    0.0000E+00    1.434000E+09  0.05000  8.837E-05    0   0.5874   age139_m72            0.0000     3.9602E-01     3.0648   0.2344   107.7555
 63     30.0790     1.4824E+01    1.6019E+01    2.500000E+09  0.05000  4.233E-05    0   0.5598   age150_m72            0.0000     4.8023E-01     3.5497  -0.0417   105.0974
 64      5.3238     7.7398E+00    7.8419E+00    6.250000E+09  0.05000  1.435E-05    0   0.5249   age166_m72            0.0000     7.8962E-01     4.6840  -0.4560   102.1984
 65      0.0000     0.0000E+00    0.0000E+00    1.300000E+10  0.05000  6.513E-06    0   0.5036   age193_m72            0.0000     1.2440E+00     6.0106  -0.7051   101.9798
 66      5.4860     2.5282E+01    2.4132E+01    1.800000E+10  0.05000  4.527E-06    0   0.4945   age213_m72            0.0000     1.6008E+00     6.8456  -0.8448   100.9413


## Synthesis Results - Average & Chains ##

# j      x_j: min, <> & last-chain-values for 1 ...  7 chains
  1      0.4925      0.2716      0.0000      0.0000      0.6918      1.3299      0.2627      0.8092      0.0000
  2      0.0000      0.2062      0.0000      0.0000      0.0000      0.0000      0.0000      0.6710      0.3056
  3      0.0043      0.1083      0.0000      0.1740      0.0000      0.8102      0.0000      0.0000      0.0000
  4      0.0000      0.1520      0.0000      0.0000      0.0000      0.0000      0.0000      0.0000      0.0000
  5      0.0000      0.2455      1.5766      0.0000      0.0000      0.0000      0.0000      0.0000      0.0000
  6      0.0000      0.1230      0.1073      0.0000      0.2196      0.0000      0.0000      0.0000      0.0000
  7      0.0000      0.1372      0.0000      0.0000      0.0000      0.0000      0.0000      0.3767      0.0000
  8      0.0000      0.1462      0.0000      0.0546      0.0000      0.1265      0.0000      0.0000      0.0000
  9      0.0000      0.1847      0.0000      0.6762      0.0241      0.0000      0.0000      0.0000      0.0000
 10      0.0000      0.0957      0.0000      0.0000      0.0000      0.0000      0.0000      0.0000      0.0000
 11      0.0000      0.1699      0.0000      0.0000      0.0000      0.0000      0.0000      0.0000      0.6595
 12      0.0000      0.1432      0.0000      0.0000      0.0000      0.3057      0.0000      0.1313      0.0000
 13      0.0000      0.2808      0.0000      0.0000      0.0000      0.0000      0.0000      0.0000      0.0916
 14      0.0000      1.0070      3.0305      0.0000      0.3761      0.8370      1.8040      1.0481      1.2378
 15      0.0007      1.6773      1.3583      0.2458      2.2691      1.2177      0.1462      0.0000      0.3626
 16      9.0429      4.6311      6.6980      0.9780      2.9662      3.5540      5.0547      6.8221      4.8737
 17     10.6934      7.7958      4.5156      9.2485      7.9789      9.4951      8.4174      4.7492      8.4160
 18      0.0000      0.1639      0.1716      0.5051      0.3997      0.0000      0.0000      0.0000      0.0000
 19      2.6569      0.9806      0.9820      0.8946      1.7137      1.4097      2.9658      1.5666      0.0000
 20      0.4856      0.4635      0.0000      2.5485      0.0000      0.9213      0.1314      0.0000      1.3126
 21      0.0000      0.6440      0.0000      1.3560      0.0000      0.0000      0.0000      0.0627      2.2837
 22      0.0000      0.1502      0.0097      0.2997      0.0000      0.0000      0.0000      0.0000      0.5733
 23      0.0000      0.2726      0.0000      0.4076      0.8879      0.0000      0.0000      0.4233      0.0000
 24      0.0000      0.2782      0.2792      0.9235      0.7755      0.1599      0.0000      0.8021      0.0000
 25      0.0000      0.1516      0.0000      0.0000      0.0000      0.0000      0.0000      0.0000      0.0000
 26      0.0000      0.1020      0.0000      0.0000      0.0000      0.1537      0.0000      0.0000      0.0000
 27      0.0000      0.1290      0.0000      0.4280      0.0000      0.0499      0.0000      0.0000      0.0000
 28      0.0000      0.2443      0.0000      0.0000      0.0073      0.0000      0.0000      0.4305      0.0000
 29      0.0008      0.5999      1.3672      0.9546      0.9473      0.8053      0.0000      0.0000      1.0658
 30      0.0000      1.6771      1.4074      0.0000      0.5261      1.6637      1.2499      0.0000      1.0587
 31      0.0016      2.5987      0.2089      7.6530      0.7353      2.1609      4.1778      0.0000      0.0000
 32      0.0000      1.4835      0.6281      0.7496      0.7975      0.7466      0.3776      4.4864      2.2864
 33      0.0000      0.4502      1.3254      0.0000      0.0000      0.0000      1.6499      0.4290      0.1644
 34      0.0000      0.2019      0.0000      0.0133      0.0000      0.0000      0.0000      0.1435      0.7586
 35      0.0000      0.1307      0.0000      0.5734      0.0000      0.0000      0.0000      0.3046      0.5167
 36      2.1222      1.4538      2.0083      0.5853      1.4541      1.5621      2.7131      2.4892      1.9146
 37      0.0000      0.2517      0.0000      0.0000      0.0000      0.0000      0.8081      0.9690      0.0000
 38      0.0000      0.6198      2.7077      0.0000      1.4362      0.0000      0.0000      1.0407      1.0899
 39      0.0000      0.4962      1.5191      0.0000      1.5282      0.0000      0.8063      0.0000      0.8896
 40      0.0000      0.1457      0.6102      0.1334      0.0000      0.4454      0.7170      0.2925      0.0274
 41      0.0000      0.2740      0.0000      0.0000      0.1689      0.0679      0.5715      0.0000      0.0000
 42      0.0000      0.4375      0.0000      0.0000      0.7881      0.3219      0.0000      0.9498      0.6338
 43      0.0000      0.2110      0.0000      0.0000      0.0000      0.4291      0.1198      0.7541      0.0000
 44      0.0000      0.1978      0.0000      0.0000      0.0000      0.0854      0.0000      0.0000      0.0184
 45      0.0009      0.1994      0.0000      0.0000      1.1417      1.3331      0.0000      0.0469      0.0000
 46      0.0000      0.9185      1.1553      0.0000      0.8822      0.0000      1.2662      0.6792      0.0000
