###################################################################
## OUTPUT of StarlightChains_v04.for    [Cid@UFSC - 01/Apr/2007] ##
###################################################################

## Some input info
2006jd.txt                               [arq_obs]
Base.CB07.vall.4m                        [arq_base]
Masks.EmLines.NEW.gm                     [arq_masks]
StCv04.C11.config                        [arq_config]
   66                                    [N_base]
    0                                    [N_YAV_components = # of components with extra extinction!]
    0                                    [i_FitPowerLaw (1/0 = Yes/No)]
-9.99                                    [alpha_PowerLaw]
CCM                                      [red_law_option]
 1.458241                                [q_norm = A(l_norm)/A(V)]

## (Re)Sampling Parameters
 3741.00                                 [l_ini (A)]
 7218.00                                 [l_fin (A)]
    1.00                                 [dl    (A)]     (OBS: dl_cushion =    50.00 A)

## Normalization info
 4020.00                                 [l_norm (A) - for base]
 4010.00                                 [llow_norm (A) - window for f_obs]
 4060.00                                 [lupp_norm (A) - window for f_obs]
4.512138E-17                             [fobs_norm (in input units)]

## S/N
 3691.00                                 [llow_SN (A) - window for S/N]
 7268.00                                 [lupp_SN (A) - window for S/N]
   2.589                                 [S/N in S/N window]
   3.251                                 [S/N in norm. window]
  10.000                                 [S/N_err in S/N window]
  12.558                                 [S/N_err in norm. window]
  1.0000                                 [fscale_chi2]

## etc...
    -2007321                             [idum_orig]
  2382                                   [NOl_eff]
  1717                                   [Nl_eff]
   665    NSIGMA                         [Ntot_cliped & clip_method]
   480900                                [Nglobal_steps]
   7                                     [N_chains]
   7                                     [NEX0s_base = N_base in EX0s-fits]
 0   0   1       73   2.0   2.932E+01    [Clip-Bug, RC-Crash & Burn-In warning-flags, n_censored_weights, wei_nsig_threshold & wei_limit]
    10     10.033      9.525      0.508  [idt_all, wdt_TotTime, wdt_UsrTime & wdt_SysTime (sec)]

## Synthesis Results - Best model ##

 2.34652E+00                             [chi2/Nl_eff]
    12.82637                             [adev (%)]

    97.73102                             [sum-of-x (%)]
 2.54000E-17                             [Flux_tot (units of input spectrum!)]
 1.21707E-13                             [Mini_tot (???)]
 7.44355E-14                             [Mcor_tot (???)]

 270.29                                  [v0_min  (km/s)]
 189.05                                  [vd_min  (km/s)]
-0.4107                                  [AV_min  (mag)]
 0.0000                                  [YAV_min (mag)]

# j     x_j(%)      Mini_j(%)     Mcor_j(%)     age_j(yr)     Z_j      (L/M)_j    YAV?  Mstars   component_j        a/Fe...       SSP_chi2r SSP_adev(%)   SSP_AV   SSP_x(%)
  1      0.0000     0.0000E+00    0.0000E+00    1.000000E+06  0.00400  1.094E-02    0   1.0000   age020_m42            0.0000     2.4518E+00    12.8900   2.3386    83.2347
  2      0.0000     0.0000E+00    0.0000E+00    3.160000E+06  0.00400  4.007E-02    0   0.9999   age045_m42            0.0000     2.4186E+00    12.9327   1.6051    89.2886
  3      0.0000     0.0000E+00    0.0000E+00    5.010000E+06  0.00400  2.539E-02    0   0.9488   age055_m42            0.0000     2.4135E+00    12.8701   1.9216    87.2466
  4      0.0000     0.0000E+00    0.0000E+00    6.610000E+06  0.00400  2.620E-02    0   0.9220   age061_m42            0.0000     2.4384E+00    12.9979   1.5233    89.8110
  5      0.0000     0.0000E+00    0.0000E+00    1.000000E+07  0.00400  1.322E-02    0   0.8862   age070_m42            0.0000     2.6480E+00    13.4919   1.2195    92.3467
  6      0.0000     0.0000E+00    0.0000E+00    1.445000E+07  0.00400  7.883E-03    0   0.8571   age078_m42            0.0000     2.6179E+00    13.3892   1.5490    89.9377
  7      0.0000     0.0000E+00    0.0000E+00    2.512000E+07  0.00400  5.251E-03    0   0.8174   age090_m42            0.0000     2.6946E+00    13.6036   1.0843    93.0390
  8      0.0000     0.0000E+00    0.0000E+00    4.000000E+07  0.00400  3.649E-03    0   0.7851   age104_m42            0.0000     2.6717E+00    13.5700   0.8587    93.7735
  9      0.0000     0.0000E+00    0.0000E+00    5.500000E+07  0.00400  3.098E-03    0   0.7629   age110_m42            0.0000     2.5953E+00    13.4107   1.0208    93.5341
 10      0.0000     0.0000E+00    0.0000E+00    1.015200E+08  0.00400  2.228E-03    0   0.7207   age116_m42            0.0000     2.5578E+00    13.3122   1.0473    93.5393
 11      0.0000     0.0000E+00    0.0000E+00    2.861200E+08  0.00400  1.093E-03    0   0.6648   age125_m42            0.0000     2.7370E+00    13.7566   0.4674    96.6376
 12      0.0000     0.0000E+00    0.0000E+00    5.088000E+08  0.00400  6.597E-04    0   0.6365   age130_m42            0.0000     2.6511E+00    13.5186   0.4705    97.0278
 13      0.0000     0.0000E+00    0.0000E+00    1.434000E+09  0.00400  2.132E-04    0   0.5798   age139_m42            0.0000     2.5178E+00    13.2020  -0.4810    98.2623
 14      0.0000     0.0000E+00    0.0000E+00    4.250000E+09  0.00400  5.895E-05    0   0.5377   age158_m42            0.0000     2.3200E+00    12.7571  -0.8979    93.7474
 15      0.0000     0.0000E+00    0.0000E+00    7.500000E+09  0.00400  3.510E-05    0   0.5212   age171_m42            0.0000     2.3392E+00    12.7903  -1.0000    89.9598
 16      0.0000     0.0000E+00    0.0000E+00    1.300000E+10  0.00400  2.005E-05    0   0.5034   age193_m42            0.0000     2.5308E+00    13.1735  -1.0000    83.4986
 17      0.0000     0.0000E+00    0.0000E+00    1.800000E+10  0.00400  1.525E-05    0   0.4967   age213_m42            0.0000     2.5616E+00    13.2330  -1.0000    82.3047
 18      0.0000     0.0000E+00    0.0000E+00    1.000000E+06  0.00800  1.238E-02    0   1.0000   age020_m52            0.0000     2.4530E+00    12.8896   2.3355    83.3770
 19      0.0000     0.0000E+00    0.0000E+00    3.160000E+06  0.00800  3.074E-02    0   0.9966   age045_m52            0.0000     2.4294E+00    12.8428   2.2573    84.2076
 20      0.0000     0.0000E+00    0.0000E+00    5.010000E+06  0.00800  2.668E-02    0   0.9443   age055_m52            0.0000     2.4215E+00    12.8723   2.0043    86.4400
 21     19.3979     1.9393E-01    2.9099E-01    6.610000E+06  0.00800  2.136E-02    0   0.9177   age061_m52            0.0000     2.5697E+00    13.3093   0.7320    92.9262
 22      0.0000     0.0000E+00    0.0000E+00    1.000000E+07  0.00800  1.215E-02    0   0.8827   age070_m52            0.0000     2.7362E+00    13.6721   1.3917    92.3120
 23      0.0000     0.0000E+00    0.0000E+00    1.445000E+07  0.00800  8.717E-03    0   0.8552   age078_m52            0.0000     2.6288E+00    13.4252   1.5137    91.1869
 24      0.0000     0.0000E+00    0.0000E+00    2.512000E+07  0.00800  5.592E-03    0   0.8162   age090_m52            0.0000     2.7296E+00    13.6840   1.1456    94.1945
 25      0.0000     0.0000E+00    0.0000E+00    4.000000E+07  0.00800  3.896E-03    0   0.7841   age104_m52            0.0000     2.7071E+00    13.6599   1.0620    94.7899
 26      0.0000     0.0000E+00    0.0000E+00    1.015200E+08  0.00800  2.148E-03    0   0.7226   age116_m52            0.0000     2.6099E+00    13.4449   1.0103    94.3654
 27      0.0000     0.0000E+00    0.0000E+00    2.861200E+08  0.00800  9.925E-04    0   0.6683   age125_m52            0.0000     2.6630E+00    13.5468   0.5352    97.8842
 28      0.0000     0.0000E+00    0.0000E+00    9.047900E+08  0.00800  3.141E-04    0   0.6138   age135_m52            0.0000     2.5676E+00    13.2924  -0.2358   100.8929
 29      0.0000     0.0000E+00    0.0000E+00    1.434000E+09  0.00800  1.719E-04    0   0.5853   age139_m52            0.0000     2.4672E+00    13.0961  -0.8112    98.7854
 30      0.0000     0.0000E+00    0.0000E+00    2.500000E+09  0.00800  7.872E-05    0   0.5600   age150_m52            0.0000     2.3623E+00    12.8438  -1.0000    93.2491
 31      0.0000     0.0000E+00    0.0000E+00    4.250000E+09  0.00800  4.336E-05    0   0.5426   age158_m52            0.0000     2.3585E+00    12.8346  -1.0000    91.8054
 32      0.0000     0.0000E+00    0.0000E+00    6.250000E+09  0.00800  3.159E-05    0   0.5319   age166_m52            0.0000     2.5911E+00    13.2777  -1.0000    84.3618
 33      0.0000     0.0000E+00    0.0000E+00    1.300000E+10  0.00800  1.361E-05    0   0.5073   age193_m52            0.0000     3.9972E+00    16.0898  -1.0000    67.9034
 34      0.0000     0.0000E+00    0.0000E+00    1.800000E+10  0.00800  9.886E-06    0   0.4990   age213_m52            0.0000     4.4252E+00    16.8170  -1.0000    64.3127
 35      0.0000     0.0000E+00    0.0000E+00    1.000000E+06  0.02000  1.544E-02    0   1.0000   age020_m62            0.0000     2.4559E+00    12.8918   2.3318    83.5616
 36      0.0000     0.0000E+00    0.0000E+00    3.160000E+06  0.02000  3.762E-02    0   0.9858   age045_m62            0.0000     2.4361E+00    12.8535   2.2674    84.4649
 37      0.0000     0.0000E+00    0.0000E+00    5.010000E+06  0.02000  3.296E-02    0   0.9342   age055_m62            0.0000     2.3956E+00    12.8613   1.8818    88.3435
 38      0.0000     0.0000E+00    0.0000E+00    8.710000E+06  0.02000  1.154E-02    0   0.8861   age067_m62            0.0000     3.4931E+00    15.3524   0.8074    95.8369
 39      0.0000     0.0000E+00    0.0000E+00    1.445000E+07  0.02000  7.663E-03    0   0.8472   age078_m62            0.0000     2.9507E+00    14.1698   1.0253    94.7545
 40      0.0000     0.0000E+00    0.0000E+00    2.512000E+07  0.02000  4.532E-03    0   0.8099   age090_m62            0.0000     3.0097E+00    14.3113   1.0109    94.7571
 41      0.0000     0.0000E+00    0.0000E+00    5.500000E+07  0.02000  2.733E-03    0   0.7595   age110_m62            0.0000     2.6831E+00    13.5991   1.0428    94.2256
 42      0.0000     0.0000E+00    0.0000E+00    1.609000E+08  0.02000  1.369E-03    0   0.6985   age120_m62            0.0000     2.6525E+00    13.5278   0.8924    96.4899
 43      0.0000     0.0000E+00    0.0000E+00    2.861200E+08  0.02000  9.013E-04    0   0.6714   age125_m62            0.0000     2.6805E+00    13.5549   0.6507    98.9288
 44      0.0000     0.0000E+00    0.0000E+00    5.088000E+08  0.02000  5.028E-04    0   0.6449   age130_m62            0.0000     2.6068E+00    13.3317   0.2978   100.6294
 45      0.0000     0.0000E+00    0.0000E+00    9.047900E+08  0.02000  2.428E-04    0   0.6179   age135_m62            0.0000     2.4454E+00    13.0157  -0.2765    99.6930
 46      0.0000     0.0000E+00    0.0000E+00    1.434000E+09  0.02000  1.263E-04    0   0.5908   age139_m62            0.0000     2.3793E+00    12.8904  -0.7113    97.9548
 47      0.0000     0.0000E+00    0.0000E+00    2.500000E+09  0.02000  5.985E-05    0   0.5673   age150_m62            0.0000     2.3619E+00    12.8320  -1.0000    93.7593
 48      0.0000     0.0000E+00    0.0000E+00    4.250000E+09  0.02000  3.271E-05    0   0.5468   age158_m62            0.0000     2.7850E+00    13.5863  -1.0000    81.7663
 49      0.0000     0.0000E+00    0.0000E+00    1.000000E+10  0.02000  1.360E-05    0   0.5167   age181_m62            0.0000     3.9054E+00    15.7188  -1.0000    69.6566
 50      0.0000     0.0000E+00    0.0000E+00    1.800000E+10  0.02000  7.124E-06    0   0.5013   age213_m62            0.0000     4.7969E+00    17.2423  -1.0000    62.6892
 51      0.0000     0.0000E+00    0.0000E+00    1.000000E+06  0.05000  2.592E-02    0   0.9998   age020_m72            0.0000     2.4748E+00    12.9168   2.3236    83.5605
 52      0.0000     0.0000E+00    0.0000E+00    3.160000E+06  0.05000  4.845E-02    0   0.9577   age045_m72            0.0000     2.3927E+00    12.7918   2.1464    85.7949
 53      0.0000     0.0000E+00    0.0000E+00    5.010000E+06  0.05000  3.072E-02    0   0.9147   age055_m72            0.0000     2.7844E+00    13.7654   1.6275    90.6989
 54      0.0000     0.0000E+00    0.0000E+00    6.610000E+06  0.05000  1.455E-02    0   0.8877   age061_m72            0.0000     4.3597E+00    17.1785   0.8277    97.3786
 55      0.0000     0.0000E+00    0.0000E+00    1.000000E+07  0.05000  9.074E-03    0   0.8524   age070_m72            0.0000     2.9615E+00    14.1294   1.8051    90.6464
 56      0.0000     0.0000E+00    0.0000E+00    2.512000E+07  0.05000  4.250E-03    0   0.7902   age090_m72            0.0000     2.8802E+00    14.0211   1.4982    92.6116
 57      0.0000     0.0000E+00    0.0000E+00    4.000000E+07  0.05000  3.087E-03    0   0.7618   age104_m72            0.0000     2.9467E+00    14.1933   1.2647    94.3398
 58      0.0000     0.0000E+00    0.0000E+00    1.015200E+08  0.05000  1.700E-03    0   0.7096   age116_m72            0.0000     2.7385E+00    13.7257   1.0264    96.3216
 59      0.0000     0.0000E+00    0.0000E+00    2.861200E+08  0.05000  7.384E-04    0   0.6633   age125_m72            0.0000     2.6616E+00    13.4832   0.5309    99.8185
 60      0.0000     0.0000E+00    0.0000E+00    5.088000E+08  0.05000  3.819E-04    0   0.6372   age130_m72            0.0000     2.4940E+00    13.0956   0.0584   100.7979
 61     78.3331     9.9806E+01    9.9709E+01    9.047900E+08  0.05000  1.676E-04    0   0.6110   age135_m72            0.0000     2.3702E+00    12.8481  -0.6084    98.1067
 62      0.0000     0.0000E+00    0.0000E+00    1.434000E+09  0.05000  8.837E-05    0   0.5874   age139_m72            0.0000     2.3950E+00    12.8948  -1.0000    95.1352
 63      0.0000     0.0000E+00    0.0000E+00    2.500000E+09  0.05000  4.233E-05    0   0.5598   age150_m72            0.0000     2.8037E+00    13.6069  -1.0000    82.5032
 64      0.0000     0.0000E+00    0.0000E+00    6.250000E+09  0.05000  1.435E-05    0   0.5249   age166_m72            0.0000     4.2829E+00    16.4008  -1.0000    66.3444
 65      0.0000     0.0000E+00    0.0000E+00    1.300000E+10  0.05000  6.513E-06    0   0.5036   age193_m72            0.0000     5.5860E+00    18.5138  -1.0000    58.6748
 66      0.0000     0.0000E+00    0.0000E+00    1.800000E+10  0.05000  4.527E-06    0   0.4945   age213_m72            0.0000     6.4226E+00    19.7510  -1.0000    54.1799


## Synthesis Results - Average & Chains ##

# j      x_j: min, <> & last-chain-values for 1 ...  7 chains
  1      0.0000      0.0554      0.0000      0.0000      0.0000      0.0000      0.0000      0.0000      0.0000
  2      0.0000      0.2802      0.0000      0.0000      0.0000      0.0000      0.0000      0.0000      0.0000
  3      0.0000      0.1189      0.0000      0.0000      0.8644      0.0000      0.0000      0.0000      0.0000
  4      0.0000      0.1721      0.0000      0.0000      0.0000      0.0000      0.0000      0.6396      0.0000
  5      0.0000      0.4164      0.0000      0.0000      0.3002      0.0568      0.0000      0.0000      0.0000
  6      0.0000      0.0654      0.0000      0.0000      0.0000      0.0000      0.0000      0.0000      0.7163
  7      0.0000      0.1933      0.0000      0.0000      0.0000      0.0000      0.0000      0.0000      0.0000
  8      0.0000      0.2153      0.0000      0.0000      1.4859      0.2262      2.4873      0.0000      0.0000
  9      0.0000      0.1066      0.1440      0.0000      0.0000      0.0000      0.1630      0.0000      0.0000
 10      0.0000      0.3519      0.0000      0.0000      0.0000      0.0000      0.9880      0.0000      0.0424
 11      0.0000      0.1606      0.0000      0.0000      0.0000      0.0000      0.0000      0.0000      0.0000
 12      0.0000      0.3470      0.0000      0.0000      0.0000      0.0000      0.0000      0.0000      0.0000
 13      0.0000      0.3377      0.0000      0.0000      0.0000      2.1469      0.0000      0.0000      0.0000
 14      0.0000      0.2540      0.5067      0.0000      0.3665      1.1540      1.4578      0.0000      0.0000
 15      0.0000      0.0736      0.0000      0.0000      0.0186      0.0000      0.0000      0.0000      0.0000
 16      0.0000      0.0546      0.0000      0.0000      0.0000      0.3327      0.1962      0.0000      0.0000
 17      0.0000      0.0616      0.0000      0.0000      0.0000      0.0000      0.0000      0.0000      0.0000
 18      0.0000      0.0659      0.0000      0.0000      0.0000      0.0000      0.0000      0.0000      0.1976
 19      0.0000      0.1320      0.0000      0.0000      0.0000      0.0000      0.0951      0.0000      0.9960
 20      0.0000      0.1284      0.0000      0.0000      0.0000      0.0000      0.0000      0.0000      0.0000
 21     19.3979     30.1950     32.8679     32.3132     28.6077     29.7256     29.7417     31.4884     31.8971
 22      0.0000      0.0926      0.0000      0.3439      0.0000      0.0000      0.0000      0.0000      0.0000
 23      0.0000      0.1647      0.0000      0.0000      0.0000      0.0000      0.0790      0.0000      0.0000
 24      0.0000      0.1276      0.0000      0.0000      0.0000      0.0808      0.0000      0.0000      0.0000
 25      0.0000      0.2273      0.0000      0.0000      0.0000      0.0000      0.0000      0.0000      0.3648
 26      0.0000      0.1559      0.0000      0.0000      0.0000      0.0000      0.0000      0.0381      0.0000
 27      0.0000      0.2643      0.0000      0.0000      0.1680      0.0000      0.0000      0.0000      0.0000
 28      0.0000      0.2120      0.0000      0.1898      0.0000      0.4264      0.0000      0.0000      0.3329
 29      0.0000      0.0707      0.0000      0.0000      0.0000      0.0000      0.0000      0.0000      0.3441
 30      0.0000      0.1297      0.0000      0.0000      0.0000      0.0000      0.3210      0.1371      0.1214
 31      0.0000      0.0882      0.0000      0.0000      0.0000      0.8267      0.0000      0.0000      0.0000
 32      0.0000      0.0351      0.0000      0.0000      0.0000      0.0000      0.0000      0.0000      0.0000
 33      0.0000      0.0092      0.0000      0.0000      0.0000      0.0000      0.0000      0.0000      0.0000
 34      0.0000      0.0222      0.0000      0.0000      0.0000      0.0000      0.0000      0.0000      0.0000
 35      0.0000      0.0741      0.0000      0.0000      0.0175      0.0000      0.0564      0.0000      0.0000
 36      0.0000      0.0969      0.0000      0.0000      0.0000      0.0000      0.0000      0.0000      0.0000
 37      0.0000      0.1638      0.0000      0.0000      0.9479      0.0000      0.0000      0.0000      0.0000
 38      0.0000      0.0609      0.0000      0.0000      0.0000      0.0000      0.0000      0.0000      0.0000
 39      0.0000      0.0673      0.0000      0.0000      0.0000      0.0000      0.0000      0.0000      0.0000
 40      0.0000      0.1172      0.0000      0.0000      0.0000      0.0000      0.0000      0.0000      0.0000
 41      0.0000      0.1700      0.9610      0.0000      0.0000      0.0000      0.0000      0.0000      0.0000
 42      0.0000      0.1286      1.6895      0.0000      0.0000      0.0000      0.0000      0.0000      0.0000
 43      0.0000      0.1627      0.0000      0.0000      0.0000      0.0000      0.0000      0.0000      0.0000
 44      0.0000      0.3368      0.0000      0.0000      0.0000      2.4797      0.0000      0.0000      0.0000
 45      0.0000      1.9528      0.0000      4.4818      0.0000      0.0000      4.3035      1.5782      1.5872
 46      0.0000      0.4951      0.0000      1.4253      0.0000      0.0000      0.7677      0.0000      3.5243
