###################################################################
## OUTPUT of StarlightChains_v04.for    [Cid@UFSC - 01/Apr/2007] ##
###################################################################

## Some input info
2006eu.txt                               [arq_obs]
Base.CB07.vall.4m                        [arq_base]
Masks.EmLines.NEW.gm                     [arq_masks]
StCv04.C11.config                        [arq_config]
   66                                    [N_base]
    0                                    [N_YAV_components = # of components with extra extinction!]
    0                                    [i_FitPowerLaw (1/0 = Yes/No)]
-9.99                                    [alpha_PowerLaw]
CCM                                      [red_law_option]
 1.458241                                [q_norm = A(l_norm)/A(V)]

## (Re)Sampling Parameters
 3741.00                                 [l_ini (A)]
 7218.00                                 [l_fin (A)]
    1.00                                 [dl    (A)]     (OBS: dl_cushion =    50.00 A)

## Normalization info
 4020.00                                 [l_norm (A) - for base]
 4010.00                                 [llow_norm (A) - window for f_obs]
 4060.00                                 [lupp_norm (A) - window for f_obs]
6.538193E-18                             [fobs_norm (in input units)]

## S/N
 3691.00                                 [llow_SN (A) - window for S/N]
 7268.00                                 [lupp_SN (A) - window for S/N]
   3.874                                 [S/N in S/N window]
   2.463                                 [S/N in norm. window]
   5.839                                 [S/N_err in S/N window]
   3.713                                 [S/N_err in norm. window]
  1.0000                                 [fscale_chi2]

## etc...
    -2007320                             [idum_orig]
  2282                                   [NOl_eff]
  2282                                   [Nl_eff]
     0    NSIGMA                         [Ntot_cliped & clip_method]
   890190                                [Nglobal_steps]
   7                                     [N_chains]
  18                                     [NEX0s_base = N_base in EX0s-fits]
 0   0   1       28   2.0   6.515E+00    [Clip-Bug, RC-Crash & Burn-In warning-flags, n_censored_weights, wei_nsig_threshold & wei_limit]
    10     10.086      9.580      0.506  [idt_all, wdt_TotTime, wdt_UsrTime & wdt_SysTime (sec)]

## Synthesis Results - Best model ##

 3.38937E-01                             [chi2/Nl_eff]
    10.18038                             [adev (%)]

   114.25710                             [sum-of-x (%)]
 1.31255E-17                             [Flux_tot (units of input spectrum!)]
 5.82780E-13                             [Mini_tot (???)]
 3.06341E-13                             [Mcor_tot (???)]

-194.81                                  [v0_min  (km/s)]
 301.85                                  [vd_min  (km/s)]
 0.4196                                  [AV_min  (mag)]
 0.0000                                  [YAV_min (mag)]

# j     x_j(%)      Mini_j(%)     Mcor_j(%)     age_j(yr)     Z_j      (L/M)_j    YAV?  Mstars   component_j        a/Fe...       SSP_chi2r SSP_adev(%)   SSP_AV   SSP_x(%)
  1      0.0000     0.0000E+00    0.0000E+00    1.000000E+06  0.00400  1.094E-02    0   1.0000   age020_m42            0.0000     4.9760E-01    14.3467   4.0000   102.7546
  2      0.0000     0.0000E+00    0.0000E+00    3.160000E+06  0.00400  4.007E-02    0   0.9999   age045_m42            0.0000     4.9029E-01    13.8657   3.2860   109.2142
  3      0.0000     0.0000E+00    0.0000E+00    5.010000E+06  0.00400  2.539E-02    0   0.9488   age055_m42            0.0000     4.8996E-01    14.0509   3.5994   106.8710
  4      8.2829     6.2317E-03    1.0931E-02    6.610000E+06  0.00400  2.620E-02    0   0.9220   age061_m42            0.0000     4.8946E-01    13.9186   3.2011   110.0418
  5      0.0000     0.0000E+00    0.0000E+00    1.000000E+07  0.00400  1.322E-02    0   0.8862   age070_m42            0.0000     5.1958E-01    14.9105   2.8485   116.1155
  6      0.0000     0.0000E+00    0.0000E+00    1.445000E+07  0.00400  7.883E-03    0   0.8571   age078_m42            0.0000     5.1789E-01    14.9176   3.1840   112.7587
  7      0.0000     0.0000E+00    0.0000E+00    2.512000E+07  0.00400  5.251E-03    0   0.8174   age090_m42            0.0000     5.2861E-01    15.0988   2.7050   117.5064
  8      0.0000     0.0000E+00    0.0000E+00    4.000000E+07  0.00400  3.649E-03    0   0.7851   age104_m42            0.0000     5.1849E-01    14.8320   2.4834   118.1477
  9      0.0000     0.0000E+00    0.0000E+00    5.500000E+07  0.00400  3.098E-03    0   0.7629   age110_m42            0.0000     5.0433E-01    14.2965   2.6689   116.4348
 10      3.4267     3.0317E-02    4.1566E-02    1.015200E+08  0.00400  2.228E-03    0   0.7207   age116_m42            0.0000     4.9425E-01    13.9706   2.7110   115.5122
 11      0.0000     0.0000E+00    0.0000E+00    2.861200E+08  0.00400  1.093E-03    0   0.6648   age125_m42            0.0000     5.1731E-01    14.2794   2.1212   120.2475
 12      0.0000     0.0000E+00    0.0000E+00    5.088000E+08  0.00400  6.597E-04    0   0.6365   age130_m42            0.0000     4.8498E-01    13.5301   2.1441   119.4270
 13      0.0000     0.0000E+00    0.0000E+00    1.434000E+09  0.00400  2.132E-04    0   0.5798   age139_m42            0.0000     4.1041E-01    12.2601   1.1848   121.0896
 14      0.0113     3.7638E-03    3.8500E-03    4.250000E+09  0.00400  5.895E-05    0   0.5377   age158_m42            0.0000     3.7091E-01    11.3199   0.7915   113.8708
 15      0.0000     0.0000E+00    0.0000E+00    7.500000E+09  0.00400  3.510E-05    0   0.5212   age171_m42            0.0000     3.6244E-01    10.9411   0.6247   112.0669
 16      0.0004     4.2862E-04    4.1048E-04    1.300000E+10  0.00400  2.005E-05    0   0.5034   age193_m42            0.0000     3.6075E-01    10.7373   0.4790   110.5271
 17      0.0000     0.0000E+00    0.0000E+00    1.800000E+10  0.00400  1.525E-05    0   0.4967   age213_m42            0.0000     3.5907E-01    10.7814   0.4522   110.2232
 18      0.0000     0.0000E+00    0.0000E+00    1.000000E+06  0.00800  1.238E-02    0   1.0000   age020_m52            0.0000     4.9679E-01    14.3285   4.0000   102.7811
 19      0.0000     0.0000E+00    0.0000E+00    3.160000E+06  0.00800  3.074E-02    0   0.9966   age045_m52            0.0000     4.9183E-01    14.2241   3.9306   103.3407
 20      6.9313     5.1210E-03    9.1995E-03    5.010000E+06  0.00800  2.668E-02    0   0.9443   age055_m52            0.0000     4.8597E-01    14.1159   3.6777   106.1145
 21      0.0000     0.0000E+00    0.0000E+00    6.610000E+06  0.00800  2.136E-02    0   0.9177   age061_m52            0.0000     4.8097E-01    14.3966   2.3519   117.1590
 22      0.0000     0.0000E+00    0.0000E+00    1.000000E+07  0.00800  1.215E-02    0   0.8827   age070_m52            0.0000     5.3093E-01    15.3100   3.0108   116.8639
 23      0.0000     0.0000E+00    0.0000E+00    1.445000E+07  0.00800  8.717E-03    0   0.8552   age078_m52            0.0000     5.1213E-01    14.8811   3.1456   114.5180
 24      0.0000     0.0000E+00    0.0000E+00    2.512000E+07  0.00800  5.592E-03    0   0.8162   age090_m52            0.0000     5.2389E-01    15.0762   2.7671   119.0740
 25      0.0000     0.0000E+00    0.0000E+00    4.000000E+07  0.00800  3.896E-03    0   0.7841   age104_m52            0.0000     5.1753E-01    14.7546   2.6940   119.2050
 26      0.0000     0.0000E+00    0.0000E+00    1.015200E+08  0.00800  2.148E-03    0   0.7226   age116_m52            0.0000     4.9665E-01    14.1774   2.6630   117.3120
 27      0.0000     0.0000E+00    0.0000E+00    2.861200E+08  0.00800  9.925E-04    0   0.6683   age125_m52            0.0000     4.7696E-01    13.4858   2.2062   120.7101
 28      0.0000     0.0000E+00    0.0000E+00    9.047900E+08  0.00800  3.141E-04    0   0.6138   age135_m52            0.0000     4.1943E-01    11.9782   1.4547   123.0833
 29      0.0000     0.0000E+00    0.0000E+00    1.434000E+09  0.00800  1.719E-04    0   0.5853   age139_m52            0.0000     3.8676E-01    11.5530   0.8810   120.2654
 30      0.0000     0.0000E+00    0.0000E+00    2.500000E+09  0.00800  7.872E-05    0   0.5600   age150_m52            0.0000     3.5866E-01    10.7418   0.6594   114.4525
 31      0.0000     0.0000E+00    0.0000E+00    4.250000E+09  0.00800  4.336E-05    0   0.5426   age158_m52            0.0000     3.6088E-01    10.7399   0.6456   113.2768
 32      0.0000     0.0000E+00    0.0000E+00    6.250000E+09  0.00800  3.159E-05    0   0.5319   age166_m52            0.0000     3.5452E-01    10.4107   0.4726   111.8214
 33      0.0000     0.0000E+00    0.0000E+00    1.300000E+10  0.00800  1.361E-05    0   0.5073   age193_m52            0.0000     3.4688E-01    10.0036   0.0401   109.3485
 34      0.0000     0.0000E+00    0.0000E+00    1.800000E+10  0.00800  9.886E-06    0   0.4990   age213_m52            0.0000     3.5305E-01     9.9153  -0.0350   107.2404
 35      0.0000     0.0000E+00    0.0000E+00    1.000000E+06  0.02000  1.544E-02    0   1.0000   age020_m62            0.0000     4.9708E-01    14.3366   4.0000   102.8317
 36      0.0000     0.0000E+00    0.0000E+00    3.160000E+06  0.02000  3.762E-02    0   0.9858   age045_m62            0.0000     4.9424E-01    14.2842   3.9424   103.5703
 37      0.0000     0.0000E+00    0.0000E+00    5.010000E+06  0.02000  3.296E-02    0   0.9342   age055_m62            0.0000     4.8248E-01    13.8658   3.5669   107.8203
 38      0.0000     0.0000E+00    0.0000E+00    8.710000E+06  0.02000  1.154E-02    0   0.8861   age067_m62            0.0000     6.9039E-01    18.5061   2.3364   127.5965
 39      0.0000     0.0000E+00    0.0000E+00    1.445000E+07  0.02000  7.663E-03    0   0.8472   age078_m62            0.0000     5.6590E-01    16.0199   2.6215   121.6556
 40      0.0000     0.0000E+00    0.0000E+00    2.512000E+07  0.02000  4.532E-03    0   0.8099   age090_m62            0.0000     5.8105E-01    16.1954   2.6077   121.7294
 41      0.0000     0.0000E+00    0.0000E+00    5.500000E+07  0.02000  2.733E-03    0   0.7595   age110_m62            0.0000     5.0953E-01    14.7136   2.6762   118.3552
 42      0.0000     0.0000E+00    0.0000E+00    1.609000E+08  0.02000  1.369E-03    0   0.6985   age120_m62            0.0000     4.9222E-01    13.9901   2.5520   119.5395
 43      0.0000     0.0000E+00    0.0000E+00    2.861200E+08  0.02000  9.013E-04    0   0.6714   age125_m62            0.0000     4.7724E-01    13.4989   2.3177   122.0317
 44      0.0000     0.0000E+00    0.0000E+00    5.088000E+08  0.02000  5.028E-04    0   0.6449   age130_m62            0.0000     4.4302E-01    12.4370   1.9897   122.4662
 45      0.0000     0.0000E+00    0.0000E+00    9.047900E+08  0.02000  2.428E-04    0   0.6179   age135_m62            0.0000     3.9137E-01    11.4521   1.4301   120.3280
 46      0.0000     0.0000E+00    0.0000E+00    1.434000E+09  0.02000  1.263E-04    0   0.5908   age139_m62            0.0000     3.6699E-01    10.9980   0.9976   117.9063
 47      0.0000     0.0000E+00    0.0000E+00    2.500000E+09  0.02000  5.985E-05    0   0.5673   age150_m62            0.0000     3.5370E-01    10.4941   0.6724   114.1499
 48      0.0000     0.0000E+00    0.0000E+00    4.250000E+09  0.02000  3.271E-05    0   0.5468   age158_m62            0.0000     3.4628E-01    10.0097   0.4101   111.0433
 49      0.0495     7.1681E-02    7.0460E-02    1.000000E+10  0.02000  1.360E-05    0   0.5167   age181_m62            0.0000     3.5697E-01     9.9827   0.1120   108.1756
 50      0.0000     0.0000E+00    0.0000E+00    1.800000E+10  0.02000  7.124E-06    0   0.5013   age213_m62            0.0000     3.7441E-01    10.3055  -0.0535   105.2537
 51      0.0000     0.0000E+00    0.0000E+00    1.000000E+06  0.05000  2.592E-02    0   0.9998   age020_m72            0.0000     4.9938E-01    14.4469   3.9904   102.9048
 52      0.0000     0.0000E+00    0.0000E+00    3.160000E+06  0.05000  4.845E-02    0   0.9577   age045_m72            0.0000     4.8618E-01    14.0380   3.8315   104.6747
 53      0.0000     0.0000E+00    0.0000E+00    5.010000E+06  0.05000  3.072E-02    0   0.9147   age055_m72            0.0000     5.3682E-01    15.3079   3.2682   113.9832
 54      0.0000     0.0000E+00    0.0000E+00    6.610000E+06  0.05000  1.455E-02    0   0.8877   age061_m72            0.0000     9.1808E-01    20.7763   2.3739   130.4478
 55      0.0000     0.0000E+00    0.0000E+00    1.000000E+07  0.05000  9.074E-03    0   0.8524   age070_m72            0.0000     5.7682E-01    15.4642   3.4834   112.5673
 56      0.0000     0.0000E+00    0.0000E+00    2.512000E+07  0.05000  4.250E-03    0   0.7902   age090_m72            0.0000     5.6183E-01    15.3414   3.1544   115.8294
 57      1.2199     7.7893E-03    1.1289E-02    4.000000E+07  0.05000  3.087E-03    0   0.7618   age104_m72            0.0000     5.7494E-01    15.5249   2.9120   118.5492
 58      1.4276     1.6553E-02    2.2346E-02    1.015200E+08  0.05000  1.700E-03    0   0.7096   age116_m72            0.0000     5.1313E-01    14.4456   2.6771   120.1171
 59      0.0000     0.0000E+00    0.0000E+00    2.861200E+08  0.05000  7.384E-04    0   0.6633   age125_m72            0.0000     4.5629E-01    12.9489   2.2099   122.3510
 60      0.0000     0.0000E+00    0.0000E+00    5.088000E+08  0.05000  3.819E-04    0   0.6372   age130_m72            0.0000     4.0051E-01    11.7842   1.7585   122.0134
 61      0.0095     1.1169E-03    1.2982E-03    9.047900E+08  0.05000  1.676E-04    0   0.6110   age135_m72            0.0000     3.6123E-01    10.7144   1.1236   116.5724
 62      0.0000     0.0000E+00    0.0000E+00    1.434000E+09  0.05000  8.837E-05    0   0.5874   age139_m72            0.0000     3.4762E-01    10.4338   0.6783   115.5404
 63     51.2362     2.3859E+01    2.5409E+01    2.500000E+09  0.05000  4.233E-05    0   0.5598   age150_m72            0.0000     3.4700E-01     9.9721   0.4251   111.2344
 64     32.3139     4.4388E+01    4.4324E+01    6.250000E+09  0.05000  1.435E-05    0   0.5249   age166_m72            0.0000     3.5892E-01    10.0601   0.0308   107.0065
 65      6.8496     2.0730E+01    1.9861E+01    1.300000E+10  0.05000  6.513E-06    0   0.5036   age193_m72            0.0000     3.8674E-01    10.5769  -0.1919   105.3235
 66      2.4985     1.0879E+01    1.0235E+01    1.800000E+10  0.05000  4.527E-06    0   0.4945   age213_m72            0.0000     4.0815E-01    10.9883  -0.3159   103.4294


## Synthesis Results - Average & Chains ##

# j      x_j: min, <> & last-chain-values for 1 ...  7 chains
  1      0.0000      0.2445      0.0000      0.0000      0.0000      0.0000      0.0000      0.0000      1.4128
  2      0.0000      0.5037      0.0000      1.3326      0.0000      0.0000      0.0000      0.0000      0.0000
  3      0.0000      0.1603      0.0000      0.0000      0.0000      0.4773      0.0000      0.0000      0.0000
  4      8.2829      0.2021      1.2724      0.0000      4.0653      0.0000      0.0000      0.0000      0.0000
  5      0.0000      0.2576      0.0000      0.0000      0.0000      0.0000      0.0000      0.0000      2.5364
  6      0.0000      0.4262      0.0000      0.0000      0.0000      0.0000      0.0000      0.0000      0.0000
  7      0.0000      0.1845      0.0000      0.0000      0.0000      0.0000      0.0000      0.0000      0.7813
  8      0.0000      0.2784      0.0000      2.6308      0.7289      0.0000      0.0000      0.0000      0.0000
  9      0.0000      0.1973      0.5128      0.0000      0.0000      0.8150      0.0000      0.0000      0.0000
 10      3.4267      0.1218      0.0000      0.0000      1.4781      0.0000      0.0000      0.0000      0.0000
 11      0.0000      0.1293      0.0000      0.0000      0.0000      0.0000      0.0000      0.0000      0.0000
 12      0.0000      0.3530      0.0000      0.0000      0.0000      0.0000      0.0000      0.0000      0.0000
 13      0.0000      1.3748      0.0000      0.0000      0.0000      0.0000     10.5315      2.9103      0.2707
 14      0.0113      3.7371      0.0000      0.0000      7.1132      0.0000      0.0000      0.0000      8.8254
 15      0.0000      3.7789      0.0000      0.0000      0.0000      0.5899      1.8204      0.3571      1.4029
 16      0.0004      2.9660      0.8749      0.0000      0.7631      0.0000      1.0874      0.5052      0.0000
 17      0.0000      2.9543      0.0000      0.0000      0.0000      0.0000      0.0000      1.6509      0.0000
 18      0.0000      0.1344      0.0000      0.0000      0.0000      0.0000      0.0000      0.0000      0.0000
 19      0.0000      0.1697      1.5044      0.0000      0.0000      2.5042      1.5068      0.2654      0.0000
 20      6.9313      0.1211      0.0000      0.0000      0.9662      2.3645      0.0000      0.0000      0.0000
 21      0.0000      0.3231      0.0000      0.0000      0.0000      0.0000      1.5256      0.0000      0.0000
 22      0.0000      0.0919      0.0000      0.0000      0.0000      0.0000      0.0000      0.0000      0.0000
 23      0.0000      0.2392      2.8306      0.0000      0.0000      1.2589      0.0555      1.9530      0.0000
 24      0.0000      0.3341      2.4616      0.6012      0.0000      0.0000      0.0000      0.0000      0.0000
 25      0.0000      0.6357      0.0000      1.8892      0.0000      0.0000      1.1227      1.3985      0.0000
 26      0.0000      0.1718      0.0000      0.0000      0.0000      0.0000      0.0000      0.0000      0.0000
 27      0.0000      0.9496      4.3095      0.0000      0.0000      3.4820      0.0000      0.0000      4.2498
 28      0.0000      1.1540      0.0000      0.0000      0.3956      0.0000      0.0000      3.1439      1.5113
 29      0.0000      1.3553      0.0000      3.4750      2.8640      0.0000      4.6782      2.5907      0.0000
 30      0.0000      4.6178      0.0000      0.0000      0.0000      0.0000      0.0000      0.2808      6.1718
 31      0.0000      2.8967      0.0000      0.0000      0.0000      0.0000      0.0000      0.0000      1.8979
 32      0.0000      3.9972      4.5709      0.9191      0.0000      8.3372      0.0000      0.0000      0.0000
 33      0.0000      1.0512      0.0000      0.0000      0.0000      0.9546      0.0000      5.2570      0.5095
 34      0.0000      0.6582      4.2294      0.0000      4.3169      2.1556      0.7373      1.1503      2.0589
 35      0.0000      0.1594      0.0000      0.0000      0.0000      0.0000      0.0000      0.0000      0.0000
 36      0.0000      0.4767      0.0000      3.2837      0.0000      0.0000      0.0000      2.2150      1.5034
 37      0.0000      0.1013      0.0000      0.0000      0.0000      0.0000      0.0000      0.0000      0.0000
 38      0.0000      0.1513      0.8122      2.0918      0.0000      0.0000      0.0000      0.0000      0.0000
 39      0.0000      0.3762      0.0000      1.2639      0.0000      0.0000      0.1891      1.0022      2.0162
 40      0.0000      0.2395      0.0000      0.0000      0.0000      0.0000      0.7538      0.0000      0.0000
 41      0.0000      0.1802      0.0000      0.0000      0.0000      2.3827      0.0000      0.0000      0.0000
 42      0.0000      0.5189      0.0000      1.9183      0.7007      2.1784      0.0000      0.0000      0.0000
 43      0.0000      0.1971      0.0000      0.0000      0.0000      0.0000      0.0000      0.0000      0.0000
 44      0.0000      0.3781      3.0038      0.8821      0.0000      0.0000      0.2289      2.1466      0.0000
 45      0.0000      0.9803      0.0000      0.7422      2.6125      0.0000      5.3955      0.0000      0.0000
 46      0.0000      1.1606      0.0000      0.0000      0.0000      3.8335      3.5225      0.0000      0.0000
