###################################################################
## OUTPUT of StarlightChains_v04.for    [Cid@UFSC - 01/Apr/2007] ##
###################################################################

## Some input info
2006be.txt                               [arq_obs]
Base.CB07.vall.4m                        [arq_base]
Masks.EmLines.NEW.gm                     [arq_masks]
StCv04.C11.config                        [arq_config]
   66                                    [N_base]
    0                                    [N_YAV_components = # of components with extra extinction!]
    0                                    [i_FitPowerLaw (1/0 = Yes/No)]
-9.99                                    [alpha_PowerLaw]
CCM                                      [red_law_option]
 1.458241                                [q_norm = A(l_norm)/A(V)]

## (Re)Sampling Parameters
 3741.00                                 [l_ini (A)]
 7218.00                                 [l_fin (A)]
    1.00                                 [dl    (A)]     (OBS: dl_cushion =    50.00 A)

## Normalization info
 4020.00                                 [l_norm (A) - for base]
 4010.00                                 [llow_norm (A) - window for f_obs]
 4060.00                                 [lupp_norm (A) - window for f_obs]
4.229104E-16                             [fobs_norm (in input units)]

## S/N
 3691.00                                 [llow_SN (A) - window for S/N]
 7268.00                                 [lupp_SN (A) - window for S/N]
  10.141                                 [S/N in S/N window]
  12.558                                 [S/N in norm. window]
  14.902                                 [S/N_err in S/N window]
  18.455                                 [S/N_err in norm. window]
  1.0000                                 [fscale_chi2]

## etc...
    -2007313                             [idum_orig]
  2389                                   [NOl_eff]
  2389                                   [Nl_eff]
     0    NSIGMA                         [Ntot_cliped & clip_method]
  2057230                                [Nglobal_steps]
   7                                     [N_chains]
  34                                     [NEX0s_base = N_base in EX0s-fits]
 0   0   1        0   2.0   3.400E+01    [Clip-Bug, RC-Crash & Burn-In warning-flags, n_censored_weights, wei_nsig_threshold & wei_limit]
    16     16.317     15.823      0.493  [idt_all, wdt_TotTime, wdt_UsrTime & wdt_SysTime (sec)]

## Synthesis Results - Best model ##

 1.83024E-01                             [chi2/Nl_eff]
     2.23510                             [adev (%)]

    97.94642                             [sum-of-x (%)]
 8.67348E-16                             [Flux_tot (units of input spectrum!)]
 6.53983E-12                             [Mini_tot (???)]
 3.47988E-12                             [Mcor_tot (???)]

 -15.13                                  [v0_min  (km/s)]
 177.85                                  [vd_min  (km/s)]
 0.5502                                  [AV_min  (mag)]
 0.0000                                  [YAV_min (mag)]

# j     x_j(%)      Mini_j(%)     Mcor_j(%)     age_j(yr)     Z_j      (L/M)_j    YAV?  Mstars   component_j        a/Fe...       SSP_chi2r SSP_adev(%)   SSP_AV   SSP_x(%)
  1      6.2095     7.6856E-02    1.4444E-01    1.000000E+06  0.00400  1.094E-02    0   1.0000   age020_m42            0.0000     1.0189E+00     5.6967   2.7931    80.2900
  2      0.0000     0.0000E+00    0.0000E+00    3.160000E+06  0.00400  4.007E-02    0   0.9999   age045_m42            0.0000     7.9115E-01     4.8171   2.0450    86.8532
  3      0.0000     0.0000E+00    0.0000E+00    5.010000E+06  0.00400  2.539E-02    0   0.9488   age055_m42            0.0000     8.3617E-01     5.0231   2.3702    84.4586
  4      0.0000     0.0000E+00    0.0000E+00    6.610000E+06  0.00400  2.620E-02    0   0.9220   age061_m42            0.0000     7.3065E-01     4.5954   1.9631    87.4145
  5      0.0000     0.0000E+00    0.0000E+00    1.000000E+07  0.00400  1.322E-02    0   0.8862   age070_m42            0.0000     3.8762E-01     3.2542   1.6357    91.3117
  6      0.0000     0.0000E+00    0.0000E+00    1.445000E+07  0.00400  7.883E-03    0   0.8571   age078_m42            0.0000     4.7136E-01     3.6294   1.9755    88.4129
  7      0.0000     0.0000E+00    0.0000E+00    2.512000E+07  0.00400  5.251E-03    0   0.8174   age090_m42            0.0000     3.4829E-01     3.0585   1.4950    92.3212
  8      0.0145     5.3815E-04    7.9401E-04    4.000000E+07  0.00400  3.649E-03    0   0.7851   age104_m42            0.0000     3.3641E-01     3.0098   1.2684    93.0770
  9      0.0000     0.0000E+00    0.0000E+00    5.500000E+07  0.00400  3.098E-03    0   0.7629   age110_m42            0.0000     4.7085E-01     3.5373   1.4389    92.3261
 10      0.0000     0.0000E+00    0.0000E+00    1.015200E+08  0.00400  2.228E-03    0   0.7207   age116_m42            0.0000     6.0049E-01     3.9668   1.4694    92.0472
 11      0.0011     1.3470E-04    1.6829E-04    2.861200E+08  0.00400  1.093E-03    0   0.6648   age125_m42            0.0000     5.2539E-01     3.5186   0.8770    95.9480
 12      0.0000     0.0000E+00    0.0000E+00    5.088000E+08  0.00400  6.597E-04    0   0.6365   age130_m42            0.0000     7.0808E-01     4.0446   0.8870    95.8288
 13      5.4171     3.4405E+00    3.7488E+00    1.434000E+09  0.00400  2.132E-04    0   0.5798   age139_m42            0.0000     6.7329E-01     4.0896  -0.0770    97.4066
 14      0.2667     6.1264E-01    6.1908E-01    4.250000E+09  0.00400  5.895E-05    0   0.5377   age158_m42            0.0000     9.2295E-01     5.2451  -0.4707    91.5304
 15      0.0000     0.0000E+00    0.0000E+00    7.500000E+09  0.00400  3.510E-05    0   0.5212   age171_m42            0.0000     1.1226E+00     5.8080  -0.6401    90.1462
 16      3.0103     2.0330E+01    1.9233E+01    1.300000E+10  0.00400  2.005E-05    0   0.5034   age193_m42            0.0000     1.3309E+00     6.3319  -0.7879    88.9492
 17      0.0000     0.0000E+00    0.0000E+00    1.800000E+10  0.00400  1.525E-05    0   0.4967   age213_m42            0.0000     1.2863E+00     6.2405  -0.8146    88.6970
 18      2.9195     3.1932E-02    6.0011E-02    1.000000E+06  0.00800  1.238E-02    0   1.0000   age020_m52            0.0000     1.0188E+00     5.7015   2.7895    80.4432
 19      0.0000     0.0000E+00    0.0000E+00    3.160000E+06  0.00800  3.074E-02    0   0.9966   age045_m52            0.0000     1.0035E+00     5.6508   2.7118    81.2008
 20      0.0000     0.0000E+00    0.0000E+00    5.010000E+06  0.00800  2.668E-02    0   0.9443   age055_m52            0.0000     8.3333E-01     5.0707   2.4538    83.6485
 21      0.0000     0.0000E+00    0.0000E+00    6.610000E+06  0.00800  2.136E-02    0   0.9177   age061_m52            0.0000     3.3027E-01     3.1302   1.1447    91.9330
 22      0.0033     3.6731E-05    6.0932E-05    1.000000E+07  0.00800  1.215E-02    0   0.8827   age070_m52            0.0000     3.5394E-01     3.1072   1.8070    91.4637
 23      0.0009     1.3903E-05    2.2345E-05    1.445000E+07  0.00800  8.717E-03    0   0.8552   age078_m52            0.0000     4.2380E-01     3.4466   1.9358    89.8725
 24      2.4475     5.9265E-02    9.0907E-02    2.512000E+07  0.00800  5.592E-03    0   0.8162   age090_m52            0.0000     3.1594E-01     2.9109   1.5543    93.6393
 25      0.0108     3.7454E-04    5.5192E-04    4.000000E+07  0.00800  3.896E-03    0   0.7841   age104_m52            0.0000     3.4252E-01     3.0210   1.4722    94.1477
 26      0.0000     0.0000E+00    0.0000E+00    1.015200E+08  0.00800  2.148E-03    0   0.7226   age116_m52            0.0000     4.7369E-01     3.4864   1.4273    93.2422
 27      0.9491     1.2949E-01    1.6263E-01    2.861200E+08  0.00800  9.925E-04    0   0.6683   age125_m52            0.0000     6.7204E-01     3.8805   0.9491    96.8821
 28      3.2936     1.4199E+00    1.6378E+00    9.047900E+08  0.00800  3.141E-04    0   0.6138   age135_m52            0.0000     9.2298E-01     4.7858   0.1791    99.6073
 29      0.0000     0.0000E+00    0.0000E+00    1.434000E+09  0.00800  1.719E-04    0   0.5853   age139_m52            0.0000     8.6786E-01     4.9031  -0.3913    97.0824
 30      1.3329     2.2928E+00    2.4130E+00    2.500000E+09  0.00800  7.872E-05    0   0.5600   age150_m52            0.0000     1.2488E+00     6.1014  -0.6142    92.4503
 31      0.0000     0.0000E+00    0.0000E+00    4.250000E+09  0.00800  4.336E-05    0   0.5426   age158_m52            0.0000     1.2864E+00     6.1837  -0.6245    91.3688
 32      3.6899     1.5816E+01    1.5810E+01    6.250000E+09  0.00800  3.159E-05    0   0.5319   age166_m52            0.0000     1.6398E+00     7.0036  -0.8027    90.3627
 33      0.0000     0.0000E+00    0.0000E+00    1.300000E+10  0.00800  1.361E-05    0   0.5073   age193_m52            0.0000     2.5318E+00     8.6065  -1.0000    79.6979
 34      2.4399     3.3418E+01    3.1339E+01    1.800000E+10  0.00800  9.886E-06    0   0.4990   age213_m52            0.0000     3.2292E+00     9.7060  -1.0000    75.5391
 35      4.4213     3.8774E-02    7.2870E-02    1.000000E+06  0.02000  1.544E-02    0   1.0000   age020_m62            0.0000     1.0277E+00     5.7337   2.7863    80.5946
 36      4.0095     1.4431E-02    2.6736E-02    3.160000E+06  0.02000  3.762E-02    0   0.9858   age045_m62            0.0000     1.0332E+00     5.7539   2.7251    81.3131
 37      0.0000     0.0000E+00    0.0000E+00    5.010000E+06  0.02000  3.296E-02    0   0.9342   age055_m62            0.0000     8.4114E-01     5.0507   2.3304    85.5136
 38     27.1370     3.1842E-01    5.3025E-01    8.710000E+06  0.02000  1.154E-02    0   0.8861   age067_m62            0.0000     7.0774E-01     4.2743   1.1890    97.3512
 39      0.0011     1.8796E-05    2.9926E-05    1.445000E+07  0.02000  7.663E-03    0   0.8472   age078_m62            0.0000     3.1975E-01     2.9286   1.4287    94.7434
 40      0.0000     0.0000E+00    0.0000E+00    2.512000E+07  0.02000  4.532E-03    0   0.8099   age090_m62            0.0000     3.5204E-01     3.0344   1.4137    94.8451
 41      0.0000     0.0000E+00    0.0000E+00    5.500000E+07  0.02000  2.733E-03    0   0.7595   age110_m62            0.0000     3.4263E-01     3.0081   1.4566    93.3739
 42      0.0000     0.0000E+00    0.0000E+00    1.609000E+08  0.02000  1.369E-03    0   0.6985   age120_m62            0.0000     5.7923E-01     3.6868   1.3082    95.4006
 43      0.0000     0.0000E+00    0.0000E+00    2.861200E+08  0.02000  9.013E-04    0   0.6714   age125_m62            0.0000     7.8180E-01     4.1225   1.0628    97.9279
 44      8.1045     2.1826E+00    2.6452E+00    5.088000E+08  0.02000  5.028E-04    0   0.6449   age130_m62            0.0000     1.0904E+00     5.1099   0.7167    99.0749
 45      0.0054     2.9883E-03    3.4701E-03    9.047900E+08  0.02000  2.428E-04    0   0.6179   age135_m62            0.0000     1.0925E+00     5.4081   0.1543    97.3971
 46      0.6638     7.1169E-01    7.9020E-01    1.434000E+09  0.02000  1.263E-04    0   0.5908   age139_m62            0.0000     1.1885E+00     5.8298  -0.2743    95.2482
 47      0.5893     1.3333E+00    1.4215E+00    2.500000E+09  0.02000  5.985E-05    0   0.5673   age150_m62            0.0000     1.6129E+00     6.9644  -0.6025    92.2860
 48      0.7760     3.2124E+00    3.3012E+00    4.250000E+09  0.02000  3.271E-05    0   0.5468   age158_m62            0.0000     2.2131E+00     8.2963  -0.8692    89.8925
 49      0.0000     0.0000E+00    0.0000E+00    1.000000E+10  0.02000  1.360E-05    0   0.5167   age181_m62            0.0000     3.1872E+00     9.7965  -1.0000    81.3772
 50      0.0000     0.0000E+00    0.0000E+00    1.800000E+10  0.02000  7.124E-06    0   0.5013   age213_m62            0.0000     4.3153E+00    11.2765  -1.0000    73.4869
 51      3.3846     1.7681E-02    3.3222E-02    1.000000E+06  0.05000  2.592E-02    0   0.9998   age020_m72            0.0000     1.0441E+00     5.7948   2.7776    80.6093
 52      0.0000     0.0000E+00    0.0000E+00    3.160000E+06  0.05000  4.845E-02    0   0.9577   age045_m72            0.0000     9.9045E-01     5.5740   2.6054    82.5349
 53      0.0065     2.8588E-05    4.9144E-05    5.010000E+06  0.05000  3.072E-02    0   0.9147   age055_m72            0.0000     5.1536E-01     3.8535   2.0591    89.1952
 54      0.0000     0.0000E+00    0.0000E+00    6.610000E+06  0.05000  1.455E-02    0   0.8877   age061_m72            0.0000     1.8669E+00     6.6756   1.2181    99.3924
 55      0.0000     0.0000E+00    0.0000E+00    1.000000E+07  0.05000  9.074E-03    0   0.8524   age070_m72            0.0000     8.4326E-01     4.7153   2.2514    88.7488
 56      0.0000     0.0000E+00    0.0000E+00    2.512000E+07  0.05000  4.250E-03    0   0.7902   age090_m72            0.0000     5.5519E-01     3.8211   1.9276    91.3629
 57      0.0000     0.0000E+00    0.0000E+00    4.000000E+07  0.05000  3.087E-03    0   0.7618   age104_m72            0.0000     5.3860E-01     3.7343   1.6836    93.6174
 58      0.0036     2.8539E-04    3.8059E-04    1.015200E+08  0.05000  1.700E-03    0   0.7096   age116_m72            0.0000     5.0812E-01     3.4396   1.4375    95.6203
 59      5.1635     9.4687E-01    1.1803E+00    2.861200E+08  0.05000  7.384E-04    0   0.6633   age125_m72            0.0000     9.3415E-01     4.5615   0.9460    98.5756
 60      8.3026     2.9438E+00    3.5252E+00    5.088000E+08  0.05000  3.819E-04    0   0.6372   age130_m72            0.0000     1.1183E+00     5.4330   0.4855    98.6712
 61      0.0000     0.0000E+00    0.0000E+00    9.047900E+08  0.05000  1.676E-04    0   0.6110   age135_m72            0.0000     1.5919E+00     6.8961  -0.1531    94.3675
 62      0.0815     1.2491E-01    1.3789E-01    1.434000E+09  0.05000  8.837E-05    0   0.5874   age139_m72            0.0000     1.7438E+00     7.2075  -0.6006    93.5411
 63      3.2898     1.0523E+01    1.1071E+01    2.500000E+09  0.05000  4.233E-05    0   0.5598   age150_m72            0.0000     2.4300E+00     8.6938  -0.8577    90.1681
 64      0.0000     0.0000E+00    0.0000E+00    6.250000E+09  0.05000  1.435E-05    0   0.5249   age166_m72            0.0000     3.6088E+00    10.4526  -1.0000    77.6162
 65      0.0000     0.0000E+00    0.0000E+00    1.300000E+10  0.05000  6.513E-06    0   0.5036   age193_m72            0.0000     5.3449E+00    12.6451  -1.0000    68.9944
 66      0.0000     0.0000E+00    0.0000E+00    1.800000E+10  0.05000  4.527E-06    0   0.4945   age213_m72            0.0000     6.5509E+00    14.1615  -1.0000    63.9177


## Synthesis Results - Average & Chains ##

# j      x_j: min, <> & last-chain-values for 1 ...  7 chains
  1      6.2095      4.1062      4.1421      3.1101      5.4558      4.3979      5.5371      4.4705      4.3546
  2      0.0000      0.3202      0.0000      0.1449      0.0000      0.8173      0.0000      0.5105      0.0000
  3      0.0000      0.5518      0.0000      0.0000      0.9271      0.8793      0.0000      0.0000      0.3159
  4      0.0000      0.5187      0.2821      0.7560      0.0000      0.8102      0.0000      0.0000      0.0000
  5      0.0000      0.8546      0.2603      0.1443      0.0000      0.6738      0.2032      0.7036      0.1736
  6      0.0000      0.7177      0.0000      0.4057      3.2061      0.0000      0.4212      2.9081      1.0332
  7      0.0000      0.6475      0.9588      1.6307      0.3865      0.7156      0.1182      0.0000      0.0000
  8      0.0145      1.5704      1.5640      3.2742      1.7988      0.0000      2.5475      0.7299      0.7599
  9      0.0000      0.5915      1.5046      0.0000      0.7768      0.7990      0.0000      0.0000      1.6035
 10      0.0000      0.7979      0.0000      0.0000      0.0000      0.2363      1.2530      0.4721      0.4555
 11      0.0011      1.0187      0.4183      0.0000      0.2055      0.0000      0.5378      0.2917      0.0000
 12      0.0000      0.7694      0.0000      0.3727      0.0000      0.2151      0.0000      0.4241      0.0000
 13      5.4171      2.1862      2.4084      2.5642      2.7339      4.5887      1.7578      4.2999      2.7714
 14      0.2667      0.2221      0.0000      0.0000      0.0000      0.5141      1.0531      0.0000      0.4567
 15      0.0000      0.1266      0.4266      0.0000      0.0328      0.1004      0.0414      0.0000      0.0000
 16      3.0103      0.6435      0.0000      0.0000      0.8764      1.9980      0.6641      0.0000      1.7313
 17      0.0000      0.0890      0.0000      0.8554      0.0808      0.0000      0.0000      0.0000      0.0000
 18      2.9195      1.3851      1.3538      1.5675      1.8157      2.3654      1.1380      0.9775      1.4940
 19      0.0000      0.5696      1.0731      3.3902      0.0000      0.0000      0.3619      0.3481      0.6373
 20      0.0000      0.2819      0.9260      0.0000      0.0000      0.0000      0.0000      0.7622      0.7640
 21      0.0000      1.5428      1.2373      2.5618      1.9885      1.5077      0.0000      2.7072      1.7826
 22      0.0033      0.9496      2.8457      1.9951      0.0953      0.7796      2.2822      1.3194      0.4669
 23      0.0009      0.5613      0.2042      0.0000      0.0000      0.0000      1.6342      0.7636      0.0000
 24      2.4475      2.6445      3.2369      2.2620      2.7098      0.9858      1.9970      5.7879      1.0715
 25      0.0108      1.5749      1.6122      2.3089      1.1085      0.0000      1.7135      1.1477      1.2731
 26      0.0000      0.8058      0.6693      0.0000      0.3390      1.2339      0.0000      0.2136      0.0000
 27      0.9491      1.2773      1.4862      3.1823      1.9111      1.9636      2.6614      0.9119      0.2530
 28      3.2936      1.9581      3.3685      1.4935      2.2036      2.8365      4.5203      2.6854      4.7887
 29      0.0000      0.5285      0.4662      0.1748      0.1764      0.0000      0.0000      1.8334      0.3462
 30      1.3329      2.2260      2.8332      2.3959      1.8294      2.3044      2.7276      2.2939      2.2852
 31      0.0000      0.1569      0.0808      0.6294      0.5441      0.0000      0.0000      0.0000      0.0000
 32      3.6899      3.2068      3.2291      3.6024      2.6234      3.6239      2.4837      2.9053      3.8165
 33      0.0000      0.1296      0.0000      0.0000      0.1277      0.0000      0.3615      0.0000      0.0000
 34      2.4399      1.2965      1.3557      1.3356      2.3356      1.1400      1.2544      1.3589      1.3134
 35      4.4213      1.4762      2.9505      1.4813      1.9208      1.6197      2.3957      1.2633      2.2611
 36      4.0095      3.4192      3.4434      3.2541      5.3862      3.9273      3.1020      3.5926      4.6034
 37      0.0000      0.7927      1.0159      0.0000      0.8522      1.8990      0.0000      0.0000      1.1853
 38     27.1370     21.3904     22.7888     23.1479     21.6286     22.5361     22.6360     24.5037     21.8001
 39      0.0011      1.7928      0.8915      1.7342      0.9326      3.0679      1.9403      0.0000      3.5378
 40      0.0000      2.3424      1.7249      2.3466      2.2190      2.5133      0.0281      0.0000      1.1150
 41      0.0000      1.1325      0.3070      0.0000      1.2496      0.5091      0.0000      1.2928      2.7359
 42      0.0000      0.4084      0.0000      1.1412      0.8289      1.4655      0.0000      0.0000      0.0000
 43      0.0000      0.9733      0.0000      1.0560      1.1149      0.0000      0.1189      0.6253      1.6960
 44      8.1045      4.9631      7.3211      4.6370      5.1311      5.0468      4.8301      5.7315      2.8446
 45      0.0054      1.6326      0.0000      0.4016      0.7097      2.4798      2.0702      0.4398      2.3182
 46      0.6638      3.4167      3.2781      0.8140      2.6186      3.0787      3.4174      3.7732      2.0389
