###################################################################
## OUTPUT of StarlightChains_v04.for    [Cid@UFSC - 01/Apr/2007] ##
###################################################################

## Some input info
2006ct.txt                               [arq_obs]
Base.CB07.vall.4m                        [arq_base]
Masks.EmLines.NEW.gm                     [arq_masks]
StCv04.C11.config                        [arq_config]
   66                                    [N_base]
    0                                    [N_YAV_components = # of components with extra extinction!]
    0                                    [i_FitPowerLaw (1/0 = Yes/No)]
-9.99                                    [alpha_PowerLaw]
CCM                                      [red_law_option]
 1.458241                                [q_norm = A(l_norm)/A(V)]

## (Re)Sampling Parameters
 3741.00                                 [l_ini (A)]
 7218.00                                 [l_fin (A)]
    1.00                                 [dl    (A)]     (OBS: dl_cushion =    50.00 A)

## Normalization info
 4020.00                                 [l_norm (A) - for base]
 4010.00                                 [llow_norm (A) - window for f_obs]
 4060.00                                 [lupp_norm (A) - window for f_obs]
4.422469E-17                             [fobs_norm (in input units)]

## S/N
 3691.00                                 [llow_SN (A) - window for S/N]
 7268.00                                 [lupp_SN (A) - window for S/N]
   5.117                                 [S/N in S/N window]
   3.977                                 [S/N in norm. window]
  24.383                                 [S/N_err in S/N window]
  18.952                                 [S/N_err in norm. window]
  1.0000                                 [fscale_chi2]

## etc...
    -2007315                             [idum_orig]
  2310                                   [NOl_eff]
  2306                                   [Nl_eff]
     4    NSIGMA                         [Ntot_cliped & clip_method]
   509390                                [Nglobal_steps]
   7                                     [N_chains]
   7                                     [NEX0s_base = N_base in EX0s-fits]
 0   0   1       11   2.0   3.369E+01    [Clip-Bug, RC-Crash & Burn-In warning-flags, n_censored_weights, wei_nsig_threshold & wei_limit]
    12     12.213     11.479      0.733  [idt_all, wdt_TotTime, wdt_UsrTime & wdt_SysTime (sec)]

## Synthesis Results - Best model ##

 5.91016E-01                             [chi2/Nl_eff]
     3.12155                             [adev (%)]

   115.88199                             [sum-of-x (%)]
 3.80063E-17                             [Flux_tot (units of input spectrum!)]
 1.48719E-12                             [Mini_tot (???)]
 7.85268E-13                             [Mcor_tot (???)]

 -21.49                                  [v0_min  (km/s)]
 198.87                                  [vd_min  (km/s)]
-0.2226                                  [AV_min  (mag)]
 0.0000                                  [YAV_min (mag)]

# j     x_j(%)      Mini_j(%)     Mcor_j(%)     age_j(yr)     Z_j      (L/M)_j    YAV?  Mstars   component_j        a/Fe...       SSP_chi2r SSP_adev(%)   SSP_AV   SSP_x(%)
  1      0.0000     0.0000E+00    0.0000E+00    1.000000E+06  0.00400  1.094E-02    0   1.0000   age020_m42            0.0000     8.3567E+00    10.1911   3.6258    96.4720
  2      0.0000     0.0000E+00    0.0000E+00    3.160000E+06  0.00400  4.007E-02    0   0.9999   age045_m42            0.0000     7.2843E+00     9.2467   2.8648   105.0935
  3      0.0000     0.0000E+00    0.0000E+00    5.010000E+06  0.00400  2.539E-02    0   0.9488   age055_m42            0.0000     7.8529E+00     9.7146   3.1988   101.7460
  4      0.0000     0.0000E+00    0.0000E+00    6.610000E+06  0.00400  2.620E-02    0   0.9220   age061_m42            0.0000     7.4192E+00     9.3416   2.7849   105.6969
  5      0.0000     0.0000E+00    0.0000E+00    1.000000E+07  0.00400  1.322E-02    0   0.8862   age070_m42            0.0000     8.7224E+00    10.6052   2.4648   110.0705
  6      0.0000     0.0000E+00    0.0000E+00    1.445000E+07  0.00400  7.883E-03    0   0.8571   age078_m42            0.0000     8.9213E+00    10.7024   2.8092   106.3395
  7      0.0000     0.0000E+00    0.0000E+00    2.512000E+07  0.00400  5.251E-03    0   0.8174   age090_m42            0.0000     8.9972E+00    10.8505   2.3231   111.3422
  8      0.0000     0.0000E+00    0.0000E+00    4.000000E+07  0.00400  3.649E-03    0   0.7851   age104_m42            0.0000     8.3921E+00    10.5073   2.0888   112.6683
  9      0.0000     0.0000E+00    0.0000E+00    5.500000E+07  0.00400  3.098E-03    0   0.7629   age110_m42            0.0000     7.7599E+00     9.8130   2.2578   111.8400
 10      0.0000     0.0000E+00    0.0000E+00    1.015200E+08  0.00400  2.228E-03    0   0.7207   age116_m42            0.0000     7.3851E+00     9.4151   2.2875   111.5660
 11      0.0000     0.0000E+00    0.0000E+00    2.861200E+08  0.00400  1.093E-03    0   0.6648   age125_m42            0.0000     7.3022E+00     9.7722   1.6946   116.6860
 12      0.0000     0.0000E+00    0.0000E+00    5.088000E+08  0.00400  6.597E-04    0   0.6365   age130_m42            0.0000     6.2107E+00     8.9390   1.6924   117.1736
 13      0.0000     0.0000E+00    0.0000E+00    1.434000E+09  0.00400  2.132E-04    0   0.5798   age139_m42            0.0000     3.6262E+00     7.2708   0.6888   121.3226
 14      0.0000     0.0000E+00    0.0000E+00    4.250000E+09  0.00400  5.895E-05    0   0.5377   age158_m42            0.0000     1.8936E+00     5.5941   0.2684   115.4108
 15      0.0000     0.0000E+00    0.0000E+00    7.500000E+09  0.00400  3.510E-05    0   0.5212   age171_m42            0.0000     1.4217E+00     4.9272   0.0919   114.1147
 16      0.0000     0.0000E+00    0.0000E+00    1.300000E+10  0.00400  2.005E-05    0   0.5034   age193_m42            0.0000     1.1458E+00     4.4502  -0.0600   112.8967
 17      0.0000     0.0000E+00    0.0000E+00    1.800000E+10  0.00400  1.525E-05    0   0.4967   age213_m42            0.0000     1.1916E+00     4.5399  -0.0857   112.5196
 18      0.0000     0.0000E+00    0.0000E+00    1.000000E+06  0.00800  1.238E-02    0   1.0000   age020_m52            0.0000     8.3249E+00    10.1798   3.6231    96.6135
 19      0.0000     0.0000E+00    0.0000E+00    3.160000E+06  0.00800  3.074E-02    0   0.9966   age045_m52            0.0000     8.1828E+00    10.0597   3.5432    97.6226
 20      0.0000     0.0000E+00    0.0000E+00    5.010000E+06  0.00800  2.668E-02    0   0.9443   age055_m52            0.0000     7.8992E+00     9.8296   3.2838   100.6865
 21      0.0000     0.0000E+00    0.0000E+00    6.610000E+06  0.00800  2.136E-02    0   0.9177   age061_m52            0.0000     7.1626E+00    10.0473   1.9490   112.0821
 22      0.0000     0.0000E+00    0.0000E+00    1.000000E+07  0.00800  1.215E-02    0   0.8827   age070_m52            0.0000     9.2711E+00    11.1100   2.6424   110.0260
 23      0.0000     0.0000E+00    0.0000E+00    1.445000E+07  0.00800  8.717E-03    0   0.8552   age078_m52            0.0000     8.7123E+00    10.6145   2.7671   108.2252
 24      0.0000     0.0000E+00    0.0000E+00    2.512000E+07  0.00800  5.592E-03    0   0.8162   age090_m52            0.0000     8.8461E+00    10.8300   2.3835   112.9711
 25      0.0000     0.0000E+00    0.0000E+00    4.000000E+07  0.00800  3.896E-03    0   0.7841   age104_m52            0.0000     8.2164E+00    10.3891   2.2957   113.9324
 26      0.0000     0.0000E+00    0.0000E+00    1.015200E+08  0.00800  2.148E-03    0   0.7226   age116_m52            0.0000     7.2243E+00     9.6235   2.2409   113.3299
 27      0.0000     0.0000E+00    0.0000E+00    2.861200E+08  0.00800  9.925E-04    0   0.6683   age125_m52            0.0000     6.0173E+00     8.8708   1.7517   118.5669
 28      0.0000     0.0000E+00    0.0000E+00    9.047900E+08  0.00800  3.141E-04    0   0.6138   age135_m52            0.0000     2.8786E+00     6.8202   0.9318   124.9823
 29      0.0000     0.0000E+00    0.0000E+00    1.434000E+09  0.00800  1.719E-04    0   0.5853   age139_m52            0.0000     2.2056E+00     5.9949   0.3616   121.9392
 30      0.0000     0.0000E+00    0.0000E+00    2.500000E+09  0.00800  7.872E-05    0   0.5600   age150_m52            0.0000     1.2305E+00     4.5614   0.1180   117.0852
 31      0.0000     0.0000E+00    0.0000E+00    4.250000E+09  0.00800  4.336E-05    0   0.5426   age158_m52            0.0000     1.1706E+00     4.4538   0.1032   115.9299
 32      0.0000     0.0000E+00    0.0000E+00    6.250000E+09  0.00800  3.159E-05    0   0.5319   age166_m52            0.0000     8.2574E-01     3.6951  -0.0845   115.1977
 33      0.0000     0.0000E+00    0.0000E+00    1.300000E+10  0.00800  1.361E-05    0   0.5073   age193_m52            0.0000     5.7740E-01     3.1124  -0.5348   113.5303
 34     15.4771     3.4526E+01    3.2628E+01    1.800000E+10  0.00800  9.886E-06    0   0.4990   age213_m52            0.0000     6.2102E-01     3.2431  -0.6204   111.8615
 35      0.0000     0.0000E+00    0.0000E+00    1.000000E+06  0.02000  1.544E-02    0   1.0000   age020_m62            0.0000     8.3420E+00    10.2012   3.6186    96.8568
 36      0.0000     0.0000E+00    0.0000E+00    3.160000E+06  0.02000  3.762E-02    0   0.9858   age045_m62            0.0000     8.2829E+00    10.1661   3.5587    97.6826
 37      0.0000     0.0000E+00    0.0000E+00    5.010000E+06  0.02000  3.296E-02    0   0.9342   age055_m62            0.0000     7.4988E+00     9.3876   3.1580   103.0791
 38      0.0000     0.0000E+00    0.0000E+00    8.710000E+06  0.02000  1.154E-02    0   0.8861   age067_m62            0.0000     1.4565E+01    14.6796   2.0363   116.6546
 39      0.0000     0.0000E+00    0.0000E+00    1.445000E+07  0.02000  7.663E-03    0   0.8472   age078_m62            0.0000     1.0105E+01    12.0181   2.2660   114.0762
 40      0.0000     0.0000E+00    0.0000E+00    2.512000E+07  0.02000  4.532E-03    0   0.8099   age090_m62            0.0000     1.0618E+01    12.2514   2.2564   113.9652
 41      0.0000     0.0000E+00    0.0000E+00    5.500000E+07  0.02000  2.733E-03    0   0.7595   age110_m62            0.0000     8.2548E+00    10.3882   2.2830   112.8275
 42      0.0000     0.0000E+00    0.0000E+00    1.609000E+08  0.02000  1.369E-03    0   0.6985   age120_m62            0.0000     7.1637E+00     9.4727   2.1249   115.8183
 43      0.0000     0.0000E+00    0.0000E+00    2.861200E+08  0.02000  9.013E-04    0   0.6714   age125_m62            0.0000     6.2684E+00     8.9797   1.8618   119.8922
 44      0.0000     0.0000E+00    0.0000E+00    5.088000E+08  0.02000  5.028E-04    0   0.6449   age130_m62            0.0000     4.1284E+00     7.6393   1.4812   123.3562
 45      0.0000     0.0000E+00    0.0000E+00    9.047900E+08  0.02000  2.428E-04    0   0.6179   age135_m62            0.0000     2.1058E+00     5.8549   0.8934   122.8421
 46      0.0000     0.0000E+00    0.0000E+00    1.434000E+09  0.02000  1.263E-04    0   0.5908   age139_m62            0.0000     1.4055E+00     4.8842   0.4548   120.6859
 47      0.0000     0.0000E+00    0.0000E+00    2.500000E+09  0.02000  5.985E-05    0   0.5673   age150_m62            0.0000     8.9024E-01     3.8821   0.1147   117.5787
 48     33.8287     2.2808E+01    2.3619E+01    4.250000E+09  0.02000  3.271E-05    0   0.5468   age158_m62            0.0000     6.0934E-01     3.1837  -0.1659   115.2769
 49     13.8113     2.2396E+01    2.1916E+01    1.000000E+10  0.02000  1.360E-05    0   0.5167   age181_m62            0.0000     7.3862E-01     3.5308  -0.4826   113.2646
 50      0.0000     0.0000E+00    0.0000E+00    1.800000E+10  0.02000  7.124E-06    0   0.5013   age213_m62            0.0000     1.0964E+00     4.3703  -0.6580   110.6830
 51      0.0000     0.0000E+00    0.0000E+00    1.000000E+06  0.05000  2.592E-02    0   0.9998   age020_m72            0.0000     8.4359E+00    10.3134   3.6113    96.8151
 52      0.0000     0.0000E+00    0.0000E+00    3.160000E+06  0.05000  4.845E-02    0   0.9577   age045_m72            0.0000     7.9319E+00     9.8139   3.4368    99.2716
 53      0.0000     0.0000E+00    0.0000E+00    5.010000E+06  0.05000  3.072E-02    0   0.9147   age055_m72            0.0000     9.2619E+00    11.2206   2.9092   106.8881
 54      0.0000     0.0000E+00    0.0000E+00    6.610000E+06  0.05000  1.455E-02    0   0.8877   age061_m72            0.0000     1.9068E+01    17.0593   2.1102   117.8501
 55      0.0000     0.0000E+00    0.0000E+00    1.000000E+07  0.05000  9.074E-03    0   0.8524   age070_m72            0.0000     9.7892E+00    11.5125   3.1303   105.4036
 56      0.0000     0.0000E+00    0.0000E+00    2.512000E+07  0.05000  4.250E-03    0   0.7902   age090_m72            0.0000     9.4820E+00    11.2355   2.7863   109.2618
 57      0.0000     0.0000E+00    0.0000E+00    4.000000E+07  0.05000  3.087E-03    0   0.7618   age104_m72            0.0000     9.7477E+00    11.4122   2.5424   112.0107
 58      0.0000     0.0000E+00    0.0000E+00    1.015200E+08  0.05000  1.700E-03    0   0.7096   age116_m72            0.0000     7.8863E+00    10.0300   2.2646   115.6484
 59      0.0000     0.0000E+00    0.0000E+00    2.861200E+08  0.05000  7.384E-04    0   0.6633   age125_m72            0.0000     5.1175E+00     8.2676   1.7288   121.6569
 60      0.0000     0.0000E+00    0.0000E+00    5.088000E+08  0.05000  3.819E-04    0   0.6372   age130_m72            0.0000     2.8598E+00     6.4982   1.2328   123.7975
 61      0.0000     0.0000E+00    0.0000E+00    9.047900E+08  0.05000  1.676E-04    0   0.6110   age135_m72            0.0000     1.2031E+00     4.4054   0.5640   120.0704
 62     26.5962     6.6373E+00    7.3836E+00    1.434000E+09  0.05000  8.837E-05    0   0.5874   age139_m72            0.0000     7.7038E-01     3.6311   0.1132   119.4055
 63     26.1687     1.3634E+01    1.4454E+01    2.500000E+09  0.05000  4.233E-05    0   0.5598   age150_m72            0.0000     6.2931E-01     3.1810  -0.1574   115.8130
 64      0.0000     0.0000E+00    0.0000E+00    6.250000E+09  0.05000  1.435E-05    0   0.5249   age166_m72            0.0000     8.5457E-01     3.7908  -0.5663   112.1290
 65      0.0000     0.0000E+00    0.0000E+00    1.300000E+10  0.05000  6.513E-06    0   0.5036   age193_m72            0.0000     1.4474E+00     5.0067  -0.8019   111.0223
 66      0.0000     0.0000E+00    0.0000E+00    1.800000E+10  0.05000  4.527E-06    0   0.4945   age213_m72            0.0000     1.9257E+00     5.8029  -0.9323   109.3356


## Synthesis Results - Average & Chains ##

# j      x_j: min, <> & last-chain-values for 1 ...  7 chains
  1      0.0000      0.0044      0.0000      0.0314      0.0000      0.0000      0.0000      0.0000      0.0000
  2      0.0000      0.0100      0.0000      0.0581      0.0000      0.0000      0.0000      0.0000      0.0000
  3      0.0000      0.0036      0.0000      0.0000      0.0000      0.0000      0.0000      0.0000      0.0000
  4      0.0000      0.0067      0.0000      0.0000      0.0000      0.0405      0.0000      0.0000      0.0000
  5      0.0000      0.0074      0.0000      0.0000      0.0000      0.0000      0.0000      0.0000      0.0000
  6      0.0000      0.0067      0.0000      0.0000      0.0000      0.0000      0.0000      0.0000      0.0000
  7      0.0000      0.0075      0.0000      0.0000      0.0000      0.0000      0.0000      0.0062      0.0000
  8      0.0000      0.0057      0.0000      0.0000      0.0000      0.0000      0.0086      0.0000      0.0000
  9      0.0000      0.0080      0.0000      0.0000      0.0000      0.0000      0.0000      0.0000      0.0000
 10      0.0000      0.0111      0.0000      0.0000      0.0000      0.0000      0.0000      0.0000      0.0000
 11      0.0000      0.0058      0.0000      0.2712      0.0000      0.0000      0.0000      0.0000      0.0000
 12      0.0000      0.0121      0.0000      0.0000      0.0000      0.0000      0.0000      0.0000      0.0000
 13      0.0000      0.0400      0.0000      0.0000      0.0000      0.0000      0.0000      0.0000      0.0000
 14      0.0000      0.2112      0.0447      0.0000      0.0000      0.0000      0.0000      0.5390      0.0000
 15      0.0000      0.2488      0.0000      0.0000      0.0000      0.0000      0.0000      0.0000      0.0000
 16      0.0000      0.4976      1.2134      0.0000      0.0000      0.0000      0.4157      0.7210      0.0000
 17      0.0000      0.4324      0.0000      0.0000      0.0000      0.0000      0.0000      0.0000      0.0000
 18      0.0000      0.0038      0.0000      0.0000      0.0000      0.0000      0.0000      0.0000      0.0000
 19      0.0000      0.0061      0.0000      0.0000      0.0000      0.0000      0.0000      0.0053      0.0000
 20      0.0000      0.0077      0.0000      0.0000      0.0000      0.0019      0.0000      0.0000      0.0000
 21      0.0000      0.0046      0.0000      0.0000      0.0000      0.0000      0.0000      0.0000      0.0000
 22      0.0000      0.0074      0.0000      0.0000      0.0000      0.0000      0.0000      0.0000      0.0000
 23      0.0000      0.0071      0.0000      0.0000      0.0000      0.0000      0.0000      0.0000      0.0179
 24      0.0000      0.0126      0.0000      0.0000      0.0000      0.0000      0.0000      0.0000      0.0000
 25      0.0000      0.0128      0.0000      0.0000      0.0000      0.0000      0.0000      0.0000      0.0000
 26      0.0000      0.0037      0.0000      0.0000      0.0000      0.0000      0.0000      0.0000      0.0000
 27      0.0000      0.0105      0.0000      0.0000      0.0000      0.0000      0.0000      0.0000      0.0000
 28      0.0000      0.0407      0.4941      0.0000      0.0000      0.0000      0.0000      0.0000      0.0000
 29      0.0000      0.0770      0.0000      0.0000      0.0715      0.0000      0.0605      0.0668      0.0487
 30      0.0000      0.3048      0.0000      0.0000      0.0000      0.0000      1.3480      0.0000      0.0000
 31      0.0000      0.3120      0.1089      0.0000      0.3300      0.0000      0.0000      0.0000      0.0000
 32      0.0000      1.0854      0.0000      1.2049      3.8128      0.8971      0.0000      0.0000      0.6423
 33      0.0000      0.1494      0.0000      0.0000      0.0000      0.0000      0.0000      0.0000      0.0000
 34     15.4771      0.2070      0.0000      0.0285      0.0877      0.0000      1.1038      0.1564      0.0000
 35      0.0000      0.0027      0.0000      0.0000      0.0000      0.0000      0.0000      0.0000      0.0000
 36      0.0000      0.0059      0.0000      0.0000      0.0000      0.0000      0.0000      0.0000      0.0000
 37      0.0000      0.0020      0.0000      0.0000      0.0000      0.0000      0.0000      0.0000      0.0000
 38      0.0000      0.0119      0.0000      0.0000      0.0000      0.0000      0.0000      0.0000      0.0000
 39      0.0000      0.0126      0.0172      0.0000      0.0000      0.0000      0.0140      0.0000      0.0000
 40      0.0000      0.0083      0.0000      0.0000      0.0000      0.0000      0.0000      0.0000      0.0000
 41      0.0000      0.0133      0.0000      0.0000      0.0000      0.0000      0.0000      0.0000      0.0000
 42      0.0000      0.0032      0.0451      0.0000      0.0139      0.0000      0.0000      0.0000      0.0000
 43      0.0000      0.0129      0.0000      0.0000      0.0000      0.0000      0.0000      0.1957      0.0000
 44      0.0000      0.0169      0.0000      0.0000      0.0000      0.0000      0.0000      0.0000      0.0000
 45      0.0000      0.1338      0.0000      0.3278      0.0000      0.2165      0.0000      0.0000      0.6226
 46      0.0000      0.4272      0.0000      0.0000      0.0000      0.0000      0.0000      0.9617      0.7683
