###################################################################
## OUTPUT of StarlightChains_v04.for    [Cid@UFSC - 01/Apr/2007] ##
###################################################################

## Some input info
2007bz.txt                               [arq_obs]
Base.CB07.vall.4m                        [arq_base]
Masks.EmLines.NEW.gm                     [arq_masks]
StCv04.C11.config                        [arq_config]
   66                                    [N_base]
    0                                    [N_YAV_components = # of components with extra extinction!]
    0                                    [i_FitPowerLaw (1/0 = Yes/No)]
-9.99                                    [alpha_PowerLaw]
CCM                                      [red_law_option]
 1.458241                                [q_norm = A(l_norm)/A(V)]

## (Re)Sampling Parameters
 3741.00                                 [l_ini (A)]
 7218.00                                 [l_fin (A)]
    1.00                                 [dl    (A)]     (OBS: dl_cushion =    50.00 A)

## Normalization info
 4020.00                                 [l_norm (A) - for base]
 4010.00                                 [llow_norm (A) - window for f_obs]
 4060.00                                 [lupp_norm (A) - window for f_obs]
1.710396E-16                             [fobs_norm (in input units)]

## S/N
 3691.00                                 [llow_SN (A) - window for S/N]
 7268.00                                 [lupp_SN (A) - window for S/N]
   4.824                                 [S/N in S/N window]
   6.621                                 [S/N in norm. window]
  20.450                                 [S/N_err in S/N window]
  28.071                                 [S/N_err in norm. window]
  1.0000                                 [fscale_chi2]

## etc...
    -2007332                             [idum_orig]
  2385                                   [NOl_eff]
  2382                                   [Nl_eff]
     3    NSIGMA                         [Ntot_cliped & clip_method]
   973420                                [Nglobal_steps]
   7                                     [N_chains]
  13                                     [NEX0s_base = N_base in EX0s-fits]
 0   0   1        0   2.0   7.199E+01    [Clip-Bug, RC-Crash & Burn-In warning-flags, n_censored_weights, wei_nsig_threshold & wei_limit]
    17     16.974     16.462      0.512  [idt_all, wdt_TotTime, wdt_UsrTime & wdt_SysTime (sec)]

## Synthesis Results - Best model ##

 3.70969E-01                             [chi2/Nl_eff]
     2.20428                             [adev (%)]

   107.37648                             [sum-of-x (%)]
 3.01739E-16                             [Flux_tot (units of input spectrum!)]
 3.90588E-13                             [Mini_tot (???)]
 2.53250E-13                             [Mcor_tot (???)]

  88.90                                  [v0_min  (km/s)]
 212.18                                  [vd_min  (km/s)]
 0.3697                                  [AV_min  (mag)]
 0.0000                                  [YAV_min (mag)]

# j     x_j(%)      Mini_j(%)     Mcor_j(%)     age_j(yr)     Z_j      (L/M)_j    YAV?  Mstars   component_j        a/Fe...       SSP_chi2r SSP_adev(%)   SSP_AV   SSP_x(%)
  1      0.0000     0.0000E+00    0.0000E+00    1.000000E+06  0.00400  1.094E-02    0   1.0000   age020_m42            0.0000     1.5209E+00     4.7456   2.1715    90.6277
  2      4.8408     8.6917E-02    1.3404E-01    3.160000E+06  0.00400  4.007E-02    0   0.9999   age045_m42            0.0000     8.1859E-01     3.2513   1.4287    97.8209
  3      0.0000     0.0000E+00    0.0000E+00    5.010000E+06  0.00400  2.539E-02    0   0.9488   age055_m42            0.0000     1.0368E+00     3.8472   1.7508    95.2515
  4      3.4372     9.4386E-02    1.3422E-01    6.610000E+06  0.00400  2.620E-02    0   0.9220   age061_m42            0.0000     7.3089E-01     3.1197   1.3446    98.5615
  5      0.0012     6.3487E-05    8.6773E-05    1.000000E+07  0.00400  1.322E-02    0   0.8862   age070_m42            0.0000     7.5063E-01     3.6010   1.0063   103.4701
  6      0.7818     7.1349E-02    9.4316E-02    1.445000E+07  0.00400  7.883E-03    0   0.8571   age078_m42            0.0000     8.7341E-01     3.7991   1.3466   100.1733
  7      0.0000     0.0000E+00    0.0000E+00    2.512000E+07  0.00400  5.251E-03    0   0.8174   age090_m42            0.0000     7.7533E-01     3.7107   0.8638   104.6971
  8      0.0000     0.0000E+00    0.0000E+00    4.000000E+07  0.00400  3.649E-03    0   0.7851   age104_m42            0.0000     6.6635E-01     3.4334   0.6391   105.4510
  9      3.2579     7.5659E-01    8.9022E-01    5.500000E+07  0.00400  3.098E-03    0   0.7629   age110_m42            0.0000     5.3329E-01     2.9073   0.8158   104.3104
 10     28.6867     9.2634E+00    1.0297E+01    1.015200E+08  0.00400  2.228E-03    0   0.7207   age116_m42            0.0000     5.1175E-01     2.7231   0.8491   103.8750
 11      0.0000     0.0000E+00    0.0000E+00    2.861200E+08  0.00400  1.093E-03    0   0.6648   age125_m42            0.0000     7.1444E-01     3.3048   0.2588   108.3309
 12      0.0000     0.0000E+00    0.0000E+00    5.088000E+08  0.00400  6.597E-04    0   0.6365   age130_m42            0.0000     6.4110E-01     3.1115   0.2734   107.9288
 13      0.0000     0.0000E+00    0.0000E+00    1.434000E+09  0.00400  2.132E-04    0   0.5798   age139_m42            0.0000     6.6083E-01     3.1451  -0.6826   109.1705
 14      0.0000     0.0000E+00    0.0000E+00    4.250000E+09  0.00400  5.895E-05    0   0.5377   age158_m42            0.0000     9.9558E-01     3.8051  -1.0000    99.1368
 15      0.0000     0.0000E+00    0.0000E+00    7.500000E+09  0.00400  3.510E-05    0   0.5212   age171_m42            0.0000     2.0377E+00     5.7757  -1.0000    90.4579
 16      0.0000     0.0000E+00    0.0000E+00    1.300000E+10  0.00400  2.005E-05    0   0.5034   age193_m42            0.0000     3.6448E+00     8.0258  -1.0000    83.4048
 17      0.0000     0.0000E+00    0.0000E+00    1.800000E+10  0.00400  1.525E-05    0   0.4967   age213_m42            0.0000     3.9385E+00     8.3634  -1.0000    82.1355
 18      0.0000     0.0000E+00    0.0000E+00    1.000000E+06  0.00800  1.238E-02    0   1.0000   age020_m52            0.0000     1.5177E+00     4.7483   2.1678    90.8000
 19      0.0000     0.0000E+00    0.0000E+00    3.160000E+06  0.00800  3.074E-02    0   0.9966   age045_m52            0.0000     1.4335E+00     4.6307   2.0910    91.6051
 20      4.1351     1.1151E-01    1.6240E-01    5.010000E+06  0.00800  2.668E-02    0   0.9443   age055_m52            0.0000     1.0861E+00     4.0029   1.8330    94.3773
 21     14.9254     5.0272E-01    7.1154E-01    6.610000E+06  0.00800  2.136E-02    0   0.9177   age061_m52            0.0000     7.3937E-01     3.4838   0.5183   103.9705
 22      0.0013     7.6152E-05    1.0367E-04    1.000000E+07  0.00800  1.215E-02    0   0.8827   age070_m52            0.0000     9.5909E-01     4.0833   1.1757   103.7588
 23      0.0000     0.0000E+00    0.0000E+00    1.445000E+07  0.00800  8.717E-03    0   0.8552   age078_m52            0.0000     8.1135E-01     3.6842   1.3073   101.7844
 24      0.0000     0.0000E+00    0.0000E+00    2.512000E+07  0.00800  5.592E-03    0   0.8162   age090_m52            0.0000     7.9804E-01     3.7563   0.9245   106.1262
 25      0.0069     1.2788E-03    1.5464E-03    4.000000E+07  0.00800  3.896E-03    0   0.7841   age104_m52            0.0000     6.7320E-01     3.3958   0.8469   106.4955
 26      0.0000     0.0000E+00    0.0000E+00    1.015200E+08  0.00800  2.148E-03    0   0.7226   age116_m52            0.0000     5.0852E-01     2.8420   0.8065   105.2461
 27      0.0000     0.0000E+00    0.0000E+00    2.861200E+08  0.00800  9.925E-04    0   0.6683   age125_m52            0.0000     5.6950E-01     3.0110   0.3358   109.0326
 28      0.0000     0.0000E+00    0.0000E+00    9.047900E+08  0.00800  3.141E-04    0   0.6138   age135_m52            0.0000     7.7836E-01     3.6017  -0.4169   111.1667
 29      0.0000     0.0000E+00    0.0000E+00    1.434000E+09  0.00800  1.719E-04    0   0.5853   age139_m52            0.0000     1.0459E+00     3.8173  -0.9842   108.2374
 30      0.0000     0.0000E+00    0.0000E+00    2.500000E+09  0.00800  7.872E-05    0   0.5600   age150_m52            0.0000     1.9657E+00     5.7993  -1.0000    93.8617
 31      0.0000     0.0000E+00    0.0000E+00    4.250000E+09  0.00800  4.336E-05    0   0.5426   age158_m52            0.0000     2.0520E+00     5.8962  -1.0000    92.3266
 32      0.0000     0.0000E+00    0.0000E+00    6.250000E+09  0.00800  3.159E-05    0   0.5319   age166_m52            0.0000     4.0106E+00     8.6085  -1.0000    84.1199
 33      0.0000     0.0000E+00    0.0000E+00    1.300000E+10  0.00800  1.361E-05    0   0.5073   age193_m52            0.0000     1.1565E+01    15.2455  -1.0000    66.8857
 34      0.0000     0.0000E+00    0.0000E+00    1.800000E+10  0.00800  9.886E-06    0   0.4990   age213_m52            0.0000     1.3524E+01    16.5495  -1.0000    63.2195
 35      0.0000     0.0000E+00    0.0000E+00    1.000000E+06  0.02000  1.544E-02    0   1.0000   age020_m62            0.0000     1.5392E+00     4.7978   2.1641    90.9940
 36      0.0000     0.0000E+00    0.0000E+00    3.160000E+06  0.02000  3.762E-02    0   0.9858   age045_m62            0.0000     1.5123E+00     4.7809   2.1048    91.7246
 37      0.0000     0.0000E+00    0.0000E+00    5.010000E+06  0.02000  3.296E-02    0   0.9342   age055_m62            0.0000     9.1491E-01     3.5261   1.7133    96.3323
 38      0.0000     0.0000E+00    0.0000E+00    8.710000E+06  0.02000  1.154E-02    0   0.8861   age067_m62            0.0000     3.3306E+00     7.6849   0.5347   111.6807
 39      0.0000     0.0000E+00    0.0000E+00    1.445000E+07  0.02000  7.663E-03    0   0.8472   age078_m62            0.0000     1.4601E+00     5.0301   0.7943   107.6916
 40      0.0000     0.0000E+00    0.0000E+00    2.512000E+07  0.02000  4.532E-03    0   0.8099   age090_m62            0.0000     1.6049E+00     5.2974   0.7777   107.9133
 41      0.0000     0.0000E+00    0.0000E+00    5.500000E+07  0.02000  2.733E-03    0   0.7595   age110_m62            0.0000     6.9414E-01     3.4511   0.8291   105.7244
 42      0.0000     0.0000E+00    0.0000E+00    1.609000E+08  0.02000  1.369E-03    0   0.6985   age120_m62            0.0000     5.2490E-01     2.8830   0.6876   107.6920
 43      0.0000     0.0000E+00    0.0000E+00    2.861200E+08  0.02000  9.013E-04    0   0.6714   age125_m62            0.0000     5.7663E-01     3.0766   0.4449   110.3816
 44      0.0000     0.0000E+00    0.0000E+00    5.088000E+08  0.02000  5.028E-04    0   0.6449   age130_m62            0.0000     7.1008E-01     3.4037   0.1128   110.9403
 45      0.0000     0.0000E+00    0.0000E+00    9.047900E+08  0.02000  2.428E-04    0   0.6179   age135_m62            0.0000     8.1812E-01     3.6173  -0.4392   108.5226
 46      0.0000     0.0000E+00    0.0000E+00    1.434000E+09  0.02000  1.263E-04    0   0.5908   age139_m62            0.0000     1.1025E+00     4.0020  -0.8642   105.9260
 47      0.0000     0.0000E+00    0.0000E+00    2.500000E+09  0.02000  5.985E-05    0   0.5673   age150_m62            0.0000     2.2006E+00     6.1481  -1.0000    94.1405
 48      0.0000     0.0000E+00    0.0000E+00    4.250000E+09  0.02000  3.271E-05    0   0.5468   age158_m62            0.0000     5.3536E+00    10.0803  -1.0000    81.0714
 49      0.0000     0.0000E+00    0.0000E+00    1.000000E+10  0.02000  1.360E-05    0   0.5167   age181_m62            0.0000     1.0931E+01    14.8530  -1.0000    68.4902
 50      0.0000     0.0000E+00    0.0000E+00    1.800000E+10  0.02000  7.124E-06    0   0.5013   age213_m62            0.0000     1.4921E+01    17.4933  -1.0000    61.4577
 51      0.0000     0.0000E+00    0.0000E+00    1.000000E+06  0.05000  2.592E-02    0   0.9998   age020_m72            0.0000     1.6110E+00     4.9304   2.1559    90.9902
 52      0.0000     0.0000E+00    0.0000E+00    3.160000E+06  0.05000  4.845E-02    0   0.9577   age045_m72            0.0000     1.2924E+00     4.3370   1.9874    92.9968
 53      0.0000     0.0000E+00    0.0000E+00    5.010000E+06  0.05000  3.072E-02    0   0.9147   age055_m72            0.0000     1.4044E+00     4.7421   1.4361   100.9526
 54      0.0000     0.0000E+00    0.0000E+00    6.610000E+06  0.05000  1.455E-02    0   0.8877   age061_m72            0.0000     6.7666E+00    10.3872   0.5731   114.1673
 55      0.0000     0.0000E+00    0.0000E+00    1.000000E+07  0.05000  9.074E-03    0   0.8524   age070_m72            0.0000     2.0292E+00     5.4534   1.6421   100.0844
 56      0.0000     0.0000E+00    0.0000E+00    2.512000E+07  0.05000  4.250E-03    0   0.7902   age090_m72            0.0000     1.4594E+00     4.7026   1.3090   103.2887
 57      0.0000     0.0000E+00    0.0000E+00    4.000000E+07  0.05000  3.087E-03    0   0.7618   age104_m72            0.0000     1.5649E+00     4.8157   1.0628   105.9502
 58      0.0000     0.0000E+00    0.0000E+00    1.015200E+08  0.05000  1.700E-03    0   0.7096   age116_m72            0.0000     6.7746E-01     3.3060   0.8149   108.0787
 59      0.0000     0.0000E+00    0.0000E+00    2.861200E+08  0.05000  7.384E-04    0   0.6633   age125_m72            0.0000     6.3479E-01     3.1468   0.3353   110.7048
 60     47.3022     8.9112E+01    8.7575E+01    5.088000E+08  0.05000  3.819E-04    0   0.6372   age130_m72            0.0000     7.2804E-01     3.4138  -0.1133   110.1268
 61      0.0000     0.0000E+00    0.0000E+00    9.047900E+08  0.05000  1.676E-04    0   0.6110   age135_m72            0.0000     1.4142E+00     4.6788  -0.7410   104.7602
 62      0.0000     0.0000E+00    0.0000E+00    1.434000E+09  0.05000  8.837E-05    0   0.5874   age139_m72            0.0000     2.3915E+00     6.4594  -1.0000    95.4756
 63      0.0000     0.0000E+00    0.0000E+00    2.500000E+09  0.05000  4.233E-05    0   0.5598   age150_m72            0.0000     5.4640E+00    10.1956  -1.0000    81.7489
 64      0.0000     0.0000E+00    0.0000E+00    6.250000E+09  0.05000  1.435E-05    0   0.5249   age166_m72            0.0000     1.2815E+01    16.1214  -1.0000    65.0955
 65      0.0000     0.0000E+00    0.0000E+00    1.300000E+10  0.05000  6.513E-06    0   0.5036   age193_m72            0.0000     1.8618E+01    19.5299  -1.0000    57.4128
 66      0.0000     0.0000E+00    0.0000E+00    1.800000E+10  0.05000  4.527E-06    0   0.4945   age213_m72            0.0000     2.2248E+01    21.3553  -1.0000    52.9812


## Synthesis Results - Average & Chains ##

# j      x_j: min, <> & last-chain-values for 1 ...  7 chains
  1      0.0000      0.0732      0.0000      0.0000      0.0000      0.0000      0.0000      0.0000      0.0000
  2      4.8408      0.4487      0.0000      1.0173      0.0000      0.1248      0.0000      1.2106      0.0000
  3      0.0000      0.2511      0.0000      0.0000      0.0000      0.0000      0.0000      0.1316      0.0000
  4      3.4372      0.6697      1.0527      0.4776      0.0000      0.9123      1.9862      0.0827      0.8174
  5      0.0012      0.3097      0.1084      1.0983      0.0000      0.0309      0.0000      0.0000      0.8351
  6      0.7818      0.3874      0.8770      0.6942      0.0000      0.0000      0.0000      0.9527      0.8403
  7      0.0000      1.0282      0.0000      0.0000      0.5792      0.0000      1.9498      3.1638      1.0093
  8      0.0000      1.3994      1.1345      0.0000      0.5901      0.0000      0.6661      0.0000      0.6433
  9      3.2579      2.8109      3.2070      4.6719      1.7444      3.6674      3.0318      2.7939      4.0028
 10     28.6867     14.6417     20.0645      8.6287     18.4320     19.2431     16.1227     16.7076     14.4039
 11      0.0000      0.1663      0.0000      0.0763      0.0965      0.0000      0.0000      0.1239      0.0000
 12      0.0000      0.2672      0.0000      0.3088      0.2316      0.0000      0.1655      0.0705      0.0000
 13      0.0000      0.0190      0.0000      0.0000      0.0000      0.0000      0.0000      0.0000      0.0000
 14      0.0000      0.0044      0.0000      0.0000      0.0000      0.0000      0.0000      0.0000      0.0000
 15      0.0000      0.0107      0.0000      0.0000      0.0000      0.0000      0.0000      0.0000      0.0028
 16      0.0000      0.0106      0.0000      0.0000      0.0000      0.0000      0.0000      0.0000      0.0000
 17      0.0000      0.0032      0.0000      0.0000      0.0000      0.0000      0.0000      0.0000      0.0000
 18      0.0000      0.1688      0.0000      0.0827      0.0000      0.0000      0.3825      0.0000      0.0000
 19      0.0000      0.0831      0.1850      0.0019      0.0000      0.0000      0.0000      0.0000      0.0000
 20      4.1351      1.4185      2.0700      1.9220      1.1376      2.2212      3.2680      0.0000      1.3398
 21     14.9254     25.6594     24.8505     31.2895     25.1364     26.3014     24.0263     27.5013     25.8416
 22      0.0013      0.2539      1.1556      0.8489      0.0000      0.0000      0.1602      0.0000      0.0000
 23      0.0000      0.2498      0.8215      0.0297      1.4682      0.0000      0.0000      0.0000      0.1714
 24      0.0000      0.3170      0.5037      0.0000      0.3223      0.8042      0.0000      0.0000      0.2691
 25      0.0069      0.4144      0.0000      0.4221      0.0000      0.0000      0.2755      0.0000      0.0000
 26      0.0000      1.7577      0.0000      0.0000      1.3785      0.0000      2.7721      2.0972      2.4519
 27      0.0000      0.3443      0.0000      0.0000      0.2883      0.3156      0.0000      0.0000      0.0000
 28      0.0000      0.0399      0.0000      0.0000      0.0000      0.0000      0.0000      0.0000      0.0000
 29      0.0000      0.0055      0.0000      0.0000      0.0000      0.0000      0.0000      0.0000      0.0000
 30      0.0000      0.0019      0.0000      0.0000      0.0000      0.0000      0.0000      0.0000      0.0000
 31      0.0000      0.0116      0.0000      0.0000      0.0000      0.0000      0.0000      0.0000      0.0000
 32      0.0000      0.0058      0.0000      0.0000      0.0000      0.0000      0.0000      0.0000      0.0000
 33      0.0000      0.0020      0.0000      0.0271      0.0000      0.0000      0.0000      0.0000      0.0000
 34      0.0000      0.0004      0.0000      0.0000      0.0000      0.0000      0.0000      0.0000      0.0000
 35      0.0000      0.1152      0.6065      0.3160      0.0000      0.0000      0.0761      0.0000      0.0000
 36      0.0000      0.1063      0.2821      0.0000      0.2225      0.0000      0.0000      0.0000      0.0000
 37      0.0000      0.8862      0.0000      0.0000      4.0147      1.1490      0.6853      0.8938      0.0000
 38      0.0000      0.0857      0.0478      0.0000      0.0000      0.0000      0.0000      0.0000      0.0000
 39      0.0000      0.1447      0.0000      0.0000      0.0000      0.0000      0.0000      0.0000      0.0000
 40      0.0000      0.1431      0.0000      0.0000      0.0000      0.0000      0.0000      0.0000      0.0000
 41      0.0000      0.2645      0.0000      0.0000      0.8290      0.0000      0.1465      0.0000      0.1517
 42      0.0000      0.8812      0.5887      0.0064      0.6878      0.4192      0.4775      0.0000      0.9961
 43      0.0000      1.0611      0.3722      0.0000      0.0000      0.0027      0.9896      0.3703      0.5350
 44      0.0000     10.1651      6.1295     11.4880      9.4049     13.1759     10.6089      8.9432     10.1271
 45      0.0000      0.0554      0.0869      0.2730      0.0000      0.0000      0.0370      0.0000      0.0068
 46      0.0000      0.0254      0.0000      0.0000      0.0000      0.0000      0.0000      0.0000      0.0000
