###################################################################
## OUTPUT of StarlightChains_v04.for    [Cid@UFSC - 01/Apr/2007] ##
###################################################################

## Some input info
2007R.txt                                [arq_obs]
Base.CB07.vall.4m                        [arq_base]
Masks.EmLines.NEW.gm                     [arq_masks]
StCv04.C11.config                        [arq_config]
   66                                    [N_base]
    0                                    [N_YAV_components = # of components with extra extinction!]
    0                                    [i_FitPowerLaw (1/0 = Yes/No)]
-9.99                                    [alpha_PowerLaw]
CCM                                      [red_law_option]
 1.458241                                [q_norm = A(l_norm)/A(V)]

## (Re)Sampling Parameters
 3741.00                                 [l_ini (A)]
 7218.00                                 [l_fin (A)]
    1.00                                 [dl    (A)]     (OBS: dl_cushion =    50.00 A)

## Normalization info
 4020.00                                 [l_norm (A) - for base]
 4010.00                                 [llow_norm (A) - window for f_obs]
 4060.00                                 [lupp_norm (A) - window for f_obs]
1.697458E-17                             [fobs_norm (in input units)]

## S/N
 3691.00                                 [llow_SN (A) - window for S/N]
 7268.00                                 [lupp_SN (A) - window for S/N]
   4.714                                 [S/N in S/N window]
   4.410                                 [S/N in norm. window]
  10.000                                 [S/N_err in S/N window]
   9.355                                 [S/N_err in norm. window]
  1.0000                                 [fscale_chi2]

## etc...
    -2007339                             [idum_orig]
  2112                                   [NOl_eff]
  1914                                   [Nl_eff]
   198    NSIGMA                         [Ntot_cliped & clip_method]
   654920                                [Nglobal_steps]
   7                                     [N_chains]
  11                                     [NEX0s_base = N_base in EX0s-fits]
 0   0   1       14   2.0   5.632E+01    [Clip-Bug, RC-Crash & Burn-In warning-flags, n_censored_weights, wei_nsig_threshold & wei_limit]
    10      9.905      9.401      0.505  [idt_all, wdt_TotTime, wdt_UsrTime & wdt_SysTime (sec)]

## Synthesis Results - Best model ##

 1.04335E+00                             [chi2/Nl_eff]
     8.04213                             [adev (%)]

    93.68687                             [sum-of-x (%)]
 8.54990E-18                             [Flux_tot (units of input spectrum!)]
 9.28484E-13                             [Mini_tot (???)]
 4.66147E-13                             [Mcor_tot (???)]

 119.17                                  [v0_min  (km/s)]
 193.50                                  [vd_min  (km/s)]
-0.4621                                  [AV_min  (mag)]
 0.0000                                  [YAV_min (mag)]

# j     x_j(%)      Mini_j(%)     Mcor_j(%)     age_j(yr)     Z_j      (L/M)_j    YAV?  Mstars   component_j        a/Fe...       SSP_chi2r SSP_adev(%)   SSP_AV   SSP_x(%)
  1      0.0000     0.0000E+00    0.0000E+00    1.000000E+06  0.00400  1.094E-02    0   1.0000   age020_m42            0.0000     3.3855E+00    12.6319   3.8360    70.7427
  2      0.0000     0.0000E+00    0.0000E+00    3.160000E+06  0.00400  4.007E-02    0   0.9999   age045_m42            0.0000     2.8051E+00    11.6476   3.0616    77.4670
  3      0.0000     0.0000E+00    0.0000E+00    5.010000E+06  0.00400  2.539E-02    0   0.9488   age055_m42            0.0000     3.0335E+00    12.0097   3.3984    74.9545
  4      0.0000     0.0000E+00    0.0000E+00    6.610000E+06  0.00400  2.620E-02    0   0.9220   age061_m42            0.0000     2.7769E+00    11.5545   2.9841    77.8717
  5      0.0000     0.0000E+00    0.0000E+00    1.000000E+07  0.00400  1.322E-02    0   0.8862   age070_m42            0.0000     3.0476E+00    12.1580   2.7265    78.9384
  6      0.0000     0.0000E+00    0.0000E+00    1.445000E+07  0.00400  7.883E-03    0   0.8571   age078_m42            0.0000     3.1756E+00    12.3550   3.0652    76.4627
  7      0.0000     0.0000E+00    0.0000E+00    2.512000E+07  0.00400  5.251E-03    0   0.8174   age090_m42            0.0000     3.0761E+00    12.2631   2.5972    79.4003
  8      0.0000     0.0000E+00    0.0000E+00    4.000000E+07  0.00400  3.649E-03    0   0.7851   age104_m42            0.0000     2.9275E+00    11.9946   2.3569    80.5379
  9      0.0000     0.0000E+00    0.0000E+00    5.500000E+07  0.00400  3.098E-03    0   0.7629   age110_m42            0.0000     2.7366E+00    11.5484   2.4953    81.0390
 10      0.0000     0.0000E+00    0.0000E+00    1.015200E+08  0.00400  2.228E-03    0   0.7207   age116_m42            0.0000     2.6124E+00    11.2619   2.5018    81.6551
 11      0.0000     0.0000E+00    0.0000E+00    2.861200E+08  0.00400  1.093E-03    0   0.6648   age125_m42            0.0000     2.5150E+00    11.2097   1.9312    84.5595
 12      0.0000     0.0000E+00    0.0000E+00    5.088000E+08  0.00400  6.597E-04    0   0.6365   age130_m42            0.0000     2.2799E+00    10.7064   1.8942    86.1685
 13      0.0000     0.0000E+00    0.0000E+00    1.434000E+09  0.00400  2.132E-04    0   0.5798   age139_m42            0.0000     1.8258E+00     9.8440   0.8828    89.3874
 14      0.0000     0.0000E+00    0.0000E+00    4.250000E+09  0.00400  5.895E-05    0   0.5377   age158_m42            0.0000     1.5715E+00     9.3026   0.4211    86.6052
 15      0.0000     0.0000E+00    0.0000E+00    7.500000E+09  0.00400  3.510E-05    0   0.5212   age171_m42            0.0000     1.4672E+00     9.0655   0.2241    86.4493
 16      0.0000     0.0000E+00    0.0000E+00    1.300000E+10  0.00400  2.005E-05    0   0.5034   age193_m42            0.0000     1.4008E+00     8.9047   0.0532    86.3043
 17      0.0000     0.0000E+00    0.0000E+00    1.800000E+10  0.00400  1.525E-05    0   0.4967   age213_m42            0.0000     1.4306E+00     8.9634   0.0319    85.8222
 18      0.0000     0.0000E+00    0.0000E+00    1.000000E+06  0.00800  1.238E-02    0   1.0000   age020_m52            0.0000     3.3890E+00    12.6257   3.8315    70.8971
 19      0.0000     0.0000E+00    0.0000E+00    3.160000E+06  0.00800  3.074E-02    0   0.9966   age045_m52            0.0000     3.3284E+00    12.5064   3.7465    71.7887
 20      0.0000     0.0000E+00    0.0000E+00    5.010000E+06  0.00800  2.668E-02    0   0.9443   age055_m52            0.0000     3.1167E+00    12.1471   3.4870    74.0537
 21      0.0000     0.0000E+00    0.0000E+00    6.610000E+06  0.00800  2.136E-02    0   0.9177   age061_m52            0.0000     2.8772E+00    11.8939   2.2121    80.2825
 22      0.0000     0.0000E+00    0.0000E+00    1.000000E+07  0.00800  1.215E-02    0   0.8827   age070_m52            0.0000     3.2266E+00    12.5536   2.9238    78.2173
 23      0.0000     0.0000E+00    0.0000E+00    1.445000E+07  0.00800  8.717E-03    0   0.8552   age078_m52            0.0000     3.1338E+00    12.2981   3.0261    77.6881
 24      0.0000     0.0000E+00    0.0000E+00    2.512000E+07  0.00800  5.592E-03    0   0.8162   age090_m52            0.0000     3.0613E+00    12.2640   2.6616    80.3872
 25      0.0000     0.0000E+00    0.0000E+00    4.000000E+07  0.00800  3.896E-03    0   0.7841   age104_m52            0.0000     2.8707E+00    11.8851   2.5616    81.5140
 26      0.0000     0.0000E+00    0.0000E+00    1.015200E+08  0.00800  2.148E-03    0   0.7226   age116_m52            0.0000     2.6199E+00    11.3435   2.4744    82.2225
 27      0.0000     0.0000E+00    0.0000E+00    2.861200E+08  0.00800  9.925E-04    0   0.6683   age125_m52            0.0000     2.2570E+00    10.6251   1.9600    86.9683
 28     20.0242     6.2661E-01    7.6608E-01    9.047900E+08  0.00800  3.141E-04    0   0.6138   age135_m52            0.0000     1.5992E+00     9.4483   1.1040    92.9583
 29      0.0000     0.0000E+00    0.0000E+00    1.434000E+09  0.00800  1.719E-04    0   0.5853   age139_m52            0.0000     1.5520E+00     9.2870   0.5274    90.9633
 30      0.0000     0.0000E+00    0.0000E+00    2.500000E+09  0.00800  7.872E-05    0   0.5600   age150_m52            0.0000     1.3544E+00     8.7853   0.2327    89.3993
 31      0.0000     0.0000E+00    0.0000E+00    4.250000E+09  0.00800  4.336E-05    0   0.5426   age158_m52            0.0000     1.3521E+00     8.7862   0.2145    88.6483
 32      0.0000     0.0000E+00    0.0000E+00    6.250000E+09  0.00800  3.159E-05    0   0.5319   age166_m52            0.0000     1.2364E+00     8.5053  -0.0066    89.4067
 33      0.0000     0.0000E+00    0.0000E+00    1.300000E+10  0.00800  1.361E-05    0   0.5073   age193_m52            0.0000     1.1379E+00     8.2449  -0.5005    89.8352
 34      0.0000     0.0000E+00    0.0000E+00    1.800000E+10  0.00800  9.886E-06    0   0.4990   age213_m52            0.0000     1.1012E+00     8.1739  -0.6254    90.0580
 35      0.0000     0.0000E+00    0.0000E+00    1.000000E+06  0.02000  1.544E-02    0   1.0000   age020_m62            0.0000     3.4094E+00    12.6518   3.8292    71.0070
 36      0.0000     0.0000E+00    0.0000E+00    3.160000E+06  0.02000  3.762E-02    0   0.9858   age045_m62            0.0000     3.3789E+00    12.5882   3.7634    71.8139
 37      0.0000     0.0000E+00    0.0000E+00    5.010000E+06  0.02000  3.296E-02    0   0.9342   age055_m62            0.0000     2.9061E+00    11.7400   3.3445    76.3669
 38      0.0000     0.0000E+00    0.0000E+00    8.710000E+06  0.02000  1.154E-02    0   0.8861   age067_m62            0.0000     4.2902E+00    14.9629   2.4346    78.7053
 39      0.0000     0.0000E+00    0.0000E+00    1.445000E+07  0.02000  7.663E-03    0   0.8472   age078_m62            0.0000     3.4114E+00    13.0789   2.5853    79.7129
 40      0.0000     0.0000E+00    0.0000E+00    2.512000E+07  0.02000  4.532E-03    0   0.8099   age090_m62            0.0000     3.4323E+00    13.1304   2.5780    79.5744
 41      0.0000     0.0000E+00    0.0000E+00    5.500000E+07  0.02000  2.733E-03    0   0.7595   age110_m62            0.0000     2.8998E+00    11.8759   2.5424    80.9557
 42      0.0000     0.0000E+00    0.0000E+00    1.609000E+08  0.02000  1.369E-03    0   0.6985   age120_m62            0.0000     2.5392E+00    11.0930   2.3451    84.5471
 43      0.0000     0.0000E+00    0.0000E+00    2.861200E+08  0.02000  9.013E-04    0   0.6714   age125_m62            0.0000     2.3199E+00    10.6818   2.0664    88.0599
 44      1.6608     3.2465E-02    4.1703E-02    5.088000E+08  0.02000  5.028E-04    0   0.6449   age130_m62            0.0000     1.8568E+00     9.8576   1.6467    92.0749
 45      0.0000     0.0000E+00    0.0000E+00    9.047900E+08  0.02000  2.428E-04    0   0.6179   age135_m62            0.0000     1.4580E+00     9.0359   1.0346    92.6505
 46      0.0000     0.0000E+00    0.0000E+00    1.434000E+09  0.02000  1.263E-04    0   0.5908   age139_m62            0.0000     1.3642E+00     8.7779   0.5827    91.5958
 47      0.0000     0.0000E+00    0.0000E+00    2.500000E+09  0.02000  5.985E-05    0   0.5673   age150_m62            0.0000     1.2353E+00     8.4679   0.1937    91.2136
 48      0.0000     0.0000E+00    0.0000E+00    4.250000E+09  0.02000  3.271E-05    0   0.5468   age158_m62            0.0000     1.1147E+00     8.1847  -0.1406    91.5799
 49      0.0000     0.0000E+00    0.0000E+00    1.000000E+10  0.02000  1.360E-05    0   0.5167   age181_m62            0.0000     1.0712E+00     8.1155  -0.5183    92.4298
 50     72.0019     9.9341E+01    9.9192E+01    1.800000E+10  0.02000  7.124E-06    0   0.5013   age213_m62            0.0000     1.1054E+00     8.3075  -0.7481    92.5086
 51      0.0000     0.0000E+00    0.0000E+00    1.000000E+06  0.05000  2.592E-02    0   0.9998   age020_m72            0.0000     3.4913E+00    12.7818   3.8278    70.7858
 52      0.0000     0.0000E+00    0.0000E+00    3.160000E+06  0.05000  4.845E-02    0   0.9577   age045_m72            0.0000     3.1732E+00    12.2066   3.6269    73.4416
 53      0.0000     0.0000E+00    0.0000E+00    5.010000E+06  0.05000  3.072E-02    0   0.9147   age055_m72            0.0000     3.3531E+00    12.7651   3.1829    76.2625
 54      0.0000     0.0000E+00    0.0000E+00    6.610000E+06  0.05000  1.455E-02    0   0.8877   age061_m72            0.0000     4.8672E+00    16.2478   2.5410    78.3561
 55      0.0000     0.0000E+00    0.0000E+00    1.000000E+07  0.05000  9.074E-03    0   0.8524   age070_m72            0.0000     3.3626E+00    12.8200   3.3925    75.6516
 56      0.0000     0.0000E+00    0.0000E+00    2.512000E+07  0.05000  4.250E-03    0   0.7902   age090_m72            0.0000     3.1617E+00    12.4667   3.0557    78.1184
 57      0.0000     0.0000E+00    0.0000E+00    4.000000E+07  0.05000  3.087E-03    0   0.7618   age104_m72            0.0000     3.1382E+00    12.4675   2.8183    79.8047
 58      0.0000     0.0000E+00    0.0000E+00    1.015200E+08  0.05000  1.700E-03    0   0.7096   age116_m72            0.0000     2.7053E+00    11.4899   2.5049    83.6550
 59      0.0000     0.0000E+00    0.0000E+00    2.861200E+08  0.05000  7.384E-04    0   0.6633   age125_m72            0.0000     2.0954E+00    10.2413   1.9143    90.0608
 60      0.0000     0.0000E+00    0.0000E+00    5.088000E+08  0.05000  3.819E-04    0   0.6372   age130_m72            0.0000     1.6229E+00     9.3105   1.3790    93.1637
 61      0.0000     0.0000E+00    0.0000E+00    9.047900E+08  0.05000  1.676E-04    0   0.6110   age135_m72            0.0000     1.2818E+00     8.5270   0.6481    92.8922
 62      0.0000     0.0000E+00    0.0000E+00    1.434000E+09  0.05000  8.837E-05    0   0.5874   age139_m72            0.0000     1.2062E+00     8.3648   0.1856    92.8777
 63      0.0000     0.0000E+00    0.0000E+00    2.500000E+09  0.05000  4.233E-05    0   0.5598   age150_m72            0.0000     1.0902E+00     8.1292  -0.1517    92.7987
 64      0.0000     0.0000E+00    0.0000E+00    6.250000E+09  0.05000  1.435E-05    0   0.5249   age166_m72            0.0000     1.0841E+00     8.1853  -0.6216    92.2893
 65      0.0000     0.0000E+00    0.0000E+00    1.300000E+10  0.05000  6.513E-06    0   0.5036   age193_m72            0.0000     1.1621E+00     8.5423  -0.9254    94.1513
 66      0.0000     0.0000E+00    0.0000E+00    1.800000E+10  0.05000  4.527E-06    0   0.4945   age213_m72            0.0000     1.2796E+00     8.9316  -1.0000    91.2042


## Synthesis Results - Average & Chains ##

# j      x_j: min, <> & last-chain-values for 1 ...  7 chains
  1      0.0000      0.0043      0.0000      0.0000      0.0000      0.0000      0.0000      0.0000      0.0000
  2      0.0000      0.0214      0.0000      0.0000      0.0000      0.0000      0.0000      0.0000      0.0000
  3      0.0000      0.0106      0.0000      0.0000      0.0000      0.0000      0.0000      0.0000      0.0000
  4      0.0000      0.0096      0.0000      0.0000      0.0000      0.0000      0.0000      0.0000      0.0000
  5      0.0000      0.0272      0.1197      0.0000      0.0000      0.0000      0.0000      0.0000      0.0000
  6      0.0000      0.0176      0.0000      0.0000      0.0000      0.0000      0.0000      0.0000      0.0000
  7      0.0000      0.0275      0.0000      0.0000      0.0000      0.0000      0.0000      0.0000      0.0000
  8      0.0000      0.0191      0.0000      0.0000      0.0000      0.0000      0.0000      0.0000      0.0000
  9      0.0000      0.0449      0.0000      0.0000      0.0000      0.1691      0.0000      0.0000      0.0000
 10      0.0000      0.0238      0.0000      0.0000      0.0000      0.0000      0.0000      0.0000      0.0000
 11      0.0000      0.0880      0.0000      0.3670      0.0000      0.0000      0.0000      0.0000      0.0000
 12      0.0000      0.1283      0.0000      0.0505      0.0000      0.0000      0.2332      0.0000      0.0000
 13      0.0000      0.5241      2.2954      0.0000      0.0000      1.3309      0.0000      0.0000      0.0000
 14      0.0000      0.4292      0.9955      0.0000      0.0000      0.0000      0.0000      0.8082      0.7442
 15      0.0000      0.3862      0.0000      0.0000      0.0000      0.0000      0.0000      0.0000      0.0000
 16      0.0000      0.4672      0.1966      0.0093      0.6992      0.2240      0.0000      0.0000      0.0000
 17      0.0000      0.6973      0.0000      0.0000      0.0000      0.0000      0.0000      0.0000      0.0000
 18      0.0000      0.0047      0.0000      0.0000      0.0000      0.0000      0.0000      0.0000      0.0000
 19      0.0000      0.0136      0.0000      0.0000      0.0000      0.0000      0.0000      0.0000      0.0000
 20      0.0000      0.0222      0.0000      0.0000      0.0000      0.0000      0.0000      0.0000      0.0000
 21      0.0000      0.0207      0.0000      0.0000      0.0000      0.0000      0.0000      0.0000      0.0000
 22      0.0000      0.0195      0.0000      0.0000      0.0000      0.0000      0.0000      0.0000      0.0000
 23      0.0000      0.0123      0.1283      0.0000      0.1176      0.0000      0.0000      0.0000      0.0000
 24      0.0000      0.0238      0.0000      0.0000      0.0000      0.0412      0.0000      0.0000      0.0000
 25      0.0000      0.0197      0.0000      0.0000      0.0000      0.0000      0.0000      0.0000      0.0000
 26      0.0000      0.0478      0.0000      0.0000      0.0000      0.0000      0.0000      0.0000      0.0000
 27      0.0000      0.4076      0.0000      0.0000      0.0511      0.0000      0.0000      0.0000      1.3368
 28     20.0242      3.4848      5.1323      2.6716      3.7345      3.6824      7.7314      5.1592      4.3033
 29      0.0000      0.7134      0.0000      0.7659      0.0000      0.0000      0.8602      0.2394      0.2743
 30      0.0000      0.7920      0.0466      0.6193      0.0000      0.0000      0.0000      0.3336      0.0000
 31      0.0000      0.3876      0.0000      0.1247      0.0000      0.2002      0.8554      1.5654      0.0000
 32      0.0000      0.9107      2.5358      0.0000      0.0000      0.0000      0.0000      0.9723      0.8258
 33      0.0000      2.1286      0.0000      0.0000      0.7187      2.3796      0.0000      2.8986      0.2324
 34      0.0000      4.7129      0.0000      4.0971      6.5542      5.5590      4.8823      1.0603      3.8505
 35      0.0000      0.0049      0.0000      0.0000      0.0000      0.0000      0.0000      0.0000      0.0000
 36      0.0000      0.0044      0.0000      0.0000      0.0000      0.0000      0.0000      0.0000      0.0000
 37      0.0000      0.0118      0.0000      0.0000      0.0000      0.0000      0.0000      0.0000      0.0000
 38      0.0000      0.0053      0.0000      0.0000      0.0000      0.0000      0.0000      0.0000      0.0000
 39      0.0000      0.0222      0.0000      0.0000      0.0000      0.0000      0.0000      0.0000      0.0000
 40      0.0000      0.0156      0.0000      0.0000      0.0000      0.0000      0.0000      0.0000      0.0000
 41      0.0000      0.0142      0.0000      0.0000      0.0000      0.0000      0.0000      0.0000      0.0000
 42      0.0000      0.1432      0.0000      0.0000      0.3555      0.0242      0.0000      0.0000      0.0000
 43      0.0000      0.1239      0.0000      0.5456      0.0000      0.0000      0.0000      0.0000      0.0000
 44      1.6608      1.9727      2.8874      3.0508      2.9081      3.6730      1.3176      2.0699      2.7177
 45      0.0000      0.6569      0.0000      1.1537      2.2928      0.0000      1.1327      2.1697      0.0000
 46      0.0000      0.8234      1.3228      0.0000      0.0000      0.0000      2.4493      0.0000      0.0000
