###################################################################
## OUTPUT of StarlightChains_v04.for    [Cid@UFSC - 01/Apr/2007] ##
###################################################################

## Some input info
2007ax.txt                               [arq_obs]
Base.CB07.vall.4m                        [arq_base]
Masks.EmLines.NEW.gm                     [arq_masks]
StCv04.C11.config                        [arq_config]
   66                                    [N_base]
    0                                    [N_YAV_components = # of components with extra extinction!]
    0                                    [i_FitPowerLaw (1/0 = Yes/No)]
-9.99                                    [alpha_PowerLaw]
CCM                                      [red_law_option]
 1.458241                                [q_norm = A(l_norm)/A(V)]

## (Re)Sampling Parameters
 3741.00                                 [l_ini (A)]
 7218.00                                 [l_fin (A)]
    1.00                                 [dl    (A)]     (OBS: dl_cushion =    50.00 A)

## Normalization info
 4020.00                                 [l_norm (A) - for base]
 4010.00                                 [llow_norm (A) - window for f_obs]
 4060.00                                 [lupp_norm (A) - window for f_obs]
1.608316E-15                             [fobs_norm (in input units)]

## S/N
 3691.00                                 [llow_SN (A) - window for S/N]
 7268.00                                 [lupp_SN (A) - window for S/N]
   4.699                                 [S/N in S/N window]
   3.522                                 [S/N in norm. window]
   9.644                                 [S/N_err in S/N window]
   7.229                                 [S/N_err in norm. window]
  1.0000                                 [fscale_chi2]

## etc...
    -2007328                             [idum_orig]
  2391                                   [NOl_eff]
  2391                                   [Nl_eff]
     0    NSIGMA                         [Ntot_cliped & clip_method]
   775950                                [Nglobal_steps]
   7                                     [N_chains]
  14                                     [NEX0s_base = N_base in EX0s-fits]
 0   0   1       15   2.0   1.240E+01    [Clip-Bug, RC-Crash & Burn-In warning-flags, n_censored_weights, wei_nsig_threshold & wei_limit]
    11      9.990      9.480      0.509  [idt_all, wdt_TotTime, wdt_UsrTime & wdt_SysTime (sec)]

## Synthesis Results - Best model ##

 1.34711E-01                             [chi2/Nl_eff]
     3.47953                             [adev (%)]

   106.02095                             [sum-of-x (%)]
 1.78543E-15                             [Flux_tot (units of input spectrum!)]
 8.30151E-11                             [Mini_tot (???)]
 4.34963E-11                             [Mcor_tot (???)]

-170.18                                  [v0_min  (km/s)]
 272.87                                  [vd_min  (km/s)]
 0.0343                                  [AV_min  (mag)]
 0.0000                                  [YAV_min (mag)]

# j     x_j(%)      Mini_j(%)     Mcor_j(%)     age_j(yr)     Z_j      (L/M)_j    YAV?  Mstars   component_j        a/Fe...       SSP_chi2r SSP_adev(%)   SSP_AV   SSP_x(%)
  1      0.0000     0.0000E+00    0.0000E+00    1.000000E+06  0.00400  1.094E-02    0   1.0000   age020_m42            0.0000     6.5772E-01     8.5970   3.7716    94.9611
  2      0.0000     0.0000E+00    0.0000E+00    3.160000E+06  0.00400  4.007E-02    0   0.9999   age045_m42            0.0000     6.5492E-01     8.0643   3.0510   101.0918
  3      0.0000     0.0000E+00    0.0000E+00    5.010000E+06  0.00400  2.539E-02    0   0.9488   age055_m42            0.0000     6.5691E-01     8.2849   3.3651    98.9240
  4      0.0000     0.0000E+00    0.0000E+00    6.610000E+06  0.00400  2.620E-02    0   0.9220   age061_m42            0.0000     6.6816E-01     8.1622   2.9688   101.6687
  5      0.0000     0.0000E+00    0.0000E+00    1.000000E+07  0.00400  1.322E-02    0   0.8862   age070_m42            0.0000     8.0642E-01     9.4155   2.6209   106.6785
  6      0.0000     0.0000E+00    0.0000E+00    1.445000E+07  0.00400  7.883E-03    0   0.8571   age078_m42            0.0000     7.9184E-01     9.3793   2.9534   103.8024
  7      0.0000     0.0000E+00    0.0000E+00    2.512000E+07  0.00400  5.251E-03    0   0.8174   age090_m42            0.0000     8.4901E-01     9.6826   2.4798   107.7449
  8      0.0000     0.0000E+00    0.0000E+00    4.000000E+07  0.00400  3.649E-03    0   0.7851   age104_m42            0.0000     8.1714E-01     9.4005   2.2587   108.3357
  9      0.0000     0.0000E+00    0.0000E+00    5.500000E+07  0.00400  3.098E-03    0   0.7629   age110_m42            0.0000     7.5651E-01     8.8041   2.4428   106.9729
 10      0.0000     0.0000E+00    0.0000E+00    1.015200E+08  0.00400  2.228E-03    0   0.7207   age116_m42            0.0000     7.1917E-01     8.4724   2.4826   106.3022
 11      0.0000     0.0000E+00    0.0000E+00    2.861200E+08  0.00400  1.093E-03    0   0.6648   age125_m42            0.0000     8.0595E-01     9.0704   1.8796   111.0265
 12      0.0000     0.0000E+00    0.0000E+00    5.088000E+08  0.00400  6.597E-04    0   0.6365   age130_m42            0.0000     6.9093E-01     8.3808   1.9002   110.5624
 13      0.0000     0.0000E+00    0.0000E+00    1.434000E+09  0.00400  2.132E-04    0   0.5798   age139_m42            0.0000     4.7146E-01     6.8302   0.9367   112.5079
 14      0.0000     0.0000E+00    0.0000E+00    4.250000E+09  0.00400  5.895E-05    0   0.5377   age158_m42            0.0000     2.8434E-01     5.0201   0.5304   106.8613
 15      0.0143     8.2494E-03    8.2060E-03    7.500000E+09  0.00400  3.510E-05    0   0.5212   age171_m42            0.0000     2.3518E-01     4.4312   0.3562   105.6465
 16      7.8318     7.9240E+00    7.6131E+00    1.300000E+10  0.00400  2.005E-05    0   0.5034   age193_m42            0.0000     2.0296E-01     4.0162   0.2031   104.6525
 17      8.0754     1.0742E+01    1.0183E+01    1.800000E+10  0.00400  1.525E-05    0   0.4967   age213_m42            0.0000     2.0687E-01     4.0824   0.1754   104.3686
 18      2.2547     3.6945E-03    7.0512E-03    1.000000E+06  0.00800  1.238E-02    0   1.0000   age020_m52            0.0000     6.5544E-01     8.5892   3.7679    95.1495
 19      0.0000     0.0000E+00    0.0000E+00    3.160000E+06  0.00800  3.074E-02    0   0.9966   age045_m52            0.0000     6.4667E-01     8.4815   3.6949    95.8341
 20      0.0000     0.0000E+00    0.0000E+00    5.010000E+06  0.00800  2.668E-02    0   0.9443   age055_m52            0.0000     6.5046E-01     8.3444   3.4450    98.1682
 21      0.0000     0.0000E+00    0.0000E+00    6.610000E+06  0.00800  2.136E-02    0   0.9177   age061_m52            0.0000     6.6574E-01     8.7498   2.1212   107.9979
 22      0.0000     0.0000E+00    0.0000E+00    1.000000E+07  0.00800  1.215E-02    0   0.8827   age070_m52            0.0000     8.6010E-01     9.9238   2.7790   107.4302
 23      0.0000     0.0000E+00    0.0000E+00    1.445000E+07  0.00800  8.717E-03    0   0.8552   age078_m52            0.0000     7.8134E-01     9.3239   2.9165   105.3296
 24      0.0000     0.0000E+00    0.0000E+00    2.512000E+07  0.00800  5.592E-03    0   0.8162   age090_m52            0.0000     8.5392E-01     9.7207   2.5388   109.2460
 25      0.0000     0.0000E+00    0.0000E+00    4.000000E+07  0.00800  3.896E-03    0   0.7841   age104_m52            0.0000     8.2577E-01     9.3940   2.4634   109.5246
 26      0.0000     0.0000E+00    0.0000E+00    1.015200E+08  0.00800  2.148E-03    0   0.7226   age116_m52            0.0000     7.3844E-01     8.6864   2.4323   107.9690
 27      0.0000     0.0000E+00    0.0000E+00    2.861200E+08  0.00800  9.925E-04    0   0.6683   age125_m52            0.0000     6.8261E-01     8.3265   1.9645   111.6365
 28      0.0000     0.0000E+00    0.0000E+00    9.047900E+08  0.00800  3.141E-04    0   0.6138   age135_m52            0.0000     4.6456E-01     6.6974   1.1930   115.1394
 29      0.0000     0.0000E+00    0.0000E+00    1.434000E+09  0.00800  1.719E-04    0   0.5853   age139_m52            0.0000     3.6856E-01     5.7736   0.6080   113.1502
 30      0.0002     4.9513E-05    5.2919E-05    2.500000E+09  0.00800  7.872E-05    0   0.5600   age150_m52            0.0000     2.2152E-01     4.3290   0.3855   108.2034
 31      0.0000     0.0000E+00    0.0000E+00    4.250000E+09  0.00800  4.336E-05    0   0.5426   age158_m52            0.0000     2.1578E-01     4.2050   0.3710   107.1649
 32      0.0000     0.0000E+00    0.0000E+00    6.250000E+09  0.00800  3.159E-05    0   0.5319   age166_m52            0.0000     1.7546E-01     3.7560   0.1895   106.3371
 33      0.0000     0.0000E+00    0.0000E+00    1.300000E+10  0.00800  1.361E-05    0   0.5073   age193_m52            0.0000     1.3999E-01     3.5031  -0.2514   104.5694
 34      0.0000     0.0000E+00    0.0000E+00    1.800000E+10  0.00800  9.886E-06    0   0.4990   age213_m52            0.0000     1.3980E-01     3.7439  -0.3338   103.0242
 35      0.0000     0.0000E+00    0.0000E+00    1.000000E+06  0.02000  1.544E-02    0   1.0000   age020_m62            0.0000     6.5503E-01     8.6055   3.7643    95.3593
 36      0.0000     0.0000E+00    0.0000E+00    3.160000E+06  0.02000  3.762E-02    0   0.9858   age045_m62            0.0000     6.5099E-01     8.5563   3.7058    96.0946
 37      0.0000     0.0000E+00    0.0000E+00    5.010000E+06  0.02000  3.296E-02    0   0.9342   age055_m62            0.0000     6.3948E-01     8.0355   3.3349    99.7188
 38      0.0000     0.0000E+00    0.0000E+00    8.710000E+06  0.02000  1.154E-02    0   0.8861   age067_m62            0.0000     1.4484E+00    13.7469   2.1057   116.2574
 39      0.0000     0.0000E+00    0.0000E+00    1.445000E+07  0.02000  7.663E-03    0   0.8472   age078_m62            0.0000     1.0094E+00    10.9897   2.3829   111.8193
 40      0.0000     0.0000E+00    0.0000E+00    2.512000E+07  0.02000  4.532E-03    0   0.8099   age090_m62            0.0000     1.0804E+00    11.2746   2.3688   111.7782
 41      0.0000     0.0000E+00    0.0000E+00    5.500000E+07  0.02000  2.733E-03    0   0.7595   age110_m62            0.0000     8.0349E-01     9.3121   2.4442   108.8313
 42      0.0000     0.0000E+00    0.0000E+00    1.609000E+08  0.02000  1.369E-03    0   0.6985   age120_m62            0.0000     7.2965E-01     8.6381   2.3186   110.1592
 43      0.0000     0.0000E+00    0.0000E+00    2.861200E+08  0.02000  9.013E-04    0   0.6714   age125_m62            0.0000     6.7480E-01     8.4058   2.0851   112.4933
 44      0.0000     0.0000E+00    0.0000E+00    5.088000E+08  0.02000  5.028E-04    0   0.6449   age130_m62            0.0000     5.2308E-01     7.4232   1.7449   113.8097
 45      0.0000     0.0000E+00    0.0000E+00    9.047900E+08  0.02000  2.428E-04    0   0.6179   age135_m62            0.0000     3.4246E-01     5.7054   1.1684   112.9073
 46      0.0000     0.0000E+00    0.0000E+00    1.434000E+09  0.02000  1.263E-04    0   0.5908   age139_m62            0.0000     2.5148E-01     4.7030   0.7294   111.1353
 47      0.0000     0.0000E+00    0.0000E+00    2.500000E+09  0.02000  5.985E-05    0   0.5673   age150_m62            0.0000     1.7885E-01     3.8473   0.3946   108.3449
 48      0.0000     0.0000E+00    0.0000E+00    4.250000E+09  0.02000  3.271E-05    0   0.5468   age158_m62            0.0000     1.4109E-01     3.5254   0.1237   106.0339
 49      6.0767     9.0641E+00    8.9386E+00    1.000000E+10  0.02000  1.360E-05    0   0.5167   age181_m62            0.0000     1.4891E-01     4.0621  -0.1893   104.1920
 50      1.7061     4.8581E+00    4.6480E+00    1.800000E+10  0.02000  7.124E-06    0   0.5013   age213_m62            0.0000     1.8242E-01     4.8255  -0.3662   102.0404
 51      0.0000     0.0000E+00    0.0000E+00    1.000000E+06  0.05000  2.592E-02    0   0.9998   age020_m72            0.0000     6.5847E-01     8.6993   3.7524    95.5285
 52      0.0000     0.0000E+00    0.0000E+00    3.160000E+06  0.05000  4.845E-02    0   0.9577   age045_m72            0.0000     6.4155E-01     8.2681   3.5980    96.9522
 53      0.0000     0.0000E+00    0.0000E+00    5.010000E+06  0.05000  3.072E-02    0   0.9147   age055_m72            0.0000     8.8867E-01    10.1024   3.0137   105.7709
 54      0.0000     0.0000E+00    0.0000E+00    6.610000E+06  0.05000  1.455E-02    0   0.8877   age061_m72            0.0000     2.3835E+00    16.8787   2.0984   120.1410
 55      0.0000     0.0000E+00    0.0000E+00    1.000000E+07  0.05000  9.074E-03    0   0.8524   age070_m72            0.0000     1.1284E+00    10.7667   3.1951   105.7179
 56      0.0000     0.0000E+00    0.0000E+00    2.512000E+07  0.05000  4.250E-03    0   0.7902   age090_m72            0.0000     1.0263E+00    10.4120   2.8936   107.5208
 57      0.0000     0.0000E+00    0.0000E+00    4.000000E+07  0.05000  3.087E-03    0   0.7618   age104_m72            0.0000     1.0879E+00    10.7015   2.6534   109.7959
 58      0.0000     0.0000E+00    0.0000E+00    1.015200E+08  0.05000  1.700E-03    0   0.7096   age116_m72            0.0000     8.2375E-01     9.1934   2.4419   110.5472
 59      0.0000     0.0000E+00    0.0000E+00    2.861200E+08  0.05000  7.384E-04    0   0.6633   age125_m72            0.0000     5.9251E-01     7.9024   1.9719   113.1756
 60      0.0000     0.0000E+00    0.0000E+00    5.088000E+08  0.05000  3.819E-04    0   0.6372   age130_m72            0.0000     3.9103E-01     6.3283   1.5092   113.8099
 61      0.0000     0.0000E+00    0.0000E+00    9.047900E+08  0.05000  1.676E-04    0   0.6110   age135_m72            0.0000     2.1353E-01     4.3562   0.8556   110.1516
 62      0.0000     0.0000E+00    0.0000E+00    1.434000E+09  0.05000  8.837E-05    0   0.5874   age139_m72            0.0000     1.6635E-01     3.7883   0.3962   109.8755
 63     61.8334     2.9633E+01    3.1660E+01    2.500000E+09  0.05000  4.233E-05    0   0.5598   age150_m72            0.0000     1.3877E-01     3.6101   0.1342   106.5112
 64     11.1747     1.5797E+01    1.5826E+01    6.250000E+09  0.05000  1.435E-05    0   0.5249   age166_m72            0.0000     1.5895E-01     4.2566  -0.2739   103.2704
 65      7.0537     2.1970E+01    2.1116E+01    1.300000E+10  0.05000  6.513E-06    0   0.5036   age193_m72            0.0000     2.1807E-01     5.3220  -0.5126   102.5625
 66      0.0000     0.0000E+00    0.0000E+00    1.800000E+10  0.05000  4.527E-06    0   0.4945   age213_m72            0.0000     2.7099E-01     6.0424  -0.6467   101.2681


## Synthesis Results - Average & Chains ##

# j      x_j: min, <> & last-chain-values for 1 ...  7 chains
  1      0.0000      0.0790      0.0000      0.0012      0.0641      0.0000      0.0000      0.0000      0.0000
  2      0.0000      0.0708      0.2516      0.0057      0.0000      0.0000      0.0000      0.0000      0.0000
  3      0.0000      0.0543      0.0000      0.0000      0.0000      0.0000      0.0000      0.0000      0.0000
  4      0.0000      0.1037      0.0000      0.0000      0.0000      0.0000      0.0000      0.0000      0.2653
  5      0.0000      0.0764      0.0000      1.3926      0.0000      0.0000      0.0000      0.0872      0.0000
  6      0.0000      0.0824      0.0000      0.0000      0.0000      0.0000      0.0000      0.0000      0.0000
  7      0.0000      0.0318      0.0000      0.0000      0.5616      0.0000      0.0000      0.0000      0.0000
  8      0.0000      0.1584      0.0000      0.0000      0.0000      0.0000      0.2051      0.0000      0.0000
  9      0.0000      0.0825      0.0000      0.0000      0.0000      0.0000      0.0000      0.0000      0.2695
 10      0.0000      0.1389      0.0000      0.0000      0.0000      0.0000      0.0000      0.7134      0.0000
 11      0.0000      0.0485      0.0000      0.0000      0.0000      0.0000      0.0000      0.0000      0.0000
 12      0.0000      0.0661      0.0000      0.0000      0.6190      0.0000      0.0000      0.0000      0.0000
 13      0.0000      0.3272      0.0000      0.0000      0.5595      0.0000      0.4748      0.0000      0.0000
 14      0.0000      0.5898      0.0000      0.9723      2.1364      0.0000      0.0000      0.0000      0.0000
 15      0.0143      1.8592      3.4757      1.8879      0.0000      1.3431      0.0000      0.0000      4.2155
 16      7.8318      2.1706      3.5155      0.0000      0.0000      0.0000      1.2938      1.6209      0.0000
 17      8.0754      2.8389      8.6804      0.0000      0.0000      5.5233      1.9232      1.3893      0.8057
 18      2.2547      0.0902      0.7635      0.0000      0.0000      0.0000      0.7240      0.0000      0.0000
 19      0.0000      0.0637      0.0000      0.0000      0.0000      0.0000      0.0000      0.0000      0.0000
 20      0.0000      0.0315      0.0000      0.0000      0.0000      0.0000      0.0000      0.0000      0.0000
 21      0.0000      0.0920      0.0000      0.9962      0.0000      0.0000      0.0000      0.0000      0.0000
 22      0.0000      0.1730      0.0000      0.0000      0.5675      0.0000      0.0000      0.0000      0.0000
 23      0.0000      0.0680      0.4935      0.2502      0.0000      0.0000      0.0000      0.0000      0.0000
 24      0.0000      0.0517      0.4441      0.0000      0.0000      0.0000      0.0000      0.0000      0.0000
 25      0.0000      0.0335      0.0000      0.0000      0.0000      0.0000      0.0000      0.0000      0.0000
 26      0.0000      0.2078      0.0000      0.1575      2.4424      0.0000      0.0000      0.0000      0.0000
 27      0.0000      0.2656      0.0000      0.0000      0.0000      1.3199      0.0000      0.0379      0.0000
 28      0.0000      0.2699      0.0000      0.0000      0.0000      0.1762      0.3755      0.0857      0.0000
 29      0.0000      0.4088      0.0000      0.0000      0.0000      0.0000      0.0000      0.0000      1.1135
 30      0.0002      1.1884      1.8150      0.1885      3.9049      0.0000      2.8549      0.0000      0.0000
 31      0.0000      1.4678      0.0000      0.7744      0.4047      0.2726      0.0000      0.8528      0.0000
 32      0.0000      3.3019      0.0000      0.0000      3.3579      0.7485      0.0000      0.0454      1.7268
 33      0.0000      0.5281      0.0000      0.0000      0.0000      0.0000      0.1756      0.0000      0.0000
 34      0.0000      0.3424      0.0000      0.0000      0.6403      0.7455      0.0000      0.0000      0.0000
 35      0.0000      0.0978      0.0000      0.0098      0.0000      0.0000      0.0000      0.8004      0.0000
 36      0.0000      0.1258      0.0000      0.0000      0.0000      0.0000      0.5530      0.0000      1.3264
 37      0.0000      0.1101      0.0000      0.0000      0.8257      0.0823      0.0000      0.0000      0.0000
 38      0.0000      0.0760      0.0000      0.0000      0.0000      0.0000      0.0000      0.0000      0.0000
 39      0.0000      0.2488      0.0000      0.0000      0.0000      0.0000      0.0000      0.1365      0.0000
 40      0.0000      0.0967      0.0000      0.0000      0.0000      0.0000      0.0000      0.3148      0.2562
 41      0.0000      0.0714      0.0000      0.0000      0.0000      0.0000      0.0000      0.0000      0.2197
 42      0.0000      0.0749      0.0000      0.0000      0.0000      0.0000      0.0000      0.0000      0.0000
 43      0.0000      0.2124      0.0000      0.3512      0.0000      2.3543      0.0000      0.6338      0.0000
 44      0.0000      0.1640      0.0000      0.0000      1.0616      0.0000      0.0000      0.0000      0.0000
 45      0.0000      0.2456      2.4338      0.0000      0.0000      0.0000      0.0000      0.0000      0.0000
 46      0.0000      0.6060      0.0000      0.9014      0.0000      0.0000      0.0000      0.0359      0.0000
