###################################################################
## OUTPUT of StarlightChains_v04.for    [Cid@UFSC - 01/Apr/2007] ##
###################################################################

## Some input info
2007gr.txt                               [arq_obs]
Base.CB07.vall.4m                        [arq_base]
Masks.EmLines.NEW.gm                     [arq_masks]
StCv04.C11.config                        [arq_config]
   66                                    [N_base]
    0                                    [N_YAV_components = # of components with extra extinction!]
    0                                    [i_FitPowerLaw (1/0 = Yes/No)]
-9.99                                    [alpha_PowerLaw]
CCM                                      [red_law_option]
 1.458241                                [q_norm = A(l_norm)/A(V)]

## (Re)Sampling Parameters
 3741.00                                 [l_ini (A)]
 7218.00                                 [l_fin (A)]
    1.00                                 [dl    (A)]     (OBS: dl_cushion =    50.00 A)

## Normalization info
 4020.00                                 [l_norm (A) - for base]
 4010.00                                 [llow_norm (A) - window for f_obs]
 4060.00                                 [lupp_norm (A) - window for f_obs]
1.087087E-14                             [fobs_norm (in input units)]

## S/N
 3691.00                                 [llow_SN (A) - window for S/N]
 7268.00                                 [lupp_SN (A) - window for S/N]
   7.701                                 [S/N in S/N window]
   9.556                                 [S/N in norm. window]
  10.000                                 [S/N_err in S/N window]
  12.409                                 [S/N_err in norm. window]
  1.0000                                 [fscale_chi2]

## etc...
    -2007334                             [idum_orig]
  2403                                   [NOl_eff]
  2403                                   [Nl_eff]
     0    NSIGMA                         [Ntot_cliped & clip_method]
  1296750                                [Nglobal_steps]
   7                                     [N_chains]
  24                                     [NEX0s_base = N_base in EX0s-fits]
 0   0   1       49   2.0   1.597E+01    [Clip-Bug, RC-Crash & Burn-In warning-flags, n_censored_weights, wei_nsig_threshold & wei_limit]
    12     12.115     11.609      0.505  [idt_all, wdt_TotTime, wdt_UsrTime & wdt_SysTime (sec)]

## Synthesis Results - Best model ##

 3.21634E-02                             [chi2/Nl_eff]
     1.21391                             [adev (%)]

   104.15001                             [sum-of-x (%)]
 1.19500E-14                             [Flux_tot (units of input spectrum!)]
 7.65802E-11                             [Mini_tot (???)]
 4.30209E-11                             [Mcor_tot (???)]

 -74.54                                  [v0_min  (km/s)]
 354.08                                  [vd_min  (km/s)]
 0.0402                                  [AV_min  (mag)]
 0.0000                                  [YAV_min (mag)]

# j     x_j(%)      Mini_j(%)     Mcor_j(%)     age_j(yr)     Z_j      (L/M)_j    YAV?  Mstars   component_j        a/Fe...       SSP_chi2r SSP_adev(%)   SSP_AV   SSP_x(%)
  1      2.2559     3.0896E-02    5.4997E-02    1.000000E+06  0.00400  1.094E-02    0   1.0000   age020_m42            0.0000     4.4814E-01     4.6132   2.6105    86.5592
  2      1.8094     6.7657E-03    1.2042E-02    3.160000E+06  0.00400  4.007E-02    0   0.9999   age045_m42            0.0000     2.1665E-01     3.1840   1.8471    94.1232
  3      0.0000     0.0000E+00    0.0000E+00    5.010000E+06  0.00400  2.539E-02    0   0.9488   age055_m42            0.0000     2.9547E-01     3.7385   2.1825    91.1558
  4      1.1922     6.8177E-03    1.1189E-02    6.610000E+06  0.00400  2.620E-02    0   0.9220   age061_m42            0.0000     2.1678E-01     3.0262   1.7703    94.4477
  5      0.0000     0.0000E+00    0.0000E+00    1.000000E+07  0.00400  1.322E-02    0   0.8862   age070_m42            0.0000     2.5612E-01     3.0856   1.4968    95.8809
  6      0.5025     9.5512E-03    1.4572E-02    1.445000E+07  0.00400  7.883E-03    0   0.8571   age078_m42            0.0000     3.0135E-01     3.4117   1.8335    93.0501
  7      0.0000     0.0000E+00    0.0000E+00    2.512000E+07  0.00400  5.251E-03    0   0.8174   age090_m42            0.0000     2.6529E-01     3.2133   1.3657    96.4309
  8      0.0000     0.0000E+00    0.0000E+00    4.000000E+07  0.00400  3.649E-03    0   0.7851   age104_m42            0.0000     2.2072E-01     2.8492   1.1300    97.6464
  9      0.0214     1.0360E-03    1.4070E-03    5.500000E+07  0.00400  3.098E-03    0   0.7629   age110_m42            0.0000     2.0500E-01     2.4622   1.2743    98.1640
 10      0.0000     0.0000E+00    0.0000E+00    1.015200E+08  0.00400  2.228E-03    0   0.7207   age116_m42            0.0000     2.2397E-01     2.5135   1.2867    98.7639
 11      0.0000     0.0000E+00    0.0000E+00    2.861200E+08  0.00400  1.093E-03    0   0.6648   age125_m42            0.0000     2.2836E-01     2.6934   0.7060   102.1716
 12      0.0000     0.0000E+00    0.0000E+00    5.088000E+08  0.00400  6.597E-04    0   0.6365   age130_m42            0.0000     2.5282E-01     2.6838   0.6849   103.6833
 13      2.2787     1.6014E+00    1.6528E+00    1.434000E+09  0.00400  2.132E-04    0   0.5798   age139_m42            0.0000     1.5678E-01     2.3706  -0.2986   106.4897
 14      5.8744     1.4930E+01    1.4291E+01    4.250000E+09  0.00400  5.895E-05    0   0.5377   age158_m42            0.0000     1.3533E-01     2.7678  -0.7352   102.3784
 15      7.6249     3.2548E+01    3.0197E+01    7.500000E+09  0.00400  3.510E-05    0   0.5212   age171_m42            0.0000     2.1582E-01     3.4092  -0.9264   101.9037
 16      0.0000     0.0000E+00    0.0000E+00    1.300000E+10  0.00400  2.005E-05    0   0.5034   age193_m42            0.0000     3.4978E-01     4.0058  -1.0000    98.1184
 17      0.0000     0.0000E+00    0.0000E+00    1.800000E+10  0.00400  1.525E-05    0   0.4967   age213_m42            0.0000     3.5134E-01     4.0370  -1.0000    96.8331
 18      3.6652     4.4357E-02    7.8959E-02    1.000000E+06  0.00800  1.238E-02    0   1.0000   age020_m52            0.0000     4.4823E-01     4.6202   2.6068    86.7298
 19      3.6732     1.7903E-02    3.1761E-02    3.160000E+06  0.00800  3.074E-02    0   0.9966   age045_m52            0.0000     4.2288E-01     4.5261   2.5269    87.6431
 20      0.0000     0.0000E+00    0.0000E+00    5.010000E+06  0.00800  2.668E-02    0   0.9443   age055_m52            0.0000     3.2311E-01     3.8813   2.2706    90.1073
 21     16.9894     1.1917E-01    1.9467E-01    6.610000E+06  0.00800  2.136E-02    0   0.9177   age061_m52            0.0000     1.8398E-01     2.7650   0.9979    97.0019
 22      0.1881     2.3197E-03    3.6448E-03    1.000000E+07  0.00800  1.215E-02    0   0.8827   age070_m52            0.0000     3.1391E-01     3.6214   1.6836    95.2579
 23      0.0000     0.0000E+00    0.0000E+00    1.445000E+07  0.00800  8.717E-03    0   0.8552   age078_m52            0.0000     2.7926E-01     3.2458   1.7955    94.4914
 24      0.0000     0.0000E+00    0.0000E+00    2.512000E+07  0.00800  5.592E-03    0   0.8162   age090_m52            0.0000     2.6236E-01     3.2304   1.4273    97.6662
 25      0.0000     0.0000E+00    0.0000E+00    4.000000E+07  0.00800  3.896E-03    0   0.7841   age104_m52            0.0000     2.1995E-01     2.7985   1.3296    98.9225
 26      0.0000     0.0000E+00    0.0000E+00    1.015200E+08  0.00800  2.148E-03    0   0.7226   age116_m52            0.0000     1.8430E-01     2.3285   1.2556    99.4442
 27      0.0000     0.0000E+00    0.0000E+00    2.861200E+08  0.00800  9.925E-04    0   0.6683   age125_m52            0.0000     2.6013E-01     2.6316   0.7486   104.6937
 28      8.3171     3.9673E+00    4.3347E+00    9.047900E+08  0.00800  3.141E-04    0   0.6138   age135_m52            0.0000     2.4489E-01     3.0675  -0.0735   110.4411
 29      0.0000     0.0000E+00    0.0000E+00    1.434000E+09  0.00800  1.719E-04    0   0.5853   age139_m52            0.0000     1.5604E-01     2.8053  -0.6463   107.8890
 30      0.0000     0.0000E+00    0.0000E+00    2.500000E+09  0.00800  7.872E-05    0   0.5600   age150_m52            0.0000     2.5781E-01     3.7295  -0.9168   105.2759
 31      2.5079     8.6659E+00    8.3701E+00    4.250000E+09  0.00800  4.336E-05    0   0.5426   age158_m52            0.0000     2.7752E-01     3.7801  -0.9307   104.2315
 32      0.0000     0.0000E+00    0.0000E+00    6.250000E+09  0.00800  3.159E-05    0   0.5319   age166_m52            0.0000     5.2246E-01     4.8439  -1.0000    99.4427
 33      0.0000     0.0000E+00    0.0000E+00    1.300000E+10  0.00800  1.361E-05    0   0.5073   age193_m52            0.0000     2.1646E+00    10.5424  -1.0000    81.9091
 34      0.0000     0.0000E+00    0.0000E+00    1.800000E+10  0.00800  9.886E-06    0   0.4990   age213_m52            0.0000     2.8892E+00    12.1149  -1.0000    77.8426
 35      0.0000     0.0000E+00    0.0000E+00    1.000000E+06  0.02000  1.544E-02    0   1.0000   age020_m62            0.0000     4.5554E-01     4.6610   2.6031    86.9151
 36      3.7063     1.4761E-02    2.5902E-02    3.160000E+06  0.02000  3.762E-02    0   0.9858   age045_m62            0.0000     4.4716E-01     4.6499   2.5410    87.7380
 37      0.0000     0.0000E+00    0.0000E+00    5.010000E+06  0.02000  3.296E-02    0   0.9342   age055_m62            0.0000     2.6382E-01     3.5418   2.1331    92.7111
 38      0.0000     0.0000E+00    0.0000E+00    8.710000E+06  0.02000  1.154E-02    0   0.8861   age067_m62            0.0000     8.8168E-01     7.3749   1.1602    96.2374
 39      0.0000     0.0000E+00    0.0000E+00    1.445000E+07  0.02000  7.663E-03    0   0.8472   age078_m62            0.0000     3.9909E-01     4.5810   1.3333    97.1441
 40      0.0000     0.0000E+00    0.0000E+00    2.512000E+07  0.02000  4.532E-03    0   0.8099   age090_m62            0.0000     4.3144E-01     4.7916   1.3223    96.9827
 41      0.0000     0.0000E+00    0.0000E+00    5.500000E+07  0.02000  2.733E-03    0   0.7595   age110_m62            0.0000     2.2698E-01     2.8668   1.3150    98.0996
 42      0.0000     0.0000E+00    0.0000E+00    1.609000E+08  0.02000  1.369E-03    0   0.6985   age120_m62            0.0000     2.5454E-01     2.4690   1.1278   102.1414
 43      0.0000     0.0000E+00    0.0000E+00    2.861200E+08  0.02000  9.013E-04    0   0.6714   age125_m62            0.0000     3.4590E-01     2.7978   0.8601   105.9796
 44      0.0000     0.0000E+00    0.0000E+00    5.088000E+08  0.02000  5.028E-04    0   0.6449   age130_m62            0.0000     3.8822E-01     3.5331   0.4635   109.9134
 45     25.8089     1.5926E+01    1.7517E+01    9.047900E+08  0.02000  2.428E-04    0   0.6179   age135_m62            0.0000     2.4632E-01     3.3659  -0.1279   109.6642
 46     10.1263     1.2013E+01    1.2633E+01    1.434000E+09  0.02000  1.263E-04    0   0.5908   age139_m62            0.0000     2.4663E-01     3.5373  -0.5700   108.0293
 47      2.0759     5.1968E+00    5.2479E+00    2.500000E+09  0.02000  5.985E-05    0   0.5673   age150_m62            0.0000     4.0846E-01     4.6377  -0.9395   106.8586
 48      0.0000     0.0000E+00    0.0000E+00    4.250000E+09  0.02000  3.271E-05    0   0.5468   age158_m62            0.0000     9.5353E-01     6.5382  -1.0000    96.9036
 49      0.0000     0.0000E+00    0.0000E+00    1.000000E+10  0.02000  1.360E-05    0   0.5167   age181_m62            0.0000     2.5050E+00    10.8923  -1.0000    83.8205
 50      0.0000     0.0000E+00    0.0000E+00    1.800000E+10  0.02000  7.124E-06    0   0.5013   age213_m62            0.0000     3.8266E+00    13.5893  -1.0000    75.9312
 51      0.0000     0.0000E+00    0.0000E+00    1.000000E+06  0.05000  2.592E-02    0   0.9998   age020_m72            0.0000     4.8551E-01     4.7709   2.5986    86.7748
 52      0.0000     0.0000E+00    0.0000E+00    3.160000E+06  0.05000  4.845E-02    0   0.9577   age045_m72            0.0000     3.6696E-01     4.2760   2.4117    89.4332
 53      0.0533     2.6004E-04    4.2341E-04    5.010000E+06  0.05000  3.072E-02    0   0.9147   age055_m72            0.0000     3.9293E-01     4.1973   1.9276    93.2645
 54      0.0000     0.0000E+00    0.0000E+00    6.610000E+06  0.05000  1.455E-02    0   0.8877   age061_m72            0.0000     1.4970E+00    10.0032   1.2113    96.5815
 55      0.0000     0.0000E+00    0.0000E+00    1.000000E+07  0.05000  9.074E-03    0   0.8524   age070_m72            0.0000     5.0645E-01     4.9528   2.1102    93.0155
 56      0.0000     0.0000E+00    0.0000E+00    2.512000E+07  0.05000  4.250E-03    0   0.7902   age090_m72            0.0000     3.6732E-01     4.0656   1.7915    95.5524
 57      0.0000     0.0000E+00    0.0000E+00    4.000000E+07  0.05000  3.087E-03    0   0.7618   age104_m72            0.0000     3.7614E-01     4.1070   1.5566    97.4343
 58      0.0000     0.0000E+00    0.0000E+00    1.015200E+08  0.05000  1.700E-03    0   0.7096   age116_m72            0.0000     2.7327E-01     2.7927   1.2748   101.4124
 59      0.0000     0.0000E+00    0.0000E+00    2.861200E+08  0.05000  7.384E-04    0   0.6633   age125_m72            0.0000     3.8309E-01     3.1321   0.7176   108.0337
 60      0.0000     0.0000E+00    0.0000E+00    5.088000E+08  0.05000  3.819E-04    0   0.6372   age130_m72            0.0000     3.1244E-01     3.5119   0.2123   110.6181
 61      5.4789     4.8980E+00    5.3271E+00    9.047900E+08  0.05000  1.676E-04    0   0.6110   age135_m72            0.0000     3.8926E-01     4.6530  -0.4877   109.1229
 62      0.0000     0.0000E+00    0.0000E+00    1.434000E+09  0.05000  8.837E-05    0   0.5874   age139_m72            0.0000     4.8059E-01     5.0030  -0.9459   108.7251
 63      0.0000     0.0000E+00    0.0000E+00    2.500000E+09  0.05000  4.233E-05    0   0.5598   age150_m72            0.0000     1.0707E+00     6.9451  -1.0000    97.7757
 64      0.0000     0.0000E+00    0.0000E+00    6.250000E+09  0.05000  1.435E-05    0   0.5249   age166_m72            0.0000     3.0152E+00    12.1275  -1.0000    80.1019
 65      0.0000     0.0000E+00    0.0000E+00    1.300000E+10  0.05000  6.513E-06    0   0.5036   age193_m72            0.0000     4.9007E+00    15.6074  -1.0000    71.3739
 66      0.0000     0.0000E+00    0.0000E+00    1.800000E+10  0.05000  4.527E-06    0   0.4945   age213_m72            0.0000     6.0917E+00    17.5033  -1.0000    66.1189


## Synthesis Results - Average & Chains ##

# j      x_j: min, <> & last-chain-values for 1 ...  7 chains
  1      2.2559      1.0646      0.0000      0.7198      2.8442      0.0000      2.9733      2.7040      1.8076
  2      1.8094      0.4265      0.0000      1.2719      3.2198      0.0000      0.0000      0.0000      0.0000
  3      0.0000      0.4854      2.0097      0.0000      0.0000      1.5558      0.0000      0.0000      0.6251
  4      1.1922      0.7043      0.0000      1.5363      2.1557      0.0000      0.0000      0.0000      0.5901
  5      0.0000      0.7038      2.1006      1.8870      0.0000      0.0000      0.8781      0.0000      0.9340
  6      0.5025      0.7338      0.0000      0.0000      1.7340      0.0000      0.0000      1.1820      3.7869
  7      0.0000      1.1519      1.8418      0.0000      0.0000      0.3489      0.0000      0.0000      0.5207
  8      0.0000      1.4234      0.0000      0.0872      0.0000      0.0000      2.4376      0.7145      2.3482
  9      0.0214      0.7808      0.0000      0.0329      3.2531      0.0000      0.0000      0.0000      0.0000
 10      0.0000      0.5713      0.3095      0.0000      0.1943      0.0000      0.0000      0.0000      0.0000
 11      0.0000      0.7789      1.6295      3.8532      0.0000      0.0000      0.0000      0.0000      0.8210
 12      0.0000      0.7446      0.1686      0.0000      0.0000      0.0000      0.0286      0.0000      0.3560
 13      2.2787      0.9023      0.0000      0.0000      1.4711      0.0000      1.5545      0.0000      1.5014
 14      5.8744      0.6310      0.0000      0.2034      1.7932      1.0164      1.4780      1.7326      0.5283
 15      7.6249      0.7609      0.0000      1.7475      2.2977      1.6028      0.0000      0.0000      0.0000
 16      0.0000      0.4210      0.0000      0.6409      0.0000      0.0000      0.6234      0.3368      0.0000
 17      0.0000      0.2752      0.0000      0.1554      0.0000      1.2532      0.0000      2.7464      0.4602
 18      3.6652      2.3671      2.8863      2.6012      1.7238      2.1093      0.8848      2.6383      1.3119
 19      3.6732      2.4293      3.3588      1.8998      2.3819      4.0133      1.8974      4.7408      1.8834
 20      0.0000      0.7066      1.9143      1.2073      0.2408      1.0102      0.4809      0.0000      1.1273
 21     16.9894     10.1317     13.0462      8.9571     10.0592     19.9128      9.2942     14.5824      9.3723
 22      0.1881      1.1841      0.0000      0.0002      1.8574      0.0000      0.0000      0.0000      1.2093
 23      0.0000      0.6710      1.4307      0.0000      0.0000      0.0000      0.0000      1.0551      0.2336
 24      0.0000      0.6887      0.0000      0.4099      0.0000      0.0000      0.0000      0.0000      1.6475
 25      0.0000      0.3999      0.0000      0.0000      0.0000      0.0575      0.0000      0.0000      0.0000
 26      0.0000      1.0413      0.9206      3.1113      0.0000      1.2800      1.4430      2.1781      0.0000
 27      0.0000      0.6187      0.0000      1.6913      0.0000      0.1137      0.0000      0.0000      0.0000
 28      8.3171      3.3225      0.0000      2.3895      6.9074      8.0454      7.7309      0.5438      4.5447
 29      0.0000      0.4100      0.0000      1.5365      0.9108      0.4967      0.0000      0.0000      0.0000
 30      0.0000      0.7138      0.9278      1.4009      0.0000      0.0000      0.6268      0.8281      0.0000
 31      2.5079      0.5251      1.2666      1.5218      3.5233      0.0000      0.5595      0.0000      0.0000
 32      0.0000      1.0131      0.0000      1.8591      0.0000      0.0000      3.0303      1.8702      1.7758
 33      0.0000      0.1998      0.0000      0.3606      0.0000      0.0000      0.0000      0.0000      1.3374
 34      0.0000      0.1754      0.9701      0.0000      0.0000      0.0000      0.6377      0.0000      0.0000
 35      0.0000      0.7798      0.0000      0.0000      0.0550      0.0000      0.7830      0.6232      0.0000
 36      3.7063      0.9616      0.0000      3.7262      2.8876      3.8987      2.0829      0.0000      1.3010
 37      0.0000      0.3607      1.7556      0.9021      0.0000      0.0000      1.0573      0.0000      0.4962
 38      0.0000      0.6040      0.0000      0.0000      2.1609      0.0000      0.5004      1.5503      0.0000
 39      0.0000      0.7964      2.1861      0.0000      0.0000      0.0000      0.0000      0.0000      0.0000
 40      0.0000      0.8654      0.0000      0.0000      0.0000      0.6946      3.9419      0.3370      0.0000
 41      0.0000      0.4600      0.0000      0.2568      0.0000      0.0000      0.5778      0.0000      0.0000
 42      0.0000      0.5059      1.2838      0.0000      0.0769      1.5445      0.0000      0.5283      0.0000
 43      0.0000      0.5294      0.0000      0.0000      0.0000      0.0000      1.2185      0.0000      0.0000
 44      0.0000      1.0430      0.0000      2.5330      0.0000      2.5597      0.0000      3.3839      0.1360
 45     25.8089     20.5280     25.5755     23.3780     17.7810     22.2813     18.7646     21.5807     27.1270
 46     10.1263     10.3052     12.6127     11.2194     10.2195      8.1622      9.6995     11.1789      7.9754
