###################################################################
## OUTPUT of StarlightChains_v04.for    [Cid@UFSC - 01/Apr/2007] ##
###################################################################

## Some input info
2007hu.txt                               [arq_obs]
Base.CB07.vall.4m                        [arq_base]
Masks.EmLines.NEW.gm                     [arq_masks]
StCv04.C11.config                        [arq_config]
   66                                    [N_base]
    0                                    [N_YAV_components = # of components with extra extinction!]
    0                                    [i_FitPowerLaw (1/0 = Yes/No)]
-9.99                                    [alpha_PowerLaw]
CCM                                      [red_law_option]
 1.458241                                [q_norm = A(l_norm)/A(V)]

## (Re)Sampling Parameters
 3741.00                                 [l_ini (A)]
 7218.00                                 [l_fin (A)]
    1.00                                 [dl    (A)]     (OBS: dl_cushion =    50.00 A)

## Normalization info
 4020.00                                 [l_norm (A) - for base]
 4010.00                                 [llow_norm (A) - window for f_obs]
 4060.00                                 [lupp_norm (A) - window for f_obs]
6.538193E-18                             [fobs_norm (in input units)]

## S/N
 3691.00                                 [llow_SN (A) - window for S/N]
 7268.00                                 [lupp_SN (A) - window for S/N]
   3.874                                 [S/N in S/N window]
   2.463                                 [S/N in norm. window]
   5.839                                 [S/N_err in S/N window]
   3.713                                 [S/N_err in norm. window]
  1.0000                                 [fscale_chi2]

## etc...
    -2007336                             [idum_orig]
  2282                                   [NOl_eff]
  2282                                   [Nl_eff]
     0    NSIGMA                         [Ntot_cliped & clip_method]
   938630                                [Nglobal_steps]
   7                                     [N_chains]
  20                                     [NEX0s_base = N_base in EX0s-fits]
 0   0   1       28   2.0   6.515E+00    [Clip-Bug, RC-Crash & Burn-In warning-flags, n_censored_weights, wei_nsig_threshold & wei_limit]
    11     10.794     10.284      0.510  [idt_all, wdt_TotTime, wdt_UsrTime & wdt_SysTime (sec)]

## Synthesis Results - Best model ##

 3.37670E-01                             [chi2/Nl_eff]
    10.12862                             [adev (%)]

   114.04050                             [sum-of-x (%)]
 1.18373E-17                             [Flux_tot (units of input spectrum!)]
 5.99746E-13                             [Mini_tot (???)]
 3.13723E-13                             [Mcor_tot (???)]

-193.83                                  [v0_min  (km/s)]
 299.92                                  [vd_min  (km/s)]
 0.3441                                  [AV_min  (mag)]
 0.0000                                  [YAV_min (mag)]

# j     x_j(%)      Mini_j(%)     Mcor_j(%)     age_j(yr)     Z_j      (L/M)_j    YAV?  Mstars   component_j        a/Fe...       SSP_chi2r SSP_adev(%)   SSP_AV   SSP_x(%)
  1      0.0000     0.0000E+00    0.0000E+00    1.000000E+06  0.00400  1.094E-02    0   1.0000   age020_m42            0.0000     4.9759E-01    14.3461   4.0000   102.7529
  2      0.0000     0.0000E+00    0.0000E+00    3.160000E+06  0.00400  4.007E-02    0   0.9999   age045_m42            0.0000     4.9025E-01    13.8653   3.2860   109.2125
  3      0.0000     0.0000E+00    0.0000E+00    5.010000E+06  0.00400  2.539E-02    0   0.9488   age055_m42            0.0000     4.8993E-01    14.0502   3.5994   106.8697
  4      0.0000     0.0000E+00    0.0000E+00    6.610000E+06  0.00400  2.620E-02    0   0.9220   age061_m42            0.0000     4.8942E-01    13.9180   3.2011   110.0403
  5      0.0000     0.0000E+00    0.0000E+00    1.000000E+07  0.00400  1.322E-02    0   0.8862   age070_m42            0.0000     5.1954E-01    14.9100   2.8485   116.1143
  6      0.0000     0.0000E+00    0.0000E+00    1.445000E+07  0.00400  7.883E-03    0   0.8571   age078_m42            0.0000     5.1787E-01    14.9169   3.1840   112.7575
  7      0.0000     0.0000E+00    0.0000E+00    2.512000E+07  0.00400  5.251E-03    0   0.8174   age090_m42            0.0000     5.2857E-01    15.0983   2.7050   117.5052
  8      0.0000     0.0000E+00    0.0000E+00    4.000000E+07  0.00400  3.649E-03    0   0.7851   age104_m42            0.0000     5.1844E-01    14.8222   2.4848   118.0719
  9      2.7635     1.5439E-02    2.2516E-02    5.500000E+07  0.00400  3.098E-03    0   0.7629   age110_m42            0.0000     5.0428E-01    14.2877   2.6703   116.3602
 10      0.0000     0.0000E+00    0.0000E+00    1.015200E+08  0.00400  2.228E-03    0   0.7207   age116_m42            0.0000     4.9420E-01    13.9706   2.7110   115.5109
 11      0.0000     0.0000E+00    0.0000E+00    2.861200E+08  0.00400  1.093E-03    0   0.6648   age125_m42            0.0000     5.1725E-01    14.2799   2.1212   120.2465
 12      0.0024     6.3205E-05    7.6908E-05    5.088000E+08  0.00400  6.597E-04    0   0.6365   age130_m42            0.0000     4.8492E-01    13.5307   2.1441   119.4261
 13     14.7134     1.1944E+00    1.3239E+00    1.434000E+09  0.00400  2.132E-04    0   0.5798   age139_m42            0.0000     4.1034E-01    12.2606   1.1848   121.0895
 14      0.4576     1.3433E-01    1.3808E-01    4.250000E+09  0.00400  5.895E-05    0   0.5377   age158_m42            0.0000     3.7086E-01    11.3239   0.7907   113.9150
 15      0.0000     0.0000E+00    0.0000E+00    7.500000E+09  0.00400  3.510E-05    0   0.5212   age171_m42            0.0000     3.6240E-01    10.9393   0.6253   112.0396
 16      0.0000     0.0000E+00    0.0000E+00    1.300000E+10  0.00400  2.005E-05    0   0.5034   age193_m42            0.0000     3.6071E-01    10.7372   0.4790   110.5271
 17      0.0000     0.0000E+00    0.0000E+00    1.800000E+10  0.00400  1.525E-05    0   0.4967   age213_m42            0.0000     3.5903E-01    10.7796   0.4527   110.1964
 18      0.0000     0.0000E+00    0.0000E+00    1.000000E+06  0.00800  1.238E-02    0   1.0000   age020_m52            0.0000     4.9678E-01    14.3280   4.0000   102.7798
 19      1.8712     1.0535E-03    2.0071E-03    3.160000E+06  0.00800  3.074E-02    0   0.9966   age045_m52            0.0000     4.9182E-01    14.2235   3.9306   103.3393
 20      0.0000     0.0000E+00    0.0000E+00    5.010000E+06  0.00800  2.668E-02    0   0.9443   age055_m52            0.0000     4.8595E-01    14.1151   3.6777   106.1130
 21      0.0000     0.0000E+00    0.0000E+00    6.610000E+06  0.00800  2.136E-02    0   0.9177   age061_m52            0.0000     4.8093E-01    14.3961   2.3519   117.1581
 22      0.0000     0.0000E+00    0.0000E+00    1.000000E+07  0.00800  1.215E-02    0   0.8827   age070_m52            0.0000     5.3089E-01    15.3094   3.0108   116.8626
 23      3.9154     7.7738E-03    1.2709E-02    1.445000E+07  0.00800  8.717E-03    0   0.8552   age078_m52            0.0000     5.1210E-01    14.8805   3.1456   114.5166
 24      0.0000     0.0000E+00    0.0000E+00    2.512000E+07  0.00800  5.592E-03    0   0.8162   age090_m52            0.0000     5.2384E-01    15.0757   2.7671   119.0726
 25      0.0000     0.0000E+00    0.0000E+00    4.000000E+07  0.00800  3.896E-03    0   0.7841   age104_m52            0.0000     5.1747E-01    14.7542   2.6940   119.2037
 26      0.0000     0.0000E+00    0.0000E+00    1.015200E+08  0.00800  2.148E-03    0   0.7226   age116_m52            0.0000     4.9660E-01    14.1773   2.6630   117.3106
 27      0.0000     0.0000E+00    0.0000E+00    2.861200E+08  0.00800  9.925E-04    0   0.6683   age125_m52            0.0000     4.7689E-01    13.4866   2.2062   120.7091
 28      0.0000     0.0000E+00    0.0000E+00    9.047900E+08  0.00800  3.141E-04    0   0.6138   age135_m52            0.0000     4.1938E-01    11.9764   1.4552   123.0532
 29      0.0000     0.0000E+00    0.0000E+00    1.434000E+09  0.00800  1.719E-04    0   0.5853   age139_m52            0.0000     3.8671E-01    11.5531   0.8810   120.2652
 30      0.0000     0.0000E+00    0.0000E+00    2.500000E+09  0.00800  7.872E-05    0   0.5600   age150_m52            0.0000     3.5864E-01    10.7454   0.6586   114.4968
 31      0.0000     0.0000E+00    0.0000E+00    4.250000E+09  0.00800  4.336E-05    0   0.5426   age158_m52            0.0000     3.6086E-01    10.7399   0.6459   113.2664
 32      0.0000     0.0000E+00    0.0000E+00    6.250000E+09  0.00800  3.159E-05    0   0.5319   age166_m52            0.0000     3.5450E-01    10.4107   0.4728   111.8108
 33      0.0000     0.0000E+00    0.0000E+00    1.300000E+10  0.00800  1.361E-05    0   0.5073   age193_m52            0.0000     3.4688E-01    10.0050   0.0399   109.3588
 34      0.0000     0.0000E+00    0.0000E+00    1.800000E+10  0.00800  9.886E-06    0   0.4990   age213_m52            0.0000     3.5305E-01     9.9164  -0.0353   107.2578
 35      0.0000     0.0000E+00    0.0000E+00    1.000000E+06  0.02000  1.544E-02    0   1.0000   age020_m62            0.0000     4.9706E-01    14.3361   4.0000   102.8304
 36      0.0000     0.0000E+00    0.0000E+00    3.160000E+06  0.02000  3.762E-02    0   0.9858   age045_m62            0.0000     4.9423E-01    14.2836   3.9424   103.5688
 37      3.3433     1.7556E-03    3.1353E-03    5.010000E+06  0.02000  3.296E-02    0   0.9342   age055_m62            0.0000     4.8245E-01    13.8652   3.5669   107.8186
 38      0.0000     0.0000E+00    0.0000E+00    8.710000E+06  0.02000  1.154E-02    0   0.8861   age067_m62            0.0000     6.9035E-01    18.5054   2.3364   127.5954
 39      3.0838     6.9649E-03    1.1280E-02    1.445000E+07  0.02000  7.663E-03    0   0.8472   age078_m62            0.0000     5.6585E-01    16.0194   2.6215   121.6543
 40      0.0000     0.0000E+00    0.0000E+00    2.512000E+07  0.02000  4.532E-03    0   0.8099   age090_m62            0.0000     5.8100E-01    16.1948   2.6077   121.7282
 41      0.0000     0.0000E+00    0.0000E+00    5.500000E+07  0.02000  2.733E-03    0   0.7595   age110_m62            0.0000     5.0949E-01    14.7132   2.6762   118.3539
 42      0.0000     0.0000E+00    0.0000E+00    1.609000E+08  0.02000  1.369E-03    0   0.6985   age120_m62            0.0000     4.9216E-01    13.9908   2.5520   119.5381
 43      0.0000     0.0000E+00    0.0000E+00    2.861200E+08  0.02000  9.013E-04    0   0.6714   age125_m62            0.0000     4.7718E-01    13.4999   2.3177   122.0306
 44      0.0000     0.0000E+00    0.0000E+00    5.088000E+08  0.02000  5.028E-04    0   0.6449   age130_m62            0.0000     4.4296E-01    12.4380   1.9897   122.4650
 45      0.0000     0.0000E+00    0.0000E+00    9.047900E+08  0.02000  2.428E-04    0   0.6179   age135_m62            0.0000     3.9134E-01    11.4489   1.4310   120.2801
 46      0.0000     0.0000E+00    0.0000E+00    1.434000E+09  0.02000  1.263E-04    0   0.5908   age139_m62            0.0000     3.6697E-01    10.9987   0.9976   117.9056
 47      0.0000     0.0000E+00    0.0000E+00    2.500000E+09  0.02000  5.985E-05    0   0.5673   age150_m62            0.0000     3.5370E-01    10.4938   0.6727   114.1324
 48      0.0611     3.2339E-02    3.3804E-02    4.250000E+09  0.02000  3.271E-05    0   0.5468   age158_m62            0.0000     3.4630E-01    10.0104   0.4103   111.0327
 49      0.0000     0.0000E+00    0.0000E+00    1.000000E+10  0.02000  1.360E-05    0   0.5167   age181_m62            0.0000     3.5700E-01     9.9839   0.1120   108.1755
 50      0.0000     0.0000E+00    0.0000E+00    1.800000E+10  0.02000  7.124E-06    0   0.5013   age213_m62            0.0000     3.7446E-01    10.3075  -0.0531   105.2343
 51      1.3006     8.6843E-04    1.6598E-03    1.000000E+06  0.05000  2.592E-02    0   0.9998   age020_m72            0.0000     4.9937E-01    14.4399   3.9918   102.8384
 52      0.0000     0.0000E+00    0.0000E+00    3.160000E+06  0.05000  4.845E-02    0   0.9577   age045_m72            0.0000     4.8617E-01    14.0372   3.8315   104.6734
 53      0.0000     0.0000E+00    0.0000E+00    5.010000E+06  0.05000  3.072E-02    0   0.9147   age055_m72            0.0000     5.3679E-01    15.3070   3.2682   113.9821
 54      0.0000     0.0000E+00    0.0000E+00    6.610000E+06  0.05000  1.455E-02    0   0.8877   age061_m72            0.0000     9.1804E-01    20.7667   2.3747   130.3962
 55      0.0000     0.0000E+00    0.0000E+00    1.000000E+07  0.05000  9.074E-03    0   0.8524   age070_m72            0.0000     5.7679E-01    15.4634   3.4834   112.5660
 56      0.0000     0.0000E+00    0.0000E+00    2.512000E+07  0.05000  4.250E-03    0   0.7902   age090_m72            0.0000     5.6178E-01    15.3407   3.1544   115.8285
 57      0.0000     0.0000E+00    0.0000E+00    4.000000E+07  0.05000  3.087E-03    0   0.7618   age104_m72            0.0000     5.7489E-01    15.5180   2.9128   118.5019
 58      0.0000     0.0000E+00    0.0000E+00    1.015200E+08  0.05000  1.700E-03    0   0.7096   age116_m72            0.0000     5.1307E-01    14.4460   2.6771   120.1155
 59      0.0000     0.0000E+00    0.0000E+00    2.861200E+08  0.05000  7.384E-04    0   0.6633   age125_m72            0.0000     4.5622E-01    12.9499   2.2099   122.3498
 60      0.0000     0.0000E+00    0.0000E+00    5.088000E+08  0.05000  3.819E-04    0   0.6372   age130_m72            0.0000     4.0046E-01    11.7847   1.7585   122.0123
 61      0.0000     0.0000E+00    0.0000E+00    9.047900E+08  0.05000  1.676E-04    0   0.6110   age135_m72            0.0000     3.6124E-01    10.7141   1.1241   116.5436
 62      0.0000     0.0000E+00    0.0000E+00    1.434000E+09  0.05000  8.837E-05    0   0.5874   age139_m72            0.0000     3.4763E-01    10.4354   0.6778   115.5678
 63     14.1976     5.8049E+00    6.2122E+00    2.500000E+09  0.05000  4.233E-05    0   0.5598   age150_m72            0.0000     3.4702E-01     9.9733   0.4248   111.2508
 64     64.3609     7.7624E+01    7.7892E+01    6.250000E+09  0.05000  1.435E-05    0   0.5249   age166_m72            0.0000     3.5897E-01    10.0627   0.0319   106.9548
 65      0.0000     0.0000E+00    0.0000E+00    1.300000E+10  0.05000  6.513E-06    0   0.5036   age193_m72            0.0000     3.8682E-01    10.5774  -0.1923   105.3416
 66      3.9696     1.5176E+01    1.4347E+01    1.800000E+10  0.05000  4.527E-06    0   0.4945   age213_m72            0.0000     4.0824E-01    10.9894  -0.3160   103.4345


## Synthesis Results - Average & Chains ##

# j      x_j: min, <> & last-chain-values for 1 ...  7 chains
  1      0.0000      0.1731      0.0000      0.0000      0.0000      0.0000      0.0000      0.0000      0.0000
  2      0.0000      0.1268      0.0000      0.0000      0.0000      1.0121      0.8662      1.5247      0.0000
  3      0.0000      0.0676      0.0000      0.0000      0.0000      0.0000      0.0000      0.0000      0.0000
  4      0.0000      0.5163      0.0000      1.6237      0.1759      0.1375      1.2090      0.0000      1.9192
  5      0.0000      0.3490      0.2260      0.0000      0.0000      0.0000      1.3877      0.0000      0.0000
  6      0.0000      0.3563      0.0000      1.6850      0.0000      1.0651      0.0000      0.0000      0.0000
  7      0.0000      0.2298      0.6163      0.0000      1.8590      0.2352      0.0000      0.0000      0.0000
  8      0.0000      0.1647      0.0000      1.1828      0.0000      0.0000      0.0000      0.0000      0.0000
  9      2.7635      0.1834      0.8878      0.0000      0.0000      0.0000      0.0000      0.0562      0.0000
 10      0.0000      0.1869      0.0000      0.1124      0.0000      0.0000      2.0018      0.0000      0.0000
 11      0.0000      0.2489      0.0000      0.0000      0.1285      0.0000      0.2438      1.0144      0.0000
 12      0.0024      0.6677      1.2638      0.0000      0.0000      2.6821      0.0000      0.0000      0.3057
 13     14.7134      0.8122      1.0125      3.3968      0.0000      0.8740      0.3290      0.0000      4.4417
 14      0.4576      2.1089      5.2153      2.7008      3.9228      0.0000      0.0000      1.2610      0.4565
 15      0.0000      3.4830      0.0000      0.0000      0.0000      0.0000     12.3125      0.7035      0.0000
 16      0.0000      3.7466      0.0000      0.0000      0.0000      0.0000      0.0000      0.0137      0.0000
 17      0.0000      5.8190      6.1022      0.0000      1.5097      0.4969      0.0000      1.9343      0.0000
 18      0.0000      0.0617      0.0000      1.0467      0.0000      0.0000      0.0000      0.5303      0.0000
 19      1.8712      0.5752      1.6525      2.9247      0.0000      3.3684      0.0000      0.0000      1.0261
 20      0.0000      0.1826      0.0000      0.0000      0.0000      0.0000      0.0000      0.5660      0.0000
 21      0.0000      0.1206      0.2486      0.0007      0.0000      0.0000      0.0000      0.0000      0.3504
 22      0.0000      0.1404      0.0000      0.0000      0.0000      0.0000      0.0000      0.0000      0.0689
 23      3.9154      0.2075      0.9690      0.0000      0.0000      0.0000      0.0000      1.5086      0.0510
 24      0.0000      0.0993      0.0000      0.0000      0.7020      0.0000      0.0000      0.0000      0.0000
 25      0.0000      0.2787      0.0000      0.0000      2.1489      0.0000      0.3402      1.7777      0.3051
 26      0.0000      0.0543      0.0000      0.0000      0.0592      0.0000      0.0000      0.0000      0.0000
 27      0.0000      0.2027      1.1475      0.8199      0.0000      0.7399      0.0000      0.0000      0.4045
 28      0.0000      0.5082      0.0000      0.0000      0.0000      0.0000      0.0000      0.0000      0.3891
 29      0.0000      1.5812      0.0000      2.1527      0.0000      5.1738      0.0000      0.8189      2.5112
 30      0.0000      3.5915      0.0000      0.0000      0.0000      1.5974      0.0000      3.0756      3.1649
 31      0.0000      3.8587      8.1954      1.9822      0.0000      0.0000      0.0000      0.0304      6.7568
 32      0.0000      5.3790      0.0000      0.0000      0.0000      1.4167      3.0704      2.6220      7.0697
 33      0.0000      0.9662      0.0000      1.4366      0.0000      0.0000      0.0000      0.8907      3.8574
 34      0.0000      0.9184      4.6143      0.0000      0.0000      0.7595      0.0000      0.0000      0.0000
 35      0.0000      0.1757      0.0000      0.2514      0.0000      0.0000      0.0000      0.0000      0.0000
 36      0.0000      0.0591      0.0000      0.0000      0.0000      0.0000      0.0000      0.0000      0.0000
 37      3.3433      0.1210      2.0110      0.0000      1.1704      0.0000      0.0000      0.0000      0.0000
 38      0.0000      0.3880      0.0000      0.5729      0.0000      0.0000      1.1997      0.0000      0.3444
 39      3.0838      0.1760      0.9223      0.0000      0.0000      0.0000      0.0000      3.0730      0.0000
 40      0.0000      0.1088      0.0000      0.0000      0.0000      0.0000      0.0000      0.0000      2.4685
 41      0.0000      0.1972      0.0000      0.9660      1.4982      0.0000      0.0000      0.8978      3.4608
 42      0.0000      0.1965      0.0000      0.0000      0.0000      1.6853      1.2333      0.0000      0.0000
 43      0.0000      0.3790      0.0000      0.0000      0.0000      0.0000      0.0000      0.0000      0.2651
 44      0.0000      0.1978      0.0000      0.0770      0.0000      0.0000      0.0000      0.0000      0.0000
 45      0.0000      0.6075      0.0000      0.0000      0.1297      0.0000      2.6723      0.0000      0.0000
 46      0.0000      2.3429      0.0000     10.6716      1.2601      4.4560      0.0000      1.5157      0.0000
