###################################################################
## OUTPUT of StarlightChains_v04.for    [Cid@UFSC - 01/Apr/2007] ##
###################################################################

## Some input info
2007sa.txt                               [arq_obs]
Base.CB07.vall.4m                        [arq_base]
Masks.EmLines.NEW.gm                     [arq_masks]
StCv04.C11.config                        [arq_config]
   66                                    [N_base]
    0                                    [N_YAV_components = # of components with extra extinction!]
    0                                    [i_FitPowerLaw (1/0 = Yes/No)]
-9.99                                    [alpha_PowerLaw]
CCM                                      [red_law_option]
 1.458241                                [q_norm = A(l_norm)/A(V)]

## (Re)Sampling Parameters
 3741.00                                 [l_ini (A)]
 7218.00                                 [l_fin (A)]
    1.00                                 [dl    (A)]     (OBS: dl_cushion =    50.00 A)

## Normalization info
 4020.00                                 [l_norm (A) - for base]
 4010.00                                 [llow_norm (A) - window for f_obs]
 4060.00                                 [lupp_norm (A) - window for f_obs]
1.255077E-15                             [fobs_norm (in input units)]

## S/N
 3691.00                                 [llow_SN (A) - window for S/N]
 7268.00                                 [lupp_SN (A) - window for S/N]
   6.289                                 [S/N in S/N window]
   5.578                                 [S/N in norm. window]
  20.758                                 [S/N_err in S/N window]
  18.410                                 [S/N_err in norm. window]
  1.0000                                 [fscale_chi2]

## etc...
    -2007341                             [idum_orig]
  2397                                   [NOl_eff]
  2397                                   [Nl_eff]
     0    NSIGMA                         [Ntot_cliped & clip_method]
  1541540                                [Nglobal_steps]
   7                                     [N_chains]
  26                                     [NEX0s_base = N_base in EX0s-fits]
 0   0   1        9   2.0   3.625E+01    [Clip-Bug, RC-Crash & Burn-In warning-flags, n_censored_weights, wei_nsig_threshold & wei_limit]
    15     15.162     14.650      0.512  [idt_all, wdt_TotTime, wdt_UsrTime & wdt_SysTime (sec)]

## Synthesis Results - Best model ##

 1.71180E-01                             [chi2/Nl_eff]
     1.59646                             [adev (%)]

   101.51830                             [sum-of-x (%)]
 1.33657E-15                             [Flux_tot (units of input spectrum!)]
 4.65065E-11                             [Mini_tot (???)]
 2.40423E-11                             [Mcor_tot (???)]

 -28.17                                  [v0_min  (km/s)]
 158.04                                  [vd_min  (km/s)]
 0.0356                                  [AV_min  (mag)]
 0.0000                                  [YAV_min (mag)]

# j     x_j(%)      Mini_j(%)     Mcor_j(%)     age_j(yr)     Z_j      (L/M)_j    YAV?  Mstars   component_j        a/Fe...       SSP_chi2r SSP_adev(%)   SSP_AV   SSP_x(%)
  1      0.0000     0.0000E+00    0.0000E+00    1.000000E+06  0.00400  1.094E-02    0   1.0000   age020_m42            0.0000     3.5293E+00     7.0622   3.5816    85.0643
  2      0.9660     6.8250E-04    1.3201E-03    3.160000E+06  0.00400  4.007E-02    0   0.9999   age045_m42            0.0000     2.9010E+00     5.8148   2.8123    92.9891
  3      0.0000     0.0000E+00    0.0000E+00    5.010000E+06  0.00400  2.539E-02    0   0.9488   age055_m42            0.0000     3.2067E+00     6.3459   3.1504    89.8477
  4      0.0000     0.0000E+00    0.0000E+00    6.610000E+06  0.00400  2.620E-02    0   0.9220   age061_m42            0.0000     2.9542E+00     5.8209   2.7288    93.6417
  5      0.0000     0.0000E+00    0.0000E+00    1.000000E+07  0.00400  1.322E-02    0   0.8862   age070_m42            0.0000     3.5856E+00     6.4986   2.3880    98.2521
  6      0.0000     0.0000E+00    0.0000E+00    1.445000E+07  0.00400  7.883E-03    0   0.8571   age078_m42            0.0000     3.7271E+00     6.7401   2.7347    94.8233
  7      0.0742     4.0021E-04    6.3279E-04    2.512000E+07  0.00400  5.251E-03    0   0.8174   age090_m42            0.0000     3.7448E+00     6.6746   2.2432    99.5047
  8      0.0000     0.0000E+00    0.0000E+00    4.000000E+07  0.00400  3.649E-03    0   0.7851   age104_m42            0.0000     3.3977E+00     6.3503   2.0111   100.6159
  9      0.3603     3.2925E-03    4.8588E-03    5.500000E+07  0.00400  3.098E-03    0   0.7629   age110_m42            0.0000     3.0935E+00     5.8686   2.1870    99.6353
 10      0.0000     0.0000E+00    0.0000E+00    1.015200E+08  0.00400  2.228E-03    0   0.7207   age116_m42            0.0000     2.9421E+00     5.6428   2.2195    99.3007
 11      0.0000     0.0000E+00    0.0000E+00    2.861200E+08  0.00400  1.093E-03    0   0.6648   age125_m42            0.0000     3.0185E+00     6.0697   1.6046   104.6079
 12      0.0000     0.0000E+00    0.0000E+00    5.088000E+08  0.00400  6.597E-04    0   0.6365   age130_m42            0.0000     2.4542E+00     5.4297   1.6133   104.6493
 13      0.0000     0.0000E+00    0.0000E+00    1.434000E+09  0.00400  2.132E-04    0   0.5798   age139_m42            0.0000     1.0718E+00     3.8305   0.6275   107.6226
 14      8.8093     4.2305E+00    4.4002E+00    4.250000E+09  0.00400  5.895E-05    0   0.5377   age158_m42            0.0000     3.2752E-01     2.0986   0.2348   101.2453
 15      9.3955     7.5778E+00    7.6399E+00    7.500000E+09  0.00400  3.510E-05    0   0.5212   age171_m42            0.0000     2.2332E-01     1.7221   0.0638    99.8507
 16     20.5187     2.8971E+01    2.8211E+01    1.300000E+10  0.00400  2.005E-05    0   0.5034   age193_m42            0.0000     2.1414E-01     1.7559  -0.0850    98.6228
 17     12.2894     2.2814E+01    2.1919E+01    1.800000E+10  0.00400  1.525E-05    0   0.4967   age213_m42            0.0000     2.2210E-01     1.7715  -0.1116    98.3257
 18      0.0000     0.0000E+00    0.0000E+00    1.000000E+06  0.00800  1.238E-02    0   1.0000   age020_m52            0.0000     3.5120E+00     7.0541   3.5779    85.2304
 19      0.0000     0.0000E+00    0.0000E+00    3.160000E+06  0.00800  3.074E-02    0   0.9966   age045_m52            0.0000     3.4312E+00     6.9351   3.5026    85.9477
 20      0.0000     0.0000E+00    0.0000E+00    5.010000E+06  0.00800  2.668E-02    0   0.9443   age055_m52            0.0000     3.2233E+00     6.4886   3.2358    88.8904
 21      0.0000     0.0000E+00    0.0000E+00    6.610000E+06  0.00800  2.136E-02    0   0.9177   age061_m52            0.0000     2.6766E+00     5.8933   1.8855    99.5480
 22      0.0000     0.0000E+00    0.0000E+00    1.000000E+07  0.00800  1.215E-02    0   0.8827   age070_m52            0.0000     3.9556E+00     7.0097   2.5557    98.5150
 23      0.0000     0.0000E+00    0.0000E+00    1.445000E+07  0.00800  8.717E-03    0   0.8552   age078_m52            0.0000     3.5951E+00     6.5950   2.6918    96.5281
 24      0.0000     0.0000E+00    0.0000E+00    2.512000E+07  0.00800  5.592E-03    0   0.8162   age090_m52            0.0000     3.7039E+00     6.6710   2.2971   101.1675
 25      1.1565     8.4033E-03    1.2746E-02    4.000000E+07  0.00800  3.896E-03    0   0.7841   age104_m52            0.0000     3.3799E+00     6.3356   2.2107   101.9822
 26      0.4909     6.4700E-03    9.0436E-03    1.015200E+08  0.00800  2.148E-03    0   0.7226   age116_m52            0.0000     2.8269E+00     5.7478   2.1669   101.0631
 27      0.0109     3.1021E-04    4.0102E-04    2.861200E+08  0.00800  9.925E-04    0   0.6683   age125_m52            0.0000     2.3456E+00     5.3605   1.6726   105.9333
 28      0.0492     4.4305E-03    5.2604E-03    9.047900E+08  0.00800  3.141E-04    0   0.6138   age135_m52            0.0000     9.1864E-01     3.8692   0.8706   110.8463
 29      0.0000     0.0000E+00    0.0000E+00    1.434000E+09  0.00800  1.719E-04    0   0.5853   age139_m52            0.0000     5.7661E-01     2.7782   0.3023   107.9479
 30      0.0000     0.0000E+00    0.0000E+00    2.500000E+09  0.00800  7.872E-05    0   0.5600   age150_m52            0.0000     2.1601E-01     1.7759   0.0877   102.5167
 31      0.0000     0.0000E+00    0.0000E+00    4.250000E+09  0.00800  4.336E-05    0   0.5426   age158_m52            0.0000     2.1256E-01     1.7453   0.0767   101.3583
 32      0.0000     0.0000E+00    0.0000E+00    6.250000E+09  0.00800  3.159E-05    0   0.5319   age166_m52            0.0000     2.5606E-01     2.1023  -0.1026   100.3658
 33      3.4929     7.2653E+00    7.1295E+00    1.300000E+10  0.00800  1.361E-05    0   0.5073   age193_m52            0.0000     4.7350E-01     3.0573  -0.5398    98.3820
 34      0.0000     0.0000E+00    0.0000E+00    1.800000E+10  0.00800  9.886E-06    0   0.4990   age213_m52            0.0000     7.5797E-01     3.9461  -0.6173    96.5941
 35      0.0000     0.0000E+00    0.0000E+00    1.000000E+06  0.02000  1.544E-02    0   1.0000   age020_m62            0.0000     3.5227E+00     7.0877   3.5765    85.3214
 36      0.0000     0.0000E+00    0.0000E+00    3.160000E+06  0.02000  3.762E-02    0   0.9858   age045_m62            0.0000     3.4921E+00     7.0557   3.5167    86.0255
 37      0.0000     0.0000E+00    0.0000E+00    5.010000E+06  0.02000  3.296E-02    0   0.9342   age055_m62            0.0000     3.0117E+00     6.0806   3.1102    91.0108
 38      2.3935     5.8716E-03    1.0064E-02    8.710000E+06  0.02000  1.154E-02    0   0.8861   age067_m62            0.0000     7.5564E+00    10.3490   1.9129   105.6398
 39      0.0000     0.0000E+00    0.0000E+00    1.445000E+07  0.02000  7.663E-03    0   0.8472   age078_m62            0.0000     4.6103E+00     7.8480   2.1610   102.7395
 40      0.0000     0.0000E+00    0.0000E+00    2.512000E+07  0.02000  4.532E-03    0   0.8099   age090_m62            0.0000     4.9841E+00     8.0904   2.1455   102.8372
 41      0.0000     0.0000E+00    0.0000E+00    5.500000E+07  0.02000  2.733E-03    0   0.7595   age110_m62            0.0000     3.3834E+00     6.3076   2.1989   100.9507
 42      0.0000     0.0000E+00    0.0000E+00    1.609000E+08  0.02000  1.369E-03    0   0.6985   age120_m62            0.0000     2.8563E+00     5.7311   2.0473   103.4349
 43      0.0000     0.0000E+00    0.0000E+00    2.861200E+08  0.02000  9.013E-04    0   0.6714   age125_m62            0.0000     2.4420E+00     5.4801   1.7909   106.8223
 44      0.0000     0.0000E+00    0.0000E+00    5.088000E+08  0.02000  5.028E-04    0   0.6449   age130_m62            0.0000     1.4767E+00     4.6436   1.4273   109.1860
 45      0.0000     0.0000E+00    0.0000E+00    9.047900E+08  0.02000  2.428E-04    0   0.6179   age135_m62            0.0000     5.4912E-01     2.9062   0.8536   108.0460
 46      0.0601     1.3476E-02    1.5401E-02    1.434000E+09  0.02000  1.263E-04    0   0.5908   age139_m62            0.0000     2.8342E-01     2.0433   0.4257   105.6688
 47      0.0000     0.0000E+00    0.0000E+00    2.500000E+09  0.02000  5.985E-05    0   0.5673   age150_m62            0.0000     2.7226E-01     2.2079   0.1011   102.2922
 48     12.3342     1.0675E+01    1.1291E+01    4.250000E+09  0.02000  3.271E-05    0   0.5468   age158_m62            0.0000     5.0431E-01     3.2388  -0.1646    99.6865
 49      0.0000     0.0000E+00    0.0000E+00    1.000000E+10  0.02000  1.360E-05    0   0.5167   age181_m62            0.0000     1.0704E+00     4.7972  -0.4692    97.4115
 50      1.2963     5.1511E+00    4.9950E+00    1.800000E+10  0.02000  7.124E-06    0   0.5013   age213_m62            0.0000     1.6321E+00     5.9632  -0.6367    94.8517
 51      0.0000     0.0000E+00    0.0000E+00    1.000000E+06  0.05000  2.592E-02    0   0.9998   age020_m72            0.0000     3.5813E+00     7.2039   3.5683    85.3141
 52      1.5021     8.7770E-04    1.6260E-03    3.160000E+06  0.05000  4.845E-02    0   0.9577   age045_m72            0.0000     3.2983E+00     6.6551   3.3947    87.4289
 53      0.0000     0.0000E+00    0.0000E+00    5.010000E+06  0.05000  3.072E-02    0   0.9147   age055_m72            0.0000     4.2683E+00     7.4565   2.8087    96.0534
 54      0.0000     0.0000E+00    0.0000E+00    6.610000E+06  0.05000  1.455E-02    0   0.8877   age061_m72            0.0000     1.2469E+01    13.1830   1.9216   108.7320
 55      0.0000     0.0000E+00    0.0000E+00    1.000000E+07  0.05000  9.074E-03    0   0.8524   age070_m72            0.0000     5.4820E+00     8.0692   2.9954    95.8096
 56      0.0000     0.0000E+00    0.0000E+00    2.512000E+07  0.05000  4.250E-03    0   0.7902   age090_m72            0.0000     4.6697E+00     7.4413   2.6680    98.8067
 57      0.0000     0.0000E+00    0.0000E+00    4.000000E+07  0.05000  3.087E-03    0   0.7618   age104_m72            0.0000     4.8416E+00     7.5745   2.4191   101.4765
 58      0.0000     0.0000E+00    0.0000E+00    1.015200E+08  0.05000  1.700E-03    0   0.7096   age116_m72            0.0000     3.3057E+00     6.2567   2.1737   103.7413
 59      0.0000     0.0000E+00    0.0000E+00    2.861200E+08  0.05000  7.384E-04    0   0.6633   age125_m72            0.0000     1.9104E+00     5.0298   1.6644   108.1385
 60      1.4388     1.0665E-01    1.3146E-01    5.088000E+08  0.05000  3.819E-04    0   0.6372   age130_m72            0.0000     8.7684E-01     3.5898   1.1935   108.9502
 61      9.6386     1.6281E+00    1.9242E+00    9.047900E+08  0.05000  1.676E-04    0   0.6110   age135_m72            0.0000     4.0716E-01     2.6542   0.5570   104.2510
 62      2.2219     7.1180E-01    8.0877E-01    1.434000E+09  0.05000  8.837E-05    0   0.5874   age139_m72            0.0000     3.3809E-01     2.5147   0.1017   103.7607
 63     11.7139     7.8340E+00    8.4831E+00    2.500000E+09  0.05000  4.233E-05    0   0.5598   age150_m72            0.0000     6.5406E-01     3.7197  -0.1520    99.9503
 64      1.1298     2.2289E+00    2.2631E+00    6.250000E+09  0.05000  1.435E-05    0   0.5249   age166_m72            0.0000     1.2733E+00     5.2557  -0.5499    96.2985
 65      0.1753     7.6186E-01    7.4217E-01    1.300000E+10  0.05000  6.513E-06    0   0.5036   age193_m72            0.0000     2.0768E+00     6.7440  -0.7759    94.9076
 66      0.0000     0.0000E+00    0.0000E+00    1.800000E+10  0.05000  4.527E-06    0   0.4945   age213_m72            0.0000     2.6438E+00     7.6465  -0.9010    93.2131


## Synthesis Results - Average & Chains ##

# j      x_j: min, <> & last-chain-values for 1 ...  7 chains
  1      0.0000      0.0587      0.1613      0.2300      0.3300      0.0000      0.0000      0.8384      0.0000
  2      0.9660      0.1073      0.1054      0.4448      0.0000      0.0000      0.0594      0.1491      0.0000
  3      0.0000      0.3140      0.0000      0.0000      0.0000      0.0000      0.1948      0.0000      1.3924
  4      0.0000      0.1742      0.0599      0.0000      1.2181      0.4448      0.0000      0.0000      0.0956
  5      0.0000      0.0725      0.0000      0.0223      0.0178      0.7991      0.0000      0.0420      0.0000
  6      0.0000      0.0767      0.0000      0.0000      0.0000      0.2628      0.0000      0.0000      0.0000
  7      0.0742      0.2211      0.3193      0.6616      0.0000      0.0000      0.0000      0.0000      0.0000
  8      0.0000      0.2651      0.5293      0.2166      0.0546      0.1073      0.2304      0.0000      0.9932
  9      0.3603      0.1073      0.0000      0.9065      0.0000      0.0000      0.0000      0.0000      0.0000
 10      0.0000      0.1112      0.5523      0.0000      0.0000      0.5968      0.0000      0.0000      0.0000
 11      0.0000      0.1273      0.0000      0.0000      0.0000      0.8559      0.3313      0.0000      0.0000
 12      0.0000      0.1615      0.0000      0.0000      0.3193      0.0000      0.0000      0.0000      0.0000
 13      0.0000      0.5067      0.0000      0.0000      0.9541      0.6845      0.0000      1.7680      0.0000
 14      8.8093      8.7588      7.6213      8.8915      9.6420     13.4110      9.7961      8.6834     10.8433
 15      9.3955      9.3864      9.0380     15.3149      9.4222     10.0895      9.6251      8.8132      8.1051
 16     20.5187      7.6413      9.0077      9.3113     15.6728      8.1839      7.5709      8.5155     10.4503
 17     12.2894      8.0281      7.2369      8.7420      8.8975      8.9599      8.8209      8.8212      7.9416
 18      0.0000      0.0921      0.0000      0.2068      0.0000      0.0000      0.0000      0.0000      0.0000
 19      0.0000      0.1542      0.0000      0.0000      0.0000      0.2746      0.4331      0.0594      0.3247
 20      0.0000      0.4251      0.0000      0.0000      0.6887      0.0673      0.0000      1.2410      0.7034
 21      0.0000      0.1402      0.0429      0.0000      0.0000      0.3084      0.4901      0.0000      0.0000
 22      0.0000      0.0642      0.0613      0.0000      0.0000      0.0000      0.7891      0.0000      0.0000
 23      0.0000      0.1521      0.0000      0.1484      0.0000      0.0000      0.0000      0.0000      0.0000
 24      0.0000      0.1417      0.0000      0.0000      0.5750      0.0000      0.2228      0.0000      0.0000
 25      1.1565      0.3873      0.6562      0.4552      0.0000      0.6278      0.0000      0.0320      0.8322
 26      0.4909      0.0740      0.0000      0.3010      0.0000      0.0000      0.0000      0.0391      0.1023
 27      0.0109      0.2518      0.4215      0.5880      0.0000      0.0000      0.0000      0.0000      0.0000
 28      0.0492      1.0053      0.7239      0.9245      0.0000      1.0287      0.0000      0.0000      0.4509
 29      0.0000      0.6862      0.1253      0.0000      0.2095      0.8062      0.0000      0.4651      0.0000
 30      0.0000      1.8800      2.8347      0.7502      0.0000      1.3926      1.9538      2.0609      1.3840
 31      0.0000      2.7118      5.5919      0.0000      0.0000      2.4075      1.9009      0.0000      0.0000
 32      0.0000      5.2287      5.3738      5.8920      4.0496      3.4264      6.1474      5.3762      2.9506
 33      3.4929      0.2998      0.2751      1.0767      0.1458      0.0000      0.9677      0.0000      0.1006
 34      0.0000      0.1864      0.8712      0.0000      0.4071      0.2103      0.0000      0.0000      0.0000
 35      0.0000      0.0643      0.0000      0.0000      0.0527      0.0000      0.0309      0.5447      0.6913
 36      0.0000      0.3067      0.8507      0.0000      0.0000      0.0000      0.7457      1.2555      0.0000
 37      0.0000      0.1361      0.0000      0.1826      0.0000      0.7495      0.5165      0.0000      0.0000
 38      2.3935      0.3340      0.0000      0.6300      0.5077      0.7420      0.0000      1.0547      0.2016
 39      0.0000      0.0717      0.5478      0.2063      0.0000      0.0819      0.0000      0.0000      0.0000
 40      0.0000      0.4624      0.2166      0.0000      0.0000      0.1528      0.8341      0.3514      1.2505
 41      0.0000      0.1109      0.3236      0.0000      0.0000      0.0000      0.0000      0.0000      0.0000
 42      0.0000      0.0776      0.0000      0.0000      0.4708      0.0105      0.0000      0.0000      0.3690
 43      0.0000      0.1649      0.4649      0.0000      0.0000      0.0000      0.5999      0.1787      0.0000
 44      0.0000      0.0946      0.0000      0.0562      0.3740      0.0000      0.3716      0.0000      0.0000
 45      0.0000      0.8479      2.6187      0.0000      0.0000      1.1038      0.0000      1.9592      0.0000
 46      0.0601      1.6490      1.6154      1.2436      2.8716      0.4804      1.6178      0.3695      0.0000
