###################################################################
## OUTPUT of StarlightChains_v04.for    [Cid@UFSC - 01/Apr/2007] ##
###################################################################

## Some input info
2007ag.txt                               [arq_obs]
Base.CB07.vall.4m                        [arq_base]
Masks.EmLines.NEW.gm                     [arq_masks]
StCv04.C11.config                        [arq_config]
   66                                    [N_base]
    0                                    [N_YAV_components = # of components with extra extinction!]
    0                                    [i_FitPowerLaw (1/0 = Yes/No)]
-9.99                                    [alpha_PowerLaw]
CCM                                      [red_law_option]
 1.458241                                [q_norm = A(l_norm)/A(V)]

## (Re)Sampling Parameters
 3741.00                                 [l_ini (A)]
 7218.00                                 [l_fin (A)]
    1.00                                 [dl    (A)]     (OBS: dl_cushion =    50.00 A)

## Normalization info
 4020.00                                 [l_norm (A) - for base]
 4010.00                                 [llow_norm (A) - window for f_obs]
 4060.00                                 [lupp_norm (A) - window for f_obs]
6.562247E-17                             [fobs_norm (in input units)]

## S/N
 3691.00                                 [llow_SN (A) - window for S/N]
 7268.00                                 [lupp_SN (A) - window for S/N]
   7.462                                 [S/N in S/N window]
   8.361                                 [S/N in norm. window]
  14.158                                 [S/N_err in S/N window]
  15.866                                 [S/N_err in norm. window]
  1.0000                                 [fscale_chi2]

## etc...
    -2007327                             [idum_orig]
  2384                                   [NOl_eff]
  2347                                   [Nl_eff]
    37    NSIGMA                         [Ntot_cliped & clip_method]
  1064490                                [Nglobal_steps]
   7                                     [N_chains]
  18                                     [NEX0s_base = N_base in EX0s-fits]
 0   0   1       13   2.0   3.035E+01    [Clip-Bug, RC-Crash & Burn-In warning-flags, n_censored_weights, wei_nsig_threshold & wei_limit]
    12     11.995     11.483      0.512  [idt_all, wdt_TotTime, wdt_UsrTime & wdt_SysTime (sec)]

## Synthesis Results - Best model ##

 5.39268E-01                             [chi2/Nl_eff]
     3.96843                             [adev (%)]

   104.02256                             [sum-of-x (%)]
 1.18480E-16                             [Flux_tot (units of input spectrum!)]
 4.28853E-13                             [Mini_tot (???)]
 2.59954E-13                             [Mcor_tot (???)]

-144.43                                  [v0_min  (km/s)]
 189.06                                  [vd_min  (km/s)]
 0.4105                                  [AV_min  (mag)]
 0.0000                                  [YAV_min (mag)]

# j     x_j(%)      Mini_j(%)     Mcor_j(%)     age_j(yr)     Z_j      (L/M)_j    YAV?  Mstars   component_j        a/Fe...       SSP_chi2r SSP_adev(%)   SSP_AV   SSP_x(%)
  1      0.0000     0.0000E+00    0.0000E+00    1.000000E+06  0.00400  1.094E-02    0   1.0000   age020_m42            0.0000     1.6759E+00     7.4069   3.0575    80.3447
  2      1.6204     1.0740E-02    1.7717E-02    3.160000E+06  0.00400  4.007E-02    0   0.9999   age045_m42            0.0000     1.1420E+00     6.0208   2.2683    88.6750
  3      0.0000     0.0000E+00    0.0000E+00    5.010000E+06  0.00400  2.539E-02    0   0.9488   age055_m42            0.0000     1.3397E+00     6.5689   2.6119    85.4562
  4      0.0000     0.0000E+00    0.0000E+00    6.610000E+06  0.00400  2.620E-02    0   0.9220   age061_m42            0.0000     1.0908E+00     5.8341   2.1819    89.4277
  5      0.0000     0.0000E+00    0.0000E+00    1.000000E+07  0.00400  1.322E-02    0   0.8862   age070_m42            0.0000     1.2592E+00     5.8702   1.8604    93.0433
  6      0.0000     0.0000E+00    0.0000E+00    1.445000E+07  0.00400  7.883E-03    0   0.8571   age078_m42            0.0000     1.3828E+00     6.2722   2.2107    89.6311
  7      0.0000     0.0000E+00    0.0000E+00    2.512000E+07  0.00400  5.251E-03    0   0.8174   age090_m42            0.0000     1.2893E+00     5.8566   1.7170    94.1758
  8      0.0000     0.0000E+00    0.0000E+00    4.000000E+07  0.00400  3.649E-03    0   0.7851   age104_m42            0.0000     1.1593E+00     5.5413   1.4826    95.3117
  9      0.0000     0.0000E+00    0.0000E+00    5.500000E+07  0.00400  3.098E-03    0   0.7629   age110_m42            0.0000     9.8409E-01     5.2317   1.6421    95.0997
 10      0.0000     0.0000E+00    0.0000E+00    1.015200E+08  0.00400  2.228E-03    0   0.7207   age116_m42            0.0000     8.9425E-01     5.0387   1.6630    95.2898
 11      0.0000     0.0000E+00    0.0000E+00    2.861200E+08  0.00400  1.093E-03    0   0.6648   age125_m42            0.0000     8.7250E-01     4.8363   1.0555   100.0135
 12      0.0000     0.0000E+00    0.0000E+00    5.088000E+08  0.00400  6.597E-04    0   0.6365   age130_m42            0.0000     7.3026E-01     4.5112   1.0541   100.4926
 13     22.1391     2.7579E+01    2.6380E+01    1.434000E+09  0.00400  2.132E-04    0   0.5798   age139_m42            0.0000     5.6393E-01     3.9762   0.0852   102.4069
 14      0.0019     8.4834E-03    7.5252E-03    4.250000E+09  0.00400  5.895E-05    0   0.5377   age158_m42            0.0000     7.4593E-01     4.7045  -0.2875    95.2739
 15      0.0000     0.0000E+00    0.0000E+00    7.500000E+09  0.00400  3.510E-05    0   0.5212   age171_m42            0.0000     8.4714E-01     5.0596  -0.4551    93.7671
 16      0.0000     0.0000E+00    0.0000E+00    1.300000E+10  0.00400  2.005E-05    0   0.5034   age193_m42            0.0000     9.6950E-01     5.4432  -0.6025    92.5038
 17      0.0000     0.0000E+00    0.0000E+00    1.800000E+10  0.00400  1.525E-05    0   0.4967   age213_m42            0.0000     9.6286E-01     5.4201  -0.6276    92.1625
 18      0.0000     0.0000E+00    0.0000E+00    1.000000E+06  0.00800  1.238E-02    0   1.0000   age020_m52            0.0000     1.6738E+00     7.4029   3.0539    80.4977
 19      0.0000     0.0000E+00    0.0000E+00    3.160000E+06  0.00800  3.074E-02    0   0.9966   age045_m52            0.0000     1.6175E+00     7.3015   2.9753    81.3022
 20      0.0000     0.0000E+00    0.0000E+00    5.010000E+06  0.00800  2.668E-02    0   0.9443   age055_m52            0.0000     1.3947E+00     6.7064   2.7014    84.3856
 21      0.0000     0.0000E+00    0.0000E+00    6.610000E+06  0.00800  2.136E-02    0   0.9177   age061_m52            0.0000     1.2284E+00     5.7856   1.3776    93.3030
 22      0.0000     0.0000E+00    0.0000E+00    1.000000E+07  0.00800  1.215E-02    0   0.8827   age070_m52            0.0000     1.4390E+00     6.2500   2.0377    92.8796
 23      0.0000     0.0000E+00    0.0000E+00    1.445000E+07  0.00800  8.717E-03    0   0.8552   age078_m52            0.0000     1.3280E+00     6.1092   2.1678    91.2474
 24      0.0000     0.0000E+00    0.0000E+00    2.512000E+07  0.00800  5.592E-03    0   0.8162   age090_m52            0.0000     1.2697E+00     5.7921   1.7731    95.6524
 25      0.0000     0.0000E+00    0.0000E+00    4.000000E+07  0.00800  3.896E-03    0   0.7841   age104_m52            0.0000     1.1089E+00     5.4311   1.6805    96.6848
 26      0.0000     0.0000E+00    0.0000E+00    1.015200E+08  0.00800  2.148E-03    0   0.7226   age116_m52            0.0000     9.0294E-01     5.0031   1.6229    96.4048
 27      8.9631     2.3985E+00    2.6444E+00    2.861200E+08  0.00800  9.925E-04    0   0.6683   age125_m52            0.0000     6.9058E-01     4.3721   1.1140   101.6865
 28      4.5877     3.8792E+00    3.9280E+00    9.047900E+08  0.00800  3.141E-04    0   0.6138   age135_m52            0.0000     5.7250E-01     4.0863   0.3264   105.4789
 29      2.7645     4.2713E+00    4.1243E+00    1.434000E+09  0.00800  1.719E-04    0   0.5853   age139_m52            0.0000     6.5824E-01     4.3701  -0.2268   101.9123
 30      0.0000     0.0000E+00    0.0000E+00    2.500000E+09  0.00800  7.872E-05    0   0.5600   age150_m52            0.0000     8.1543E-01     5.0084  -0.4413    96.7153
 31      0.0000     0.0000E+00    0.0000E+00    4.250000E+09  0.00800  4.336E-05    0   0.5426   age158_m52            0.0000     8.6585E-01     5.1534  -0.4479    95.4166
 32      0.0000     0.0000E+00    0.0000E+00    6.250000E+09  0.00800  3.159E-05    0   0.5319   age166_m52            0.0000     1.0208E+00     5.6375  -0.6309    94.6024
 33      0.0000     0.0000E+00    0.0000E+00    1.300000E+10  0.00800  1.361E-05    0   0.5073   age193_m52            0.0000     1.3416E+00     6.6277  -1.0000    89.9352
 34      0.0000     0.0000E+00    0.0000E+00    1.800000E+10  0.00800  9.886E-06    0   0.4990   age213_m52            0.0000     1.6875E+00     7.5888  -1.0000    85.2770
 35      0.0000     0.0000E+00    0.0000E+00    1.000000E+06  0.02000  1.544E-02    0   1.0000   age020_m62            0.0000     1.6877E+00     7.4414   3.0528    80.5730
 36      0.0000     0.0000E+00    0.0000E+00    3.160000E+06  0.02000  3.762E-02    0   0.9858   age045_m62            0.0000     1.6633E+00     7.4051   2.9907    81.3216
 37      0.0000     0.0000E+00    0.0000E+00    5.010000E+06  0.02000  3.296E-02    0   0.9342   age055_m62            0.0000     1.2097E+00     6.2766   2.5625    86.9337
 38      0.0000     0.0000E+00    0.0000E+00    8.710000E+06  0.02000  1.154E-02    0   0.8861   age067_m62            0.0000     3.0501E+00     8.9072   1.4429    97.4181
 39      0.0000     0.0000E+00    0.0000E+00    1.445000E+07  0.02000  7.663E-03    0   0.8472   age078_m62            0.0000     1.7577E+00     6.7756   1.6630    95.9251
 40      0.0000     0.0000E+00    0.0000E+00    2.512000E+07  0.02000  4.532E-03    0   0.8099   age090_m62            0.0000     1.8057E+00     6.8542   1.6439    96.2077
 41      0.0000     0.0000E+00    0.0000E+00    5.500000E+07  0.02000  2.733E-03    0   0.7595   age110_m62            0.0000     1.1253E+00     5.4837   1.6681    95.7299
 42      0.0000     0.0000E+00    0.0000E+00    1.609000E+08  0.02000  1.369E-03    0   0.6985   age120_m62            0.0000     8.1899E-01     4.7212   1.4891    99.3485
 43      5.1965     1.5313E+00    1.6961E+00    2.861200E+08  0.02000  9.013E-04    0   0.6714   age125_m62            0.0000     7.0920E-01     4.3689   1.2232   103.0361
 44     13.9195     7.3526E+00    7.8224E+00    5.088000E+08  0.02000  5.028E-04    0   0.6449   age130_m62            0.0000     6.2507E-01     4.2282   0.8604   105.1242
 45      3.4561     3.7805E+00    3.8537E+00    9.047900E+08  0.02000  2.428E-04    0   0.6179   age135_m62            0.0000     6.1361E-01     4.2739   0.3074   102.8926
 46      2.7411     5.7641E+00    5.6181E+00    1.434000E+09  0.02000  1.263E-04    0   0.5908   age139_m62            0.0000     7.4122E-01     4.7063  -0.1093   100.0300
 47      0.0000     0.0000E+00    0.0000E+00    2.500000E+09  0.02000  5.985E-05    0   0.5673   age150_m62            0.0000     9.7705E-01     5.5595  -0.4327    96.7076
 48      0.0000     0.0000E+00    0.0000E+00    4.250000E+09  0.02000  3.271E-05    0   0.5468   age158_m62            0.0000     1.2880E+00     6.4778  -0.7027    94.3790
 49      0.0000     0.0000E+00    0.0000E+00    1.000000E+10  0.02000  1.360E-05    0   0.5167   age181_m62            0.0000     1.7527E+00     7.5951  -1.0000    91.8977
 50      0.0000     0.0000E+00    0.0000E+00    1.800000E+10  0.02000  7.124E-06    0   0.5013   age213_m62            0.0000     2.3385E+00     9.0076  -1.0000    83.0126
 51      0.0000     0.0000E+00    0.0000E+00    1.000000E+06  0.05000  2.592E-02    0   0.9998   age020_m72            0.0000     1.7517E+00     7.5644   3.0492    80.3912
 52      0.0000     0.0000E+00    0.0000E+00    3.160000E+06  0.05000  4.845E-02    0   0.9577   age045_m72            0.0000     1.4782E+00     7.0057   2.8580    83.0670
 53      0.0000     0.0000E+00    0.0000E+00    5.010000E+06  0.05000  3.072E-02    0   0.9147   age055_m72            0.0000     1.6642E+00     6.8982   2.3016    90.0076
 54      0.0000     0.0000E+00    0.0000E+00    6.610000E+06  0.05000  1.455E-02    0   0.8877   age061_m72            0.0000     4.7551E+00    11.1201   1.4722    99.1932
 55      0.0000     0.0000E+00    0.0000E+00    1.000000E+07  0.05000  9.074E-03    0   0.8524   age070_m72            0.0000     1.9529E+00     7.4690   2.4894    89.7090
 56      0.0000     0.0000E+00    0.0000E+00    2.512000E+07  0.05000  4.250E-03    0   0.7902   age090_m72            0.0000     1.5516E+00     6.5391   2.1478    93.1851
 57      0.0000     0.0000E+00    0.0000E+00    4.000000E+07  0.05000  3.087E-03    0   0.7618   age104_m72            0.0000     1.5312E+00     6.3857   1.8942    95.9131
 58      0.0000     0.0000E+00    0.0000E+00    1.015200E+08  0.05000  1.700E-03    0   0.7096   age116_m72            0.0000     9.3735E-01     5.0054   1.6224    99.3318
 59      7.4356     2.6744E+00    2.9265E+00    2.861200E+08  0.05000  7.384E-04    0   0.6633   age125_m72            0.0000     6.4286E-01     4.2140   1.0956   104.2672
 60     18.7345     1.3029E+01    1.3696E+01    5.088000E+08  0.05000  3.819E-04    0   0.6372   age130_m72            0.0000     5.9338E-01     4.2326   0.6338   104.4884
 61      6.8510     1.0856E+01    1.0943E+01    9.047900E+08  0.05000  1.676E-04    0   0.6110   age135_m72            0.0000     8.8451E-01     5.3009   0.0081    99.3318
 62      5.6114     1.6865E+01    1.6343E+01    1.434000E+09  0.05000  8.837E-05    0   0.5874   age139_m72            0.0000     1.0379E+00     5.7183  -0.4361    98.2711
 63      0.0000     0.0000E+00    0.0000E+00    2.500000E+09  0.05000  4.233E-05    0   0.5598   age150_m72            0.0000     1.4089E+00     6.7935  -0.6934    94.7589
 64      0.0000     0.0000E+00    0.0000E+00    6.250000E+09  0.05000  1.435E-05    0   0.5249   age166_m72            0.0000     1.9414E+00     8.1786  -1.0000    87.6397
 65      0.0000     0.0000E+00    0.0000E+00    1.300000E+10  0.05000  6.513E-06    0   0.5036   age193_m72            0.0000     3.0058E+00    10.4684  -1.0000    77.9324
 66      0.0000     0.0000E+00    0.0000E+00    1.800000E+10  0.05000  4.527E-06    0   0.4945   age213_m72            0.0000     3.8689E+00    12.0884  -1.0000    72.2056


## Synthesis Results - Average & Chains ##

# j      x_j: min, <> & last-chain-values for 1 ...  7 chains
  1      0.0000      0.1080      0.0000      0.0000      0.0000      0.0000      0.1964      1.2724      0.3776
  2      1.6204      0.2404      0.0000      0.0000      0.0000      0.0000      0.3356      0.0893      0.3072
  3      0.0000      0.1089      0.0000      0.0000      0.0000      0.0000      0.0000      1.1110      0.0000
  4      0.0000      0.1220      0.0000      0.0000      0.0000      0.0000      0.0000      0.0000      0.0000
  5      0.0000      0.2222      0.0000      0.0000      0.0000      1.6570      0.0000      0.2189      0.0000
  6      0.0000      0.0926      0.7478      0.0000      0.0859      0.0000      0.0000      0.0000      0.6152
  7      0.0000      0.2529      0.0000      0.2149      0.0000      0.0000      0.0000      0.0000      0.0000
  8      0.0000      0.3070      0.0000      0.1157      1.2695      0.0000      0.0000      0.0703      0.9180
  9      0.0000      0.2934      0.8267      1.5660      0.0000      0.0000      0.3295      0.0000      0.0000
 10      0.0000      0.3315      0.0000      0.9547      0.0000      0.0000      0.9960      0.0000      0.0000
 11      0.0000      0.7326      2.2176      1.4494      0.0000      0.1455      0.1636      1.2045      0.0000
 12      0.0000      1.7950      1.7341      1.1896      1.7242      2.2331      0.2766      3.3024      2.8355
 13     22.1391     10.5513     13.2225     15.0378     11.5639     12.0901     13.2664     12.4621     14.9066
 14      0.0019      0.7873      0.8962      0.0000      0.6051      0.0979      0.5270      0.0000      0.0000
 15      0.0000      0.0779      0.0000      0.0000      0.0000      0.0000      0.0000      0.0000      0.0000
 16      0.0000      0.0561      0.0000      0.1405      0.0000      0.0000      0.0000      0.0000      0.0000
 17      0.0000      0.1565      0.0000      0.0000      0.0986      0.0000      0.0000      0.1015      0.0000
 18      0.0000      0.1334      0.0000      0.9911      0.0000      0.0000      0.0000      0.0000      0.0000
 19      0.0000      0.0764      0.0000      0.0000      0.0000      0.0000      0.0000      0.0000      0.1537
 20      0.0000      0.0711      0.0000      0.0000      0.0000      0.0000      0.0000      0.0000      0.0000
 21      0.0000      0.2574      0.0000      0.0000      0.1384      0.0000      0.0000      0.0000      0.8738
 22      0.0000      0.2250      0.0000      0.0000      0.0000      0.0000      0.0000      0.0000      0.0000
 23      0.0000      0.1638      0.0000      0.0000      0.0000      0.0000      0.5127      0.1261      0.3665
 24      0.0000      0.1618      0.0000      0.0000      0.0000      0.0000      0.0000      0.0000      0.0000
 25      0.0000      0.3887      0.3178      0.0000      0.0000      0.0000      0.0000      0.0000      0.9368
 26      0.0000      0.2135      0.0000      0.0000      0.0000      0.0000      0.1558      0.0000      0.0000
 27      8.9631      1.4790      0.0000      1.4086      2.3686      1.5591      3.4643      2.6627      0.0000
 28      4.5877     16.0540     11.5565     16.2088     14.2248     17.6419     10.4902     15.7993     16.5968
 29      2.7645      0.4585      1.1340      0.0000      1.3214      2.3307      0.5993      0.0000      0.9001
 30      0.0000      0.2017      0.1490      0.0000      0.0000      0.0000      0.0000      0.0000      0.0000
 31      0.0000      0.2387      0.0000      0.0000      0.3103      0.0550      0.0000      0.0000      0.0000
 32      0.0000      0.2365      0.7572      0.0000      0.0000      0.0000      0.0000      0.2911      0.4768
 33      0.0000      0.0549      0.1845      0.0000      0.0000      0.0000      0.0000      0.1685      0.0608
 34      0.0000      0.0508      0.0000      0.0000      0.0000      0.0000      0.3188      0.0000      0.0000
 35      0.0000      0.0359      0.0000      0.0000      0.0000      0.0000      0.0000      0.0000      0.0504
 36      0.0000      0.0473      0.0000      0.0000      0.0000      0.0000      0.0146      0.0000      0.0000
 37      0.0000      0.0927      0.4688      0.0000      0.4546      0.0000      0.0000      0.0000      0.0000
 38      0.0000      0.1266      0.0000      0.0000      0.0000      0.1718      0.0000      0.0000      0.0000
 39      0.0000      0.1502      0.0000      0.0725      0.5126      0.7412      0.0000      0.0000      0.3326
 40      0.0000      0.2005      0.0000      0.0000      0.0000      0.0810      0.0000      0.0000      0.0000
 41      0.0000      0.2490      0.0000      0.0000      0.3002      0.0000      0.0000      0.2821      0.0920
 42      0.0000      0.6773      0.0000      1.1097      1.0935      2.9453      0.0000      0.4488      0.5582
 43      5.1965      4.2346      4.5785      4.4427      4.9509      6.0543      4.2472      4.8763      3.6203
 44     13.9195     14.8335     17.0082     12.4515     12.7349     12.9983     16.8286     15.1327     15.5305
 45      3.4561     13.5082     14.7946     15.0041     13.9278     14.1883     13.3313     11.8623     11.8623
 46      2.7411      1.7167      0.0000      1.3286      1.4214      1.9213      2.9294      3.4543      0.5344
