###################################################################
## OUTPUT of StarlightChains_v04.for    [Cid@UFSC - 01/Apr/2007] ##
###################################################################

## Some input info
2007bb.txt                               [arq_obs]
Base.CB07.vall.4m                        [arq_base]
Masks.EmLines.NEW.gm                     [arq_masks]
StCv04.C11.config                        [arq_config]
   66                                    [N_base]
    0                                    [N_YAV_components = # of components with extra extinction!]
    0                                    [i_FitPowerLaw (1/0 = Yes/No)]
-9.99                                    [alpha_PowerLaw]
CCM                                      [red_law_option]
 1.458241                                [q_norm = A(l_norm)/A(V)]

## (Re)Sampling Parameters
 3741.00                                 [l_ini (A)]
 7218.00                                 [l_fin (A)]
    1.00                                 [dl    (A)]     (OBS: dl_cushion =    50.00 A)

## Normalization info
 4020.00                                 [l_norm (A) - for base]
 4010.00                                 [llow_norm (A) - window for f_obs]
 4060.00                                 [lupp_norm (A) - window for f_obs]
1.636284E-17                             [fobs_norm (in input units)]

## S/N
 3691.00                                 [llow_SN (A) - window for S/N]
 7268.00                                 [lupp_SN (A) - window for S/N]
   2.270                                 [S/N in S/N window]
   1.457                                 [S/N in norm. window]
  10.000                                 [S/N_err in S/N window]
   6.420                                 [S/N_err in norm. window]
  1.0000                                 [fscale_chi2]

## etc...
    -2007330                             [idum_orig]
  2263                                   [NOl_eff]
   893                                   [Nl_eff]
  1370    NSIGMA                         [Ntot_cliped & clip_method]
   290850                                [Nglobal_steps]
   7                                     [N_chains]
   9                                     [NEX0s_base = N_base in EX0s-fits]
 0   0   1       11   2.0   9.712E+01    [Clip-Bug, RC-Crash & Burn-In warning-flags, n_censored_weights, wei_nsig_threshold & wei_limit]
     9      9.330      8.825      0.505  [idt_all, wdt_TotTime, wdt_UsrTime & wdt_SysTime (sec)]

## Synthesis Results - Best model ##

 2.54619E+00                             [chi2/Nl_eff]
    13.40420                             [adev (%)]

    79.23318                             [sum-of-x (%)]
 4.71545E-18                             [Flux_tot (units of input spectrum!)]
 1.04163E-12                             [Mini_tot (???)]
 5.15085E-13                             [Mcor_tot (???)]

   5.97                                  [v0_min  (km/s)]
  32.14                                  [vd_min  (km/s)]
-0.7530                                  [AV_min  (mag)]
 0.0000                                  [YAV_min (mag)]

# j     x_j(%)      Mini_j(%)     Mcor_j(%)     age_j(yr)     Z_j      (L/M)_j    YAV?  Mstars   component_j        a/Fe...       SSP_chi2r SSP_adev(%)   SSP_AV   SSP_x(%)
  1      0.0000     0.0000E+00    0.0000E+00    1.000000E+06  0.00400  1.094E-02    0   1.0000   age020_m42            0.0000     4.1731E+00    16.5638   3.9009    64.4534
  2      0.0000     0.0000E+00    0.0000E+00    3.160000E+06  0.00400  4.007E-02    0   0.9999   age045_m42            0.0000     4.2077E+00    16.6289   3.1515    69.5259
  3      0.0000     0.0000E+00    0.0000E+00    5.010000E+06  0.00400  2.539E-02    0   0.9488   age055_m42            0.0000     4.2104E+00    16.6408   3.4774    67.6391
  4      0.0000     0.0000E+00    0.0000E+00    6.610000E+06  0.00400  2.620E-02    0   0.9220   age061_m42            0.0000     4.2585E+00    16.7201   3.0663    69.9304
  5      0.0000     0.0000E+00    0.0000E+00    1.000000E+07  0.00400  1.322E-02    0   0.8862   age070_m42            0.0000     4.6020E+00    17.4291   2.7406    71.9359
  6      0.0000     0.0000E+00    0.0000E+00    1.445000E+07  0.00400  7.883E-03    0   0.8571   age078_m42            0.0000     4.5832E+00    17.3998   3.0806    69.7954
  7      0.0000     0.0000E+00    0.0000E+00    2.512000E+07  0.00400  5.251E-03    0   0.8174   age090_m42            0.0000     4.6641E+00    17.5364   2.6031    72.4238
  8      0.0000     0.0000E+00    0.0000E+00    4.000000E+07  0.00400  3.649E-03    0   0.7851   age104_m42            0.0000     4.5949E+00    17.4147   2.3747    73.1692
  9      0.0000     0.0000E+00    0.0000E+00    5.500000E+07  0.00400  3.098E-03    0   0.7629   age110_m42            0.0000     4.4762E+00    17.1755   2.5410    73.1110
 10      0.0000     0.0000E+00    0.0000E+00    1.015200E+08  0.00400  2.228E-03    0   0.7207   age116_m42            0.0000     4.3974E+00    17.0016   2.5698    73.2196
 11      0.0000     0.0000E+00    0.0000E+00    2.861200E+08  0.00400  1.093E-03    0   0.6648   age125_m42            0.0000     4.6325E+00    17.5767   1.9572    76.4659
 12      0.0000     0.0000E+00    0.0000E+00    5.088000E+08  0.00400  6.597E-04    0   0.6365   age130_m42            0.0000     4.3895E+00    17.0901   1.9631    77.0747
 13      0.0000     0.0000E+00    0.0000E+00    1.434000E+09  0.00400  2.132E-04    0   0.5798   age139_m42            0.0000     3.8962E+00    16.1924   0.9962    79.0168
 14      0.0000     0.0000E+00    0.0000E+00    4.250000E+09  0.00400  5.895E-05    0   0.5377   age158_m42            0.0000     3.4827E+00    15.3998   0.5855    75.7269
 15      0.0000     0.0000E+00    0.0000E+00    7.500000E+09  0.00400  3.510E-05    0   0.5212   age171_m42            0.0000     3.3773E+00    15.2149   0.3969    75.4976
 16      0.0000     0.0000E+00    0.0000E+00    1.300000E+10  0.00400  2.005E-05    0   0.5034   age193_m42            0.0000     3.2969E+00    15.0789   0.2276    75.4633
 17      0.0000     0.0000E+00    0.0000E+00    1.800000E+10  0.00400  1.525E-05    0   0.4967   age213_m42            0.0000     3.2972E+00    15.0712   0.2079    74.9850
 18      0.0000     0.0000E+00    0.0000E+00    1.000000E+06  0.00800  1.238E-02    0   1.0000   age020_m52            0.0000     4.1722E+00    16.5573   3.8995    64.5080
 19      0.0000     0.0000E+00    0.0000E+00    3.160000E+06  0.00800  3.074E-02    0   0.9966   age045_m52            0.0000     4.1511E+00    16.5111   3.8255    65.0229
 20      0.0000     0.0000E+00    0.0000E+00    5.010000E+06  0.00800  2.668E-02    0   0.9443   age055_m52            0.0000     4.1972E+00    16.5992   3.5661    66.8037
 21      0.0000     0.0000E+00    0.0000E+00    6.610000E+06  0.00800  2.136E-02    0   0.9177   age061_m52            0.0000     4.3296E+00    16.9634   2.2455    72.8902
 22      0.0000     0.0000E+00    0.0000E+00    1.000000E+07  0.00800  1.215E-02    0   0.8827   age070_m52            0.0000     4.7535E+00    17.7493   2.9128    71.6730
 23      0.0000     0.0000E+00    0.0000E+00    1.445000E+07  0.00800  8.717E-03    0   0.8552   age078_m52            0.0000     4.5740E+00    17.3687   3.0433    70.7903
 24      0.0000     0.0000E+00    0.0000E+00    2.512000E+07  0.00800  5.592E-03    0   0.8162   age090_m52            0.0000     4.7006E+00    17.6200   2.6630    73.2947
 25      0.0000     0.0000E+00    0.0000E+00    4.000000E+07  0.00800  3.896E-03    0   0.7841   age104_m52            0.0000     4.6583E+00    17.5585   2.5743    74.0307
 26      0.0000     0.0000E+00    0.0000E+00    1.015200E+08  0.00800  2.148E-03    0   0.7226   age116_m52            0.0000     4.4689E+00    17.1772   2.5264    73.9275
 27      0.0000     0.0000E+00    0.0000E+00    2.861200E+08  0.00800  9.925E-04    0   0.6683   age125_m52            0.0000     4.3811E+00    17.0763   2.0258    77.8120
 28      0.0000     0.0000E+00    0.0000E+00    9.047900E+08  0.00800  3.141E-04    0   0.6138   age135_m52            0.0000     3.9003E+00    16.2768   1.2255    81.9277
 29      0.0000     0.0000E+00    0.0000E+00    1.434000E+09  0.00800  1.719E-04    0   0.5853   age139_m52            0.0000     3.7044E+00    15.9616   0.6509    80.2439
 30      0.0000     0.0000E+00    0.0000E+00    2.500000E+09  0.00800  7.872E-05    0   0.5600   age150_m52            0.0000     3.3452E+00    15.2075   0.4113    77.8303
 31      0.0000     0.0000E+00    0.0000E+00    4.250000E+09  0.00800  4.336E-05    0   0.5426   age158_m52            0.0000     3.3156E+00    15.1415   0.3969    77.1430
 32      0.0000     0.0000E+00    0.0000E+00    6.250000E+09  0.00800  3.159E-05    0   0.5319   age166_m52            0.0000     3.1506E+00    14.7979   0.1953    77.5472
 33      0.0000     0.0000E+00    0.0000E+00    1.300000E+10  0.00800  1.361E-05    0   0.5073   age193_m52            0.0000     2.9594E+00    14.3505  -0.2645    77.2482
 34      0.0000     0.0000E+00    0.0000E+00    1.800000E+10  0.00800  9.886E-06    0   0.4990   age213_m52            0.0000     2.8491E+00    14.0864  -0.3657    77.0237
 35      0.0000     0.0000E+00    0.0000E+00    1.000000E+06  0.02000  1.544E-02    0   1.0000   age020_m62            0.0000     4.1753E+00    16.5568   3.8972    64.6033
 36      0.0000     0.0000E+00    0.0000E+00    3.160000E+06  0.02000  3.762E-02    0   0.9858   age045_m62            0.0000     4.1646E+00    16.5433   3.8397    65.0724
 37      0.0000     0.0000E+00    0.0000E+00    5.010000E+06  0.02000  3.296E-02    0   0.9342   age055_m62            0.0000     4.1650E+00    16.5099   3.4405    68.4458
 38      0.0000     0.0000E+00    0.0000E+00    8.710000E+06  0.02000  1.154E-02    0   0.8861   age067_m62            0.0000     5.6525E+00    19.3975   2.2994    74.0322
 39      0.0000     0.0000E+00    0.0000E+00    1.445000E+07  0.02000  7.663E-03    0   0.8472   age078_m62            0.0000     5.0203E+00    18.3287   2.5292    73.7236
 40      0.0000     0.0000E+00    0.0000E+00    2.512000E+07  0.02000  4.532E-03    0   0.8099   age090_m62            0.0000     5.1253E+00    18.5194   2.5136    73.6254
 41      0.0000     0.0000E+00    0.0000E+00    5.500000E+07  0.02000  2.733E-03    0   0.7595   age110_m62            0.0000     4.6045E+00    17.4315   2.5579    73.5410
 42      0.0000     0.0000E+00    0.0000E+00    1.609000E+08  0.02000  1.369E-03    0   0.6985   age120_m62            0.0000     4.4613E+00    17.1400   2.3990    75.9723
 43      0.0000     0.0000E+00    0.0000E+00    2.861200E+08  0.02000  9.013E-04    0   0.6714   age125_m62            0.0000     4.3425E+00    16.9002   2.1478    78.4532
 44      0.0000     0.0000E+00    0.0000E+00    5.088000E+08  0.02000  5.028E-04    0   0.6449   age130_m62            0.0000     4.0220E+00    16.3394   1.7805    80.8707
 45      0.0000     0.0000E+00    0.0000E+00    9.047900E+08  0.02000  2.428E-04    0   0.6179   age135_m62            0.0000     3.6346E+00    15.7318   1.1935    80.9748
 46      0.0000     0.0000E+00    0.0000E+00    1.434000E+09  0.02000  1.263E-04    0   0.5908   age139_m62            0.0000     3.4176E+00    15.3423   0.7563    79.8365
 47      0.0000     0.0000E+00    0.0000E+00    2.500000E+09  0.02000  5.985E-05    0   0.5673   age150_m62            0.0000     3.1562E+00    14.7945   0.4056    78.7798
 48      0.0000     0.0000E+00    0.0000E+00    4.250000E+09  0.02000  3.271E-05    0   0.5468   age158_m62            0.0000     2.9127E+00    14.2523   0.1100    78.4377
 49      0.0000     0.0000E+00    0.0000E+00    1.000000E+10  0.02000  1.360E-05    0   0.5167   age181_m62            0.0000     2.7398E+00    13.8333  -0.2349    78.5843
 50      0.0000     0.0000E+00    0.0000E+00    1.800000E+10  0.02000  7.124E-06    0   0.5013   age213_m62            0.0000     2.6492E+00    13.6370  -0.4372    78.1468
 51      0.0000     0.0000E+00    0.0000E+00    1.000000E+06  0.05000  2.592E-02    0   0.9998   age020_m72            0.0000     4.1967E+00    16.5820   3.8922    64.4865
 52      0.0000     0.0000E+00    0.0000E+00    3.160000E+06  0.05000  4.845E-02    0   0.9577   age045_m72            0.0000     4.1349E+00    16.4546   3.7214    66.0339
 53      0.0000     0.0000E+00    0.0000E+00    5.010000E+06  0.05000  3.072E-02    0   0.9147   age055_m72            0.0000     4.8886E+00    18.1176   3.1474    70.4515
 54      0.0000     0.0000E+00    0.0000E+00    6.610000E+06  0.05000  1.455E-02    0   0.8877   age061_m72            0.0000     6.9613E+00    21.7910   2.2934    75.2493
 55      0.0000     0.0000E+00    0.0000E+00    1.000000E+07  0.05000  9.074E-03    0   0.8524   age070_m72            0.0000     5.3057E+00    19.0080   3.3148    70.6038
 56      0.0000     0.0000E+00    0.0000E+00    2.512000E+07  0.05000  4.250E-03    0   0.7902   age090_m72            0.0000     5.1109E+00    18.5569   3.0090    72.0664
 57      0.0000     0.0000E+00    0.0000E+00    4.000000E+07  0.05000  3.087E-03    0   0.7618   age104_m72            0.0000     5.1731E+00    18.6467   2.7671    73.5840
 58      0.0000     0.0000E+00    0.0000E+00    1.015200E+08  0.05000  1.700E-03    0   0.7096   age116_m72            0.0000     4.6637E+00    17.5492   2.5314    75.6174
 59      0.0000     0.0000E+00    0.0000E+00    2.861200E+08  0.05000  7.384E-04    0   0.6633   age125_m72            0.0000     4.1772E+00    16.5814   2.0193    79.7262
 60      0.0000     0.0000E+00    0.0000E+00    5.088000E+08  0.05000  3.819E-04    0   0.6372   age130_m72            0.0000     3.6978E+00    15.7433   1.5416    81.3327
 61      0.0000     0.0000E+00    0.0000E+00    9.047900E+08  0.05000  1.676E-04    0   0.6110   age135_m72            0.0000     3.1901E+00    14.7946   0.8638    80.2636
 62      0.0000     0.0000E+00    0.0000E+00    1.434000E+09  0.05000  8.837E-05    0   0.5874   age139_m72            0.0000     3.1001E+00    14.6779   0.3969    80.3827
 63      0.0000     0.0000E+00    0.0000E+00    2.500000E+09  0.05000  4.233E-05    0   0.5598   age150_m72            0.0000     2.8485E+00    14.1223   0.1072    79.3750
 64      0.0000     0.0000E+00    0.0000E+00    6.250000E+09  0.05000  1.435E-05    0   0.5249   age166_m72            0.0000     2.6740E+00    13.7034  -0.3277    78.3266
 65      0.0000     0.0000E+00    0.0000E+00    1.300000E+10  0.05000  6.513E-06    0   0.5036   age193_m72            0.0000     2.5700E+00    13.4480  -0.6022    79.4536
 66     79.2332     1.0000E+02    1.0000E+02    1.800000E+10  0.05000  4.527E-06    0   0.4945   age213_m72            0.0000     2.5462E+00    13.4045  -0.7531    79.2360


## Synthesis Results - Average & Chains ##

# j      x_j: min, <> & last-chain-values for 1 ...  7 chains
  1      0.0000      0.0280      0.0000      0.0000      0.5877      0.0215      0.0000      0.1657      0.0000
  2      0.0000      0.0224      0.0000      0.2151      0.0000      0.0000      0.0000      0.0000      0.0000
  3      0.0000      0.0234      0.2469      0.0000      0.0000      0.0000      0.0000      0.0000      0.1190
  4      0.0000      0.0146      0.0712      0.0000      0.0000      0.0000      0.0000      0.0000      0.0000
  5      0.0000      0.0146      0.0000      0.0000      0.0000      0.0000      0.0000      0.0000      0.0000
  6      0.0000      0.0166      0.0000      0.0000      0.0000      0.0000      0.0000      0.0000      0.0000
  7      0.0000      0.0188      0.0000      0.0000      0.0656      0.0000      0.0000      0.0000      0.0000
  8      0.0000      0.0565      0.0000      0.0000      0.0000      0.0161      0.0551      0.0022      0.0228
  9      0.0000      0.0229      0.0000      0.0000      0.0000      0.0000      0.0000      0.0076      0.0000
 10      0.0000      0.0184      0.0000      0.0000      0.0000      0.0000      0.0000      0.0000      0.0000
 11      0.0000      0.0456      0.0000      0.0000      0.0000      0.0000      0.0000      0.0000      0.0000
 12      0.0000      0.0265      0.0371      0.0000      0.0000      0.0000      0.0000      0.0000      0.0000
 13      0.0000      0.0510      0.0000      0.0000      0.0000      0.0000      0.0000      0.1752      0.3139
 14      0.0000      0.0733      0.0000      0.1462      0.0000      0.0000      0.0897      0.0000      0.0000
 15      0.0000      0.0966      0.1450      0.0000      0.8664      0.0427      0.0000      0.2985      0.0000
 16      0.0000      0.0992      0.0000      0.0000      0.0000      0.0376      0.0000      0.0562      0.2148
 17      0.0000      0.0758      0.5051      0.0000      0.0461      0.0000      0.0546      0.0000      0.0000
 18      0.0000      0.0216      0.0000      0.0000      0.0000      0.0000      0.0000      0.0000      0.0073
 19      0.0000      0.0192      0.0000      0.2011      0.0788      0.0000      0.0000      0.0000      0.0000
 20      0.0000      0.0077      0.0000      0.0000      0.0000      0.0000      0.0000      0.0000      0.0000
 21      0.0000      0.0252      0.0000      0.0000      0.0065      0.0000      0.0000      0.0304      0.0000
 22      0.0000      0.0113      0.0000      0.0000      0.0000      0.0000      0.0000      0.0000      0.0000
 23      0.0000      0.0169      0.0000      0.0000      0.0592      0.0000      0.0000      0.0000      0.0000
 24      0.0000      0.0374      0.0000      0.0000      0.0000      0.0000      0.0000      0.2134      0.0000
 25      0.0000      0.0286      0.0000      0.0268      0.0000      0.0000      0.0000      0.0000      0.0000
 26      0.0000      0.0285      0.0105      0.3348      0.0000      0.0869      0.0000      0.1722      0.0000
 27      0.0000      0.0153      0.0000      0.0000      0.0000      0.0000      0.0000      0.0000      0.0000
 28      0.0000      0.0191      0.0000      0.0000      0.0000      0.0000      0.0000      0.0000      0.0000
 29      0.0000      0.0350      0.0000      0.0000      0.0000      0.0000      0.0000      0.0000      0.0000
 30      0.0000      0.0820      0.0000      0.0000      0.1045      0.0000      0.0000      0.0000      0.0000
 31      0.0000      0.1141      0.0000      0.0000      0.0000      0.0000      0.0000      0.0000      0.0000
 32      0.0000      0.1532      0.1736      0.1127      0.0000      0.0000      0.0000      0.0000      0.0000
 33      0.0000      0.1679      0.5798      0.0000      0.4761      0.0000      0.0000      0.0000      0.0000
 34      0.0000      0.5656      0.0000      0.6557      0.6405      0.0000      0.0000      0.0000      0.0833
 35      0.0000      0.0125      0.0000      0.0000      0.0000      0.0000      0.0000      0.0000      0.0000
 36      0.0000      0.0461      0.3063      0.0000      0.0000      0.0000      0.0000      0.0000      0.1048
 37      0.0000      0.0129      0.0000      0.0000      0.0087      0.0446      0.1737      0.0000      0.0000
 38      0.0000      0.0320      0.0000      0.0000      0.0000      0.0000      0.0000      0.0225      0.0000
 39      0.0000      0.0241      0.0000      0.0388      0.0000      0.0000      0.0000      0.0429      0.0000
 40      0.0000      0.0285      0.0000      0.0000      0.0000      0.0000      0.5447      0.0000      0.0000
 41      0.0000      0.0434      0.0000      0.0000      0.0000      0.2531      0.0000      0.0000      0.0000
 42      0.0000      0.0335      0.0000      0.0000      0.0000      0.0917      0.0000      0.0000      0.0000
 43      0.0000      0.0183      0.1386      0.0000      0.0000      0.0000      0.0000      0.0000      0.0000
 44      0.0000      0.0217      0.0303      0.0000      0.0000      0.0000      0.0495      0.1383      0.0000
 45      0.0000      0.0382      0.0520      0.0399      0.0000      0.1546      0.2205      0.0000      0.1217
 46      0.0000      0.0436      0.2037      0.0199      0.0000      0.0000      0.0000      0.0218      0.0000
