###################################################################
## OUTPUT of StarlightChains_v04.for    [Cid@UFSC - 01/Apr/2007] ##
###################################################################

## Some input info
2007bd.txt                               [arq_obs]
Base.CB07.vall.4m                        [arq_base]
Masks.EmLines.NEW.gm                     [arq_masks]
StCv04.C11.config                        [arq_config]
   66                                    [N_base]
    0                                    [N_YAV_components = # of components with extra extinction!]
    0                                    [i_FitPowerLaw (1/0 = Yes/No)]
-9.99                                    [alpha_PowerLaw]
CCM                                      [red_law_option]
 1.458241                                [q_norm = A(l_norm)/A(V)]

## (Re)Sampling Parameters
 3741.00                                 [l_ini (A)]
 7218.00                                 [l_fin (A)]
    1.00                                 [dl    (A)]     (OBS: dl_cushion =    50.00 A)

## Normalization info
 4020.00                                 [l_norm (A) - for base]
 4010.00                                 [llow_norm (A) - window for f_obs]
 4060.00                                 [lupp_norm (A) - window for f_obs]
7.034024E-17                             [fobs_norm (in input units)]

## S/N
 3691.00                                 [llow_SN (A) - window for S/N]
 7268.00                                 [lupp_SN (A) - window for S/N]
   6.834                                 [S/N in S/N window]
   6.701                                 [S/N in norm. window]
   0.000                                 [S/N_err in S/N window]
   0.000                                 [S/N_err in norm. window]
  1.0000                                 [fscale_chi2]

## etc...
    -2007331                             [idum_orig]
  2098                                   [NOl_eff]
  1991                                   [Nl_eff]
   107    NSIGMA                         [Ntot_cliped & clip_method]
  2342060                                [Nglobal_steps]
   7                                     [N_chains]
  35                                     [NEX0s_base = N_base in EX0s-fits]
 0   0   1        4   2.0   6.666E+01    [Clip-Bug, RC-Crash & Burn-In warning-flags, n_censored_weights, wei_nsig_threshold & wei_limit]
    19     18.992     18.486      0.506  [idt_all, wdt_TotTime, wdt_UsrTime & wdt_SysTime (sec)]

## Synthesis Results - Best model ##

 1.34619E+00                             [chi2/Nl_eff]
     9.84295                             [adev (%)]

   104.32212                             [sum-of-x (%)]
 8.51631E-17                             [Flux_tot (units of input spectrum!)]
 4.03180E-12                             [Mini_tot (???)]
 2.04497E-12                             [Mcor_tot (???)]

 -91.21                                  [v0_min  (km/s)]
 146.87                                  [vd_min  (km/s)]
 0.1109                                  [AV_min  (mag)]
 0.0000                                  [YAV_min (mag)]

# j     x_j(%)      Mini_j(%)     Mcor_j(%)     age_j(yr)     Z_j      (L/M)_j    YAV?  Mstars   component_j        a/Fe...       SSP_chi2r SSP_adev(%)   SSP_AV   SSP_x(%)
  1      0.0000     0.0000E+00    0.0000E+00    1.000000E+06  0.00400  1.094E-02    0   1.0000   age020_m42            0.0000     5.3016E+00    13.8828   3.3112    85.4066
  2      0.0000     0.0000E+00    0.0000E+00    3.160000E+06  0.00400  4.007E-02    0   0.9999   age045_m42            0.0000     4.6718E+00    12.4940   2.5803    91.5582
  3      0.0000     0.0000E+00    0.0000E+00    5.010000E+06  0.00400  2.539E-02    0   0.9488   age055_m42            0.0000     4.7963E+00    13.0156   2.8950    89.5564
  4      0.0000     0.0000E+00    0.0000E+00    6.610000E+06  0.00400  2.620E-02    0   0.9220   age061_m42            0.0000     4.3542E+00    12.3493   2.4922    92.4995
  5      1.8620     2.8518E-03    4.9827E-03    1.000000E+07  0.00400  1.322E-02    0   0.8862   age070_m42            0.0000     3.2724E+00    12.9989   2.0975    99.9226
  6      0.0000     0.0000E+00    0.0000E+00    1.445000E+07  0.00400  7.883E-03    0   0.8571   age078_m42            0.0000     3.6852E+00    13.2589   2.4442    96.4739
  7      0.0000     0.0000E+00    0.0000E+00    2.512000E+07  0.00400  5.251E-03    0   0.8174   age090_m42            0.0000     3.1412E+00    13.1553   1.9417   101.7640
  8      5.2365     2.9057E-02    4.4976E-02    4.000000E+07  0.00400  3.649E-03    0   0.7851   age104_m42            0.0000     2.9813E+00    12.7388   1.7234   102.1369
  9      0.0000     0.0000E+00    0.0000E+00    5.500000E+07  0.00400  3.098E-03    0   0.7629   age110_m42            0.0000     3.2928E+00    12.2389   1.9312    99.5138
 10      2.9383     2.6703E-02    3.7942E-02    1.015200E+08  0.00400  2.228E-03    0   0.7207   age116_m42            0.0000     3.4327E+00    11.8691   1.9823    98.2300
 11      0.0000     0.0000E+00    0.0000E+00    2.861200E+08  0.00400  1.093E-03    0   0.6648   age125_m42            0.0000     2.9621E+00    11.6613   1.3889   102.8077
 12      1.2342     3.7881E-02    4.7536E-02    5.088000E+08  0.00400  6.597E-04    0   0.6365   age130_m42            0.0000     2.9022E+00    11.0053   1.4233   101.3264
 13      5.8356     5.5421E-01    6.3352E-01    1.434000E+09  0.00400  2.132E-04    0   0.5798   age139_m42            0.0000     1.7799E+00     9.6480   0.4466   103.3813
 14      0.0027     9.2165E-04    9.7705E-04    4.250000E+09  0.00400  5.895E-05    0   0.5377   age158_m42            0.0000     1.8005E+00     9.2039   0.0873    95.4643
 15      0.0000     0.0000E+00    0.0000E+00    7.500000E+09  0.00400  3.510E-05    0   0.5212   age171_m42            0.0000     1.7582E+00     9.2445  -0.0608    93.1509
 16      0.0000     0.0000E+00    0.0000E+00    1.300000E+10  0.00400  2.005E-05    0   0.5034   age193_m42            0.0000     1.7964E+00     9.4237  -0.1868    91.0748
 17      0.0000     0.0000E+00    0.0000E+00    1.800000E+10  0.00400  1.525E-05    0   0.4967   age213_m42            0.0000     1.7902E+00     9.4029  -0.2230    91.2043
 18      7.2540     1.1864E-02    2.3391E-02    1.000000E+06  0.00800  1.238E-02    0   1.0000   age020_m52            0.0000     5.2764E+00    13.8609   3.3075    85.5694
 19      0.8851     5.8299E-04    1.1455E-03    3.160000E+06  0.00800  3.074E-02    0   0.9966   age045_m52            0.0000     5.1851E+00    13.6180   3.2285    86.3998
 20      0.0000     0.0000E+00    0.0000E+00    5.010000E+06  0.00800  2.668E-02    0   0.9443   age055_m52            0.0000     4.6738E+00    13.0954   2.9690    89.0904
 21      0.9209     8.7297E-04    1.5795E-03    6.610000E+06  0.00800  2.136E-02    0   0.9177   age061_m52            0.0000     2.7107E+00    12.3920   1.5995   100.7340
 22      0.5826     9.7092E-04    1.6897E-03    1.000000E+07  0.00800  1.215E-02    0   0.8827   age070_m52            0.0000     3.1383E+00    13.4654   2.2519   101.0657
 23      0.0000     0.0000E+00    0.0000E+00    1.445000E+07  0.00800  8.717E-03    0   0.8552   age078_m52            0.0000     3.3967E+00    13.0871   2.3999    98.2640
 24      1.5036     5.4442E-03    8.7608E-03    2.512000E+07  0.00800  5.592E-03    0   0.8162   age090_m52            0.0000     2.8747E+00    13.0689   1.9984   103.4475
 25      1.0133     5.2661E-03    8.1409E-03    4.000000E+07  0.00800  3.896E-03    0   0.7841   age104_m52            0.0000     2.8894E+00    12.5597   1.9408   102.8090
 26      1.9844     1.8706E-02    2.6650E-02    1.015200E+08  0.00800  2.148E-03    0   0.7226   age116_m52            0.0000     3.0979E+00    11.7529   1.9276   100.1535
 27      2.7121     5.5330E-02    7.2902E-02    2.861200E+08  0.00800  9.925E-04    0   0.6683   age125_m52            0.0000     2.5849E+00    10.8556   1.4804   102.6596
 28      2.4487     1.5785E-01    1.9102E-01    9.047900E+08  0.00800  3.141E-04    0   0.6138   age135_m52            0.0000     1.9560E+00     9.3105   0.7441   103.7317
 29      0.0000     0.0000E+00    0.0000E+00    1.434000E+09  0.00800  1.719E-04    0   0.5853   age139_m52            0.0000     1.6941E+00     9.0529   0.1701   101.3783
 30      0.0000     0.0000E+00    0.0000E+00    2.500000E+09  0.00800  7.872E-05    0   0.5600   age150_m52            0.0000     1.5865E+00     9.0913  -0.0205    94.8985
 31      0.0000     0.0000E+00    0.0000E+00    4.250000E+09  0.00800  4.336E-05    0   0.5426   age158_m52            0.0000     1.6408E+00     9.1634  -0.0297    93.6933
 32      0.0004     2.6774E-04    2.8078E-04    6.250000E+09  0.00800  3.159E-05    0   0.5319   age166_m52            0.0000     1.6618E+00     9.3358  -0.1894    91.8542
 33      0.0000     0.0000E+00    0.0000E+00    1.300000E+10  0.00800  1.361E-05    0   0.5073   age193_m52            0.0000     1.7453E+00     9.7498  -0.6106    89.3023
 34      0.0000     0.0000E+00    0.0000E+00    1.800000E+10  0.00800  9.886E-06    0   0.4990   age213_m52            0.0000     1.8985E+00    10.1872  -0.6718    86.9767
 35      0.0000     0.0000E+00    0.0000E+00    1.000000E+06  0.02000  1.544E-02    0   1.0000   age020_m62            0.0000     5.2836E+00    13.8529   3.3030    85.7855
 36      0.0000     0.0000E+00    0.0000E+00    3.160000E+06  0.02000  3.762E-02    0   0.9858   age045_m62            0.0000     5.2450E+00    13.7103   3.2431    86.5128
 37      0.4064     2.4964E-04    4.5980E-04    5.010000E+06  0.02000  3.296E-02    0   0.9342   age055_m62            0.0000     4.6258E+00    12.6466   2.8640    90.3016
 38      0.2448     4.2951E-04    7.5036E-04    8.710000E+06  0.02000  1.154E-02    0   0.8861   age067_m62            0.0000     2.8310E+00    17.9627   1.4739   116.7188
 39      0.0000     0.0000E+00    0.0000E+00    1.445000E+07  0.02000  7.663E-03    0   0.8472   age078_m62            0.0000     2.7280E+00    14.2817   1.8344   106.8977
 40      0.0000     0.0000E+00    0.0000E+00    2.512000E+07  0.02000  4.532E-03    0   0.8099   age090_m62            0.0000     2.7823E+00    14.5138   1.8152   107.3337
 41      0.0000     0.0000E+00    0.0000E+00    5.500000E+07  0.02000  2.733E-03    0   0.7595   age110_m62            0.0000     2.7391E+00    12.5175   1.9180   102.2798
 42      0.0000     0.0000E+00    0.0000E+00    1.609000E+08  0.02000  1.369E-03    0   0.6985   age120_m62            0.0000     2.7857E+00    11.4210   1.8152   102.1865
 43      4.2679     9.5879E-02    1.2692E-01    2.861200E+08  0.02000  9.013E-04    0   0.6714   age125_m62            0.0000     2.5567E+00    10.8293   1.5831   104.1305
 44      0.0000     0.0000E+00    0.0000E+00    5.088000E+08  0.02000  5.028E-04    0   0.6449   age130_m62            0.0000     2.4700E+00     9.9825   1.2808   103.0669
 45      0.0000     0.0000E+00    0.0000E+00    9.047900E+08  0.02000  2.428E-04    0   0.6179   age135_m62            0.0000     1.8222E+00     9.1061   0.7354   100.4998
 46      0.0000     0.0000E+00    0.0000E+00    1.434000E+09  0.02000  1.263E-04    0   0.5908   age139_m62            0.0000     1.5844E+00     8.9792   0.3091    98.1332
 47      0.0000     0.0000E+00    0.0000E+00    2.500000E+09  0.02000  5.985E-05    0   0.5673   age150_m62            0.0000     1.6408E+00     9.3066   0.0063    93.8909
 48      7.2742     4.5028E+00    4.8542E+00    4.250000E+09  0.02000  3.271E-05    0   0.5468   age158_m62            0.0000     1.7324E+00     9.6963  -0.2411    90.6239
 49      4.8442     7.2121E+00    7.3470E+00    1.000000E+10  0.02000  1.360E-05    0   0.5167   age181_m62            0.0000     1.9685E+00    10.4345  -0.5205    87.4697
 50      4.3974     1.2498E+01    1.2353E+01    1.800000E+10  0.02000  7.124E-06    0   0.5013   age213_m62            0.0000     2.2446E+00    11.1521  -0.6704    84.4607
 51      3.5131     2.7443E-03    5.4096E-03    1.000000E+06  0.05000  2.592E-02    0   0.9998   age020_m72            0.0000     5.2983E+00    13.8719   3.2897    85.9830
 52      0.0000     0.0000E+00    0.0000E+00    3.160000E+06  0.05000  4.845E-02    0   0.9577   age045_m72            0.0000     5.1336E+00    13.2370   3.1343    87.3366
 53      0.0000     0.0000E+00    0.0000E+00    5.010000E+06  0.05000  3.072E-02    0   0.9147   age055_m72            0.0000     3.7206E+00    13.7065   2.5374    97.3507
 54      0.0013     1.8084E-06    3.1650E-06    6.610000E+06  0.05000  1.455E-02    0   0.8877   age061_m72            0.0000     6.5365E+00    20.9969   1.5188   119.8553
 55      0.5415     1.2083E-03    2.0307E-03    1.000000E+07  0.05000  9.074E-03    0   0.8524   age070_m72            0.0000     4.6671E+00    14.0851   2.7804    95.0394
 56      0.0000     0.0000E+00    0.0000E+00    2.512000E+07  0.05000  4.250E-03    0   0.7902   age090_m72            0.0000     3.9042E+00    13.4824   2.4264    98.9783
 57      4.8362     3.1721E-02    4.7642E-02    4.000000E+07  0.05000  3.087E-03    0   0.7618   age104_m72            0.0000     3.8336E+00    13.5507   2.1655   102.2815
 58      0.2723     3.2436E-03    4.5378E-03    1.015200E+08  0.05000  1.700E-03    0   0.7096   age116_m72            0.0000     2.9104E+00    11.9013   1.9312   103.2599
 59      3.0984     8.4962E-02    1.1111E-01    2.861200E+08  0.05000  7.384E-04    0   0.6633   age125_m72            0.0000     2.3562E+00    10.2951   1.4894   103.6431
 60      8.8790     4.7075E-01    5.9139E-01    5.088000E+08  0.05000  3.819E-04    0   0.6372   age130_m72            0.0000     1.9736E+00     9.3182   1.0538   102.3272
 61      0.0050     6.0773E-04    7.3209E-04    9.047900E+08  0.05000  1.676E-04    0   0.6110   age135_m72            0.0000     1.8177E+00     9.1613   0.4496    96.1538
 62      1.8310     4.1952E-01    4.8585E-01    1.434000E+09  0.05000  8.837E-05    0   0.5874   age139_m72            0.0000     1.5882E+00     9.1999   0.0081    95.2107
 63      0.8411     4.0232E-01    4.4404E-01    2.500000E+09  0.05000  4.233E-05    0   0.5598   age150_m72            0.0000     1.8156E+00     9.9326  -0.2212    90.5605
 64      3.6771     5.1884E+00    5.3693E+00    6.250000E+09  0.05000  1.435E-05    0   0.5249   age166_m72            0.0000     2.1298E+00    10.8173  -0.6022    86.5249
 65     12.2447     3.8067E+01    3.7796E+01    1.300000E+10  0.05000  6.513E-06    0   0.5036   age193_m72            0.0000     2.5728E+00    11.6318  -0.8092    84.5256
 66      6.7319     3.0110E+01    2.9355E+01    1.800000E+10  0.05000  4.527E-06    0   0.4945   age213_m72            0.0000     2.9560E+00    12.2170  -0.9254    82.7081


## Synthesis Results - Average & Chains ##

# j      x_j: min, <> & last-chain-values for 1 ...  7 chains
  1      0.0000      0.0743      0.0000      0.0000      0.0625      0.0000      0.0000      0.0000      0.0000
  2      0.0000      0.1624      0.0000      0.0000      0.0107      0.4956      0.0000      0.0093      0.0350
  3      0.0000      0.1658      0.6262      0.1575      0.0000      0.0000      0.0000      0.5564      0.0000
  4      0.0000      0.1092      0.0166      0.0944      0.0000      0.0000      0.0000      0.1783      0.0000
  5      1.8620      1.3982      3.6153      0.3708      0.9038      1.2650      1.9159      1.3630      1.9193
  6      0.0000      0.2501      0.0000      0.0938      0.0000      0.0000      0.3004      0.3993      0.0122
  7      0.0000      0.1450      0.0000      0.5279      0.0000      0.0000      0.0000      0.1116      0.0000
  8      5.2365      3.6635      3.9032      4.1698      4.7758      3.8390      4.0001      4.2488      3.4733
  9      0.0000      0.2181      0.0932      0.8312      0.0000      0.0000      0.0000      0.3618      0.0000
 10      2.9383      1.6820      1.7581      2.3629      2.3921      1.7873      1.5322      1.2482      1.7312
 11      0.0000      0.6613      1.0498      0.1023      0.6638      0.7867      0.0000      1.5143      0.0000
 12      1.2342      1.3164      0.7283      1.3956      1.5840      1.3122      1.2031      1.3079      1.2220
 13      5.8356      4.8768      7.0140      5.3985      4.7568      3.8960      7.6987      4.8706      5.6685
 14      0.0027      0.5911      0.0000      0.6093      0.7389      0.0000      0.5574      0.0000      0.0000
 15      0.0000      0.3718      0.6621      0.0000      0.0000      0.0000      0.0210      0.2698      0.2689
 16      0.0000      0.3492      0.0000      0.3248      0.0000      0.1972      0.0000      0.0000      0.0000
 17      0.0000      0.7343      0.5221      0.0111      0.4138      0.7276      0.0000      0.5055      0.9038
 18      7.2540      5.6329      5.7659      5.9559      5.5758      6.2357      5.9876      5.7946      5.8883
 19      0.8851      0.6587      0.0000      0.6737      0.8960      1.1618      0.5985      0.4015      0.5741
 20      0.0000      0.2384      0.4100      0.4403      0.0000      0.0000      0.0000      0.0000      0.2474
 21      0.9209      0.5911      1.1054      0.1840      0.3196      1.2124      0.3906      1.2383      0.5691
 22      0.5826      0.1190      0.1566      0.0000      0.2937      0.6336      0.3946      0.1300      0.3922
 23      0.0000      0.2320      0.0000      0.8763      0.7322      0.5877      0.0849      0.0723      0.2981
 24      1.5036      1.4461      1.5678      2.0957      1.2237      1.7106      1.8273      1.1238      1.8730
 25      1.0133      0.3035      0.0201      0.0907      0.3981      0.0000      0.5424      0.7416      1.1190
 26      1.9844      1.5726      1.4364      1.1210      1.4651      1.2315      0.8764      0.9430      1.1321
 27      2.7121      2.1075      2.1596      2.1854      2.3758      1.2592      3.1333      2.3369      1.8663
 28      2.4487      2.7279      1.5354      1.5311      2.7593      4.5157      2.9399      2.5826      3.0950
 29      0.0000      0.7137      0.0000      0.0000      0.0000      0.0000      0.0000      0.2460      0.0000
 30      0.0000      0.4586      0.1248      0.3790      0.0000      0.1738      0.0000      0.5748      0.0000
 31      0.0000      0.3985      0.3022      0.1902      0.5872      0.0000      0.0000      0.0000      0.1627
 32      0.0004      0.2003      0.0000      0.0553      0.0000      0.0000      0.4651      0.2100      0.0000
 33      0.0000      0.1149      0.1315      0.3252      0.0000      0.0007      0.0580      0.0000      0.0000
 34      0.0000      0.0488      0.0000      0.0000      0.0000      0.0000      0.2562      0.2517      0.0000
 35      0.0000      0.1274      0.4860      0.0000      0.5064      0.0000      0.0000      0.0000      0.0000
 36      0.0000      0.2928      0.2073      0.2787      0.7134      0.0000      0.0737      1.1358      0.4144
 37      0.4064      0.3130      0.0000      0.3689      0.3404      0.0000      1.2909      0.2775      0.6256
 38      0.2448      0.3791      0.0550      0.8042      0.3847      0.4328      0.7409      0.0120      1.1718
 39      0.0000      0.4754      0.4599      0.7691      0.6080      0.0000      0.0440      0.5897      0.7916
 40      0.0000      0.4038      0.5552      0.1666      0.8458      0.1546      0.0000      0.0000      1.7164
 41      0.0000      0.1973      0.4270      0.0000      0.0000      0.3469      0.1735      0.0000      0.0801
 42      0.0000      0.2993      0.3702      0.5035      1.1765      0.0281      0.0142      0.0000      0.2731
 43      4.2679      2.4829      2.2781      2.6874      3.2995      2.8256      2.7870      2.6067      2.4981
 44      0.0000      0.2434      0.7959      0.0000      0.0384      0.2300      0.1543      0.0000      0.0000
 45      0.0000      0.9568      0.5254      1.7397      0.0000      1.5170      0.3170      1.7592      1.5044
 46      0.0000      0.9709      1.8046      1.0215      1.7714      1.7511      0.0000      0.0000      0.0000
