###################################################################
## OUTPUT of StarlightChains_v04.for    [Cid@UFSC - 01/Apr/2007] ##
###################################################################

## Some input info
2007rz.txt                               [arq_obs]
Base.CB07.vall.4m                        [arq_base]
Masks.EmLines.NEW.gm                     [arq_masks]
StCv04.C11.config                        [arq_config]
   66                                    [N_base]
    0                                    [N_YAV_components = # of components with extra extinction!]
    0                                    [i_FitPowerLaw (1/0 = Yes/No)]
-9.99                                    [alpha_PowerLaw]
CCM                                      [red_law_option]
 1.458241                                [q_norm = A(l_norm)/A(V)]

## (Re)Sampling Parameters
 3741.00                                 [l_ini (A)]
 7218.00                                 [l_fin (A)]
    1.00                                 [dl    (A)]     (OBS: dl_cushion =    50.00 A)

## Normalization info
 4020.00                                 [l_norm (A) - for base]
 4010.00                                 [llow_norm (A) - window for f_obs]
 4060.00                                 [lupp_norm (A) - window for f_obs]
1.258284E-15                             [fobs_norm (in input units)]

## S/N
 3691.00                                 [llow_SN (A) - window for S/N]
 7268.00                                 [lupp_SN (A) - window for S/N]
   5.484                                 [S/N in S/N window]
   6.955                                 [S/N in norm. window]
  19.731                                 [S/N_err in S/N window]
  25.023                                 [S/N_err in norm. window]
  1.0000                                 [fscale_chi2]

## etc...
    -2007340                             [idum_orig]
  2385                                   [NOl_eff]
  2372                                   [Nl_eff]
    13    NSIGMA                         [Ntot_cliped & clip_method]
  1581020                                [Nglobal_steps]
   7                                     [N_chains]
  20                                     [NEX0s_base = N_base in EX0s-fits]
 0   0   1        5   2.0   9.423E+01    [Clip-Bug, RC-Crash & Burn-In warning-flags, n_censored_weights, wei_nsig_threshold & wei_limit]
    16     15.534     15.025      0.508  [idt_all, wdt_TotTime, wdt_UsrTime & wdt_SysTime (sec)]

## Synthesis Results - Best model ##

 5.46972E-01                             [chi2/Nl_eff]
     2.72014                             [adev (%)]

   109.24004                             [sum-of-x (%)]
 2.42850E-15                             [Flux_tot (units of input spectrum!)]
 4.10221E-12                             [Mini_tot (???)]
 2.60919E-12                             [Mcor_tot (???)]

  36.67                                  [v0_min  (km/s)]
 170.59                                  [vd_min  (km/s)]
 0.4238                                  [AV_min  (mag)]
 0.0000                                  [YAV_min (mag)]

# j     x_j(%)      Mini_j(%)     Mcor_j(%)     age_j(yr)     Z_j      (L/M)_j    YAV?  Mstars   component_j        a/Fe...       SSP_chi2r SSP_adev(%)   SSP_AV   SSP_x(%)
  1      3.0661     1.5188E-01    2.3879E-01    1.000000E+06  0.00400  1.094E-02    0   1.0000   age020_m42            0.0000     2.2844E+00     5.8906   2.4789    85.7263
  2      0.0017     2.3210E-05    3.6487E-05    3.160000E+06  0.00400  4.007E-02    0   0.9999   age045_m42            0.0000     1.8135E+00     4.8248   1.7110    93.7264
  3      0.3130     6.6812E-03    9.9666E-03    5.010000E+06  0.00400  2.539E-02    0   0.9488   age055_m42            0.0000     1.9118E+00     5.1433   2.0422    90.8428
  4      0.0000     0.0000E+00    0.0000E+00    6.610000E+06  0.00400  2.620E-02    0   0.9220   age061_m42            0.0000     1.6356E+00     4.5938   1.6193    94.8025
  5      0.0000     0.0000E+00    0.0000E+00    1.000000E+07  0.00400  1.322E-02    0   0.8862   age070_m42            0.0000     1.0491E+00     3.7735   1.2283   102.1634
  6      0.0000     0.0000E+00    0.0000E+00    1.445000E+07  0.00400  7.883E-03    0   0.8571   age078_m42            0.0000     1.2453E+00     4.1423   1.5817    98.2520
  7      0.0130     1.3456E-03    1.7292E-03    2.512000E+07  0.00400  5.251E-03    0   0.8174   age090_m42            0.0000     9.8018E-01     3.6661   1.0733   104.0139
  8      0.0000     0.0000E+00    0.0000E+00    4.000000E+07  0.00400  3.649E-03    0   0.7851   age104_m42            0.0000     9.0014E-01     3.4761   0.8494   104.7249
  9      0.0034     6.0037E-04    7.2011E-04    5.500000E+07  0.00400  3.098E-03    0   0.7629   age110_m42            0.0000     1.0262E+00     3.5706   1.0451   102.6394
 10      0.0000     0.0000E+00    0.0000E+00    1.015200E+08  0.00400  2.228E-03    0   0.7207   age116_m42            0.0000     1.1577E+00     3.8010   1.0899   101.6339
 11      0.0000     0.0000E+00    0.0000E+00    2.861200E+08  0.00400  1.093E-03    0   0.6648   age125_m42            0.0000     1.1271E+00     3.6650   0.4742   107.4075
 12      0.0000     0.0000E+00    0.0000E+00    5.088000E+08  0.00400  6.597E-04    0   0.6365   age130_m42            0.0000     1.1978E+00     3.8915   0.5075   106.0140
 13      0.0000     0.0000E+00    0.0000E+00    1.434000E+09  0.00400  2.132E-04    0   0.5798   age139_m42            0.0000     9.0393E-01     3.5397  -0.4542   107.4962
 14      0.0000     0.0000E+00    0.0000E+00    4.250000E+09  0.00400  5.895E-05    0   0.5377   age158_m42            0.0000     1.2436E+00     4.6930  -0.7988    98.5845
 15      0.0000     0.0000E+00    0.0000E+00    7.500000E+09  0.00400  3.510E-05    0   0.5212   age171_m42            0.0000     1.4658E+00     5.2393  -0.9509    96.3198
 16      0.0000     0.0000E+00    0.0000E+00    1.300000E+10  0.00400  2.005E-05    0   0.5034   age193_m42            0.0000     1.8392E+00     6.2661  -1.0000    90.6724
 17      0.0000     0.0000E+00    0.0000E+00    1.800000E+10  0.00400  1.525E-05    0   0.4967   age213_m42            0.0000     1.9148E+00     6.4299  -1.0000    89.2420
 18      0.0000     0.0000E+00    0.0000E+00    1.000000E+06  0.00800  1.238E-02    0   1.0000   age020_m52            0.0000     2.2741E+00     5.8870   2.4752    85.8922
 19      1.3772     2.4280E-02    3.8044E-02    3.160000E+06  0.00800  3.074E-02    0   0.9966   age045_m52            0.0000     2.2360E+00     5.8264   2.3985    86.6488
 20      0.0000     0.0000E+00    0.0000E+00    5.010000E+06  0.00800  2.668E-02    0   0.9443   age055_m52            0.0000     1.8841E+00     5.1904   2.1249    89.9787
 21      0.0000     0.0000E+00    0.0000E+00    6.610000E+06  0.00800  2.136E-02    0   0.9177   age061_m52            0.0000     9.0422E-01     3.6350   0.7455   102.3658
 22      0.6138     2.7377E-02    3.7993E-02    1.000000E+07  0.00800  1.215E-02    0   0.8827   age070_m52            0.0000     1.0569E+00     3.9030   1.3872   102.9848
 23      0.9357     5.8172E-02    7.8216E-02    1.445000E+07  0.00800  8.717E-03    0   0.8552   age078_m52            0.0000     1.1038E+00     3.9390   1.5366   100.1222
 24      5.1926     5.0321E-01    6.4575E-01    2.512000E+07  0.00800  5.592E-03    0   0.8162   age090_m52            0.0000     8.7682E-01     3.5308   1.1278   105.7741
 25      4.3079     5.9922E-01    7.3870E-01    4.000000E+07  0.00800  3.896E-03    0   0.7841   age104_m52            0.0000     8.5695E-01     3.4038   1.0538   105.9775
 26      0.0000     0.0000E+00    0.0000E+00    1.015200E+08  0.00800  2.148E-03    0   0.7226   age116_m52            0.0000     9.7358E-01     3.4835   1.0341   103.6788
 27      0.0000     0.0000E+00    0.0000E+00    2.861200E+08  0.00800  9.925E-04    0   0.6683   age125_m52            0.0000     1.0215E+00     3.7206   0.5682   107.2204
 28      0.0000     0.0000E+00    0.0000E+00    9.047900E+08  0.00800  3.141E-04    0   0.6138   age135_m52            0.0000     1.1852E+00     4.1774  -0.1794   109.0714
 29      0.0000     0.0000E+00    0.0000E+00    1.434000E+09  0.00800  1.719E-04    0   0.5853   age139_m52            0.0000     1.3426E+00     4.4225  -0.7372   105.6440
 30      0.0000     0.0000E+00    0.0000E+00    2.500000E+09  0.00800  7.872E-05    0   0.5600   age150_m52            0.0000     1.6607E+00     5.5505  -0.9203    98.5826
 31      0.0000     0.0000E+00    0.0000E+00    4.250000E+09  0.00800  4.336E-05    0   0.5426   age158_m52            0.0000     1.6731E+00     5.6244  -0.9285    97.3207
 32      0.0000     0.0000E+00    0.0000E+00    6.250000E+09  0.00800  3.159E-05    0   0.5319   age166_m52            0.0000     2.2247E+00     6.9493  -1.0000    91.4456
 33      0.0000     0.0000E+00    0.0000E+00    1.300000E+10  0.00800  1.361E-05    0   0.5073   age193_m52            0.0000     6.3525E+00    12.4395  -1.0000    72.2801
 34      0.0000     0.0000E+00    0.0000E+00    1.800000E+10  0.00800  9.886E-06    0   0.4990   age213_m52            0.0000     7.7024E+00    13.7618  -1.0000    68.2702
 35      0.0000     0.0000E+00    0.0000E+00    1.000000E+06  0.02000  1.544E-02    0   1.0000   age020_m62            0.0000     2.2894E+00     5.9252   2.4730    86.0165
 36      2.3834     3.4334E-02    5.3214E-02    3.160000E+06  0.02000  3.762E-02    0   0.9858   age045_m62            0.0000     2.2996E+00     5.9484   2.4154    86.6283
 37      1.7527     2.8817E-02    4.2326E-02    5.010000E+06  0.02000  3.296E-02    0   0.9342   age055_m62            0.0000     1.8468E+00     5.0925   2.0075    91.7571
 38     27.2994     1.2820E+00    1.7860E+00    8.710000E+06  0.02000  1.154E-02    0   0.8861   age067_m62            0.0000     2.5204E+00     5.9651   0.6636   115.5195
 39      0.0000     0.0000E+00    0.0000E+00    1.445000E+07  0.02000  7.663E-03    0   0.8472   age078_m62            0.0000     1.2346E+00     4.2259   0.9756   108.5421
 40      0.0000     0.0000E+00    0.0000E+00    2.512000E+07  0.02000  4.532E-03    0   0.8099   age090_m62            0.0000     1.3629E+00     4.3515   0.9524   109.1421
 41      0.0000     0.0000E+00    0.0000E+00    5.500000E+07  0.02000  2.733E-03    0   0.7595   age110_m62            0.0000     8.5901E-01     3.5063   1.0409   104.9556
 42      0.0000     0.0000E+00    0.0000E+00    1.609000E+08  0.02000  1.369E-03    0   0.6985   age120_m62            0.0000     9.7775E-01     3.6185   0.9158   106.0677
 43      0.0000     0.0000E+00    0.0000E+00    2.861200E+08  0.02000  9.013E-04    0   0.6714   age125_m62            0.0000     1.0701E+00     3.8511   0.6753   108.6082
 44      0.0000     0.0000E+00    0.0000E+00    5.088000E+08  0.02000  5.028E-04    0   0.6449   age130_m62            0.0000     1.3711E+00     4.4853   0.3625   108.1400
 45      0.0028     6.2900E-03    6.1106E-03    9.047900E+08  0.02000  2.428E-04    0   0.6179   age135_m62            0.0000     1.3300E+00     4.7650  -0.1785   105.2360
 46      0.0000     0.0000E+00    0.0000E+00    1.434000E+09  0.02000  1.263E-04    0   0.5908   age139_m62            0.0000     1.4825E+00     5.1842  -0.5936   102.1929
 47      0.0000     0.0000E+00    0.0000E+00    2.500000E+09  0.02000  5.985E-05    0   0.5673   age150_m62            0.0000     2.0471E+00     6.3624  -0.8893    97.4348
 48      0.0000     0.0000E+00    0.0000E+00    4.250000E+09  0.02000  3.271E-05    0   0.5468   age158_m62            0.0000     3.0663E+00     8.3665  -1.0000    88.0123
 49      0.0000     0.0000E+00    0.0000E+00    1.000000E+10  0.02000  1.360E-05    0   0.5167   age181_m62            0.0000     6.1596E+00    12.1509  -1.0000    74.0647
 50      0.0000     0.0000E+00    0.0000E+00    1.800000E+10  0.02000  7.124E-06    0   0.5013   age213_m62            0.0000     8.8399E+00    14.7125  -1.0000    66.3601
 51      4.9044     1.0254E-01    1.6118E-01    1.000000E+06  0.05000  2.592E-02    0   0.9998   age020_m72            0.0000     2.3199E+00     6.0059   2.4634    86.0632
 52      0.0012     1.3317E-05    2.0052E-05    3.160000E+06  0.05000  4.845E-02    0   0.9577   age045_m72            0.0000     2.1951E+00     5.6907   2.2957    87.9432
 53      0.0000     0.0000E+00    0.0000E+00    5.010000E+06  0.05000  3.072E-02    0   0.9147   age055_m72            0.0000     1.5974E+00     4.7931   1.6672    99.3045
 54      0.0000     0.0000E+00    0.0000E+00    6.610000E+06  0.05000  1.455E-02    0   0.8877   age061_m72            0.0000     6.8898E+00     8.6201   0.6856   119.3555
 55      0.0000     0.0000E+00    0.0000E+00    1.000000E+07  0.05000  9.074E-03    0   0.8524   age070_m72            0.0000     2.5070E+00     5.6776   1.8892    97.8540
 56      0.0000     0.0000E+00    0.0000E+00    2.512000E+07  0.05000  4.250E-03    0   0.7902   age090_m72            0.0000     1.7907E+00     4.6911   1.5292   102.2392
 57      0.0000     0.0000E+00    0.0000E+00    4.000000E+07  0.05000  3.087E-03    0   0.7618   age104_m72            0.0000     1.8612E+00     4.6329   1.2670   105.7016
 58      0.0095     3.0424E-03    3.3942E-03    1.015200E+08  0.05000  1.700E-03    0   0.7096   age116_m72            0.0000     1.0154E+00     3.6317   1.0309   107.1075
 59      0.0000     0.0000E+00    0.0000E+00    2.861200E+08  0.05000  7.384E-04    0   0.6633   age125_m72            0.0000     1.1364E+00     4.0060   0.5713   108.6481
 60     48.1349     6.8304E+01    6.8429E+01    5.088000E+08  0.05000  3.819E-04    0   0.6372   age130_m72            0.0000     1.2810E+00     4.6132   0.1428   107.0144
 61      8.9273     2.8866E+01    2.7729E+01    9.047900E+08  0.05000  1.676E-04    0   0.6110   age135_m72            0.0000     1.9622E+00     6.2878  -0.4482    99.9524
 62      0.0000     0.0000E+00    0.0000E+00    1.434000E+09  0.05000  8.837E-05    0   0.5874   age139_m72            0.0000     2.2662E+00     6.6221  -0.8862    98.6968
 63      0.0000     0.0000E+00    0.0000E+00    2.500000E+09  0.05000  4.233E-05    0   0.5598   age150_m72            0.0000     3.3437E+00     8.6784  -1.0000    88.7589
 64      0.0000     0.0000E+00    0.0000E+00    6.250000E+09  0.05000  1.435E-05    0   0.5249   age166_m72            0.0000     7.4815E+00    13.3901  -1.0000    70.3243
 65      0.0000     0.0000E+00    0.0000E+00    1.300000E+10  0.05000  6.513E-06    0   0.5036   age193_m72            0.0000     1.1585E+01    16.7790  -1.0000    61.9153
 66      0.0000     0.0000E+00    0.0000E+00    1.800000E+10  0.05000  4.527E-06    0   0.4945   age213_m72            0.0000     1.4328E+01    18.6268  -1.0000    57.1008


## Synthesis Results - Average & Chains ##

# j      x_j: min, <> & last-chain-values for 1 ...  7 chains
  1      3.0661      1.6622      2.3712      1.6108      2.2202      1.4804      1.2302      1.8818      1.7954
  2      0.0017      0.2209      0.0000      0.0000      0.0000      0.9036      0.0000      0.5750      0.0000
  3      0.3130      1.4032      1.6222      1.7699      1.0350      1.6351      1.1505      1.7758      0.8097
  4      0.0000      0.5096      0.4585      0.5378      0.0000      0.0000      0.0000      0.7392      0.0000
  5      0.0000      0.3012      0.0000      0.9839      0.1138      0.0000      0.7741      0.5700      0.0000
  6      0.0000      0.2908      0.2577      0.0000      0.3371      0.4977      0.0000      0.1546      0.0000
  7      0.0130      2.4476      1.3505      3.4769      3.1304      2.1309      2.8645      2.0323      2.5480
  8      0.0000      0.4659      0.3520      0.1841      1.0908      0.9552      0.0000      0.1849      0.0000
  9      0.0034      0.4761      0.2945      0.0000      0.7171      0.7328      0.0000      0.6192      0.6689
 10      0.0000      0.4359      0.1278      0.0000      0.3139      0.0000      0.0000      0.0000      0.0000
 11      0.0000      0.1661      0.0709      0.0000      0.0000      0.0000      0.0000      0.0000      0.0000
 12      0.0000      0.2206      0.0000      0.0889      0.1138      0.0000      0.2332      0.0000      0.0000
 13      0.0000      0.0685      0.0000      0.0000      0.0000      0.0000      0.0000      0.0000      0.0000
 14      0.0000      0.0335      0.0000      0.0000      0.0000      0.0000      0.0000      0.0000      0.0000
 15      0.0000      0.0132      0.0000      0.0000      0.0000      0.0000      0.0000      0.0000      0.0000
 16      0.0000      0.0273      0.0000      0.0000      0.0000      0.0000      0.2529      0.0000      0.0000
 17      0.0000      0.0068      0.0000      0.0626      0.0000      0.0000      0.0000      0.0000      0.0000
 18      0.0000      0.2401      0.0000      0.4449      0.0000      0.0083      0.0000      0.0040      0.7697
 19      1.3772      1.7634      1.8373      1.0287      1.4506      2.1230      2.8027      1.7486      1.9950
 20      0.0000      0.4879      0.1342      0.0000      0.5166      0.1743      1.4126      0.7554      0.6277
 21      0.0000      0.8089      0.0000      0.0000      0.0000      0.0000      0.0000      0.0000      0.8409
 22      0.6138      1.4358      2.0665      1.8612      1.8641      0.9020      1.5578      1.9729      1.8195
 23      0.9357      2.1019      1.5965      1.9831      2.1097      1.3408      2.2705      1.1853      2.0290
 24      5.1926      4.8132      5.8011      4.7192      4.7437      5.1056      5.5065      4.0792      4.7745
 25      4.3079      5.1386      5.9771      5.8566      4.6800      5.4207      5.8676      4.7418      5.1851
 26      0.0000      0.4370      0.0000      0.0000      0.8865      0.0000      0.0000      0.0000      0.0000
 27      0.0000      0.4539      0.1688      0.1344      0.0000      0.0000      0.2337      0.0000      0.2315
 28      0.0000      0.3273      0.0000      0.0000      0.0000      0.3015      0.1972      0.0000      0.0000
 29      0.0000      0.0546      0.0000      0.0000      0.0000      0.0000      0.0000      0.0000      0.0000
 30      0.0000      0.7275      0.7228      0.8865      0.7287      0.6318      0.8530      0.6465      0.6448
 31      0.0000      0.0101      0.0000      0.0000      0.0000      0.0000      0.0000      0.0000      0.0000
 32      0.0000      0.0062      0.0000      0.0000      0.0000      0.0000      0.0000      0.0000      0.0000
 33      0.0000      0.0090      0.0000      0.0000      0.0000      0.0000      0.0000      0.0000      0.0000
 34      0.0000      0.0027      0.0000      0.0000      0.0000      0.0000      0.0000      0.0000      0.0000
 35      0.0000      0.3330      0.2197      0.9003      0.4242      0.0000      0.4594      0.1887      0.5259
 36      2.3834      2.0920      2.1723      2.3582      1.8992      2.7098      2.1071      2.4694      2.5726
 37      1.7527      2.7396      2.7267      3.1027      2.3117      2.9510      3.0303      2.8888      3.1715
 38     27.2994     19.2532     19.4409     20.9673     20.2686     20.8543     20.7443     19.8365     21.0414
 39      0.0000      0.2767      0.0000      0.0000      0.0000      0.0000      0.0000      0.0000      0.4238
 40      0.0000      0.3794      0.0000      0.0000      0.0000      0.0000      0.6690      0.0000      0.0000
 41      0.0000      0.7682      0.9553      0.0000      0.9925      0.0000      0.6620      2.7797      0.3124
 42      0.0000      0.3563      1.8200      0.0000      1.1808      0.0000      0.0043      0.0000      1.1816
 43      0.0000      0.3946      0.1582      0.0000      0.2963      0.0000      0.0658      0.0000      0.0000
 44      0.0000      0.4723      0.0000      0.0000      0.0000      0.0000      0.0000      0.0000      0.0000
 45      0.0028      0.8162      0.9381      0.1572      0.0000      0.9365      0.2309      0.0000      0.5163
 46      0.0000      0.1690      0.0130      0.4562      0.0000      0.0000      0.0000      0.3310      0.1425
