###################################################################
## OUTPUT of StarlightChains_v04.for    [Cid@UFSC - 01/Apr/2007] ##
###################################################################

## Some input info
2007A.txt                                [arq_obs]
Base.CB07.vall.4m                        [arq_base]
Masks.EmLines.NEW.gm                     [arq_masks]
StCv04.C11.config                        [arq_config]
   66                                    [N_base]
    0                                    [N_YAV_components = # of components with extra extinction!]
    0                                    [i_FitPowerLaw (1/0 = Yes/No)]
-9.99                                    [alpha_PowerLaw]
CCM                                      [red_law_option]
 1.458241                                [q_norm = A(l_norm)/A(V)]

## (Re)Sampling Parameters
 3741.00                                 [l_ini (A)]
 7218.00                                 [l_fin (A)]
    1.00                                 [dl    (A)]     (OBS: dl_cushion =    50.00 A)

## Normalization info
 4020.00                                 [l_norm (A) - for base]
 4010.00                                 [llow_norm (A) - window for f_obs]
 4060.00                                 [lupp_norm (A) - window for f_obs]
6.422075E-17                             [fobs_norm (in input units)]

## S/N
 3691.00                                 [llow_SN (A) - window for S/N]
 7268.00                                 [lupp_SN (A) - window for S/N]
  11.153                                 [S/N in S/N window]
  13.182                                 [S/N in norm. window]
  10.000                                 [S/N_err in S/N window]
  11.820                                 [S/N_err in norm. window]
  1.0000                                 [fscale_chi2]

## etc...
    -2007326                             [idum_orig]
  2221                                   [NOl_eff]
  2217                                   [Nl_eff]
     4    NSIGMA                         [Ntot_cliped & clip_method]
  1556030                                [Nglobal_steps]
   7                                     [N_chains]
  26                                     [NEX0s_base = N_base in EX0s-fits]
 0   0   1       69   2.0   1.411E+01    [Clip-Bug, RC-Crash & Burn-In warning-flags, n_censored_weights, wei_nsig_threshold & wei_limit]
    14     14.312     13.804      0.508  [idt_all, wdt_TotTime, wdt_UsrTime & wdt_SysTime (sec)]

## Synthesis Results - Best model ##

 1.78713E-01                             [chi2/Nl_eff]
     3.11421                             [adev (%)]

   100.86603                             [sum-of-x (%)]
 1.22827E-16                             [Flux_tot (units of input spectrum!)]
 1.69980E-12                             [Mini_tot (???)]
 8.69964E-13                             [Mcor_tot (???)]

 -38.09                                  [v0_min  (km/s)]
  94.00                                  [vd_min  (km/s)]
 0.4764                                  [AV_min  (mag)]
 0.0000                                  [YAV_min (mag)]

# j     x_j(%)      Mini_j(%)     Mcor_j(%)     age_j(yr)     Z_j      (L/M)_j    YAV?  Mstars   component_j        a/Fe...       SSP_chi2r SSP_adev(%)   SSP_AV   SSP_x(%)
  1      9.7922     6.4123E-02    1.2529E-01    1.000000E+06  0.00400  1.094E-02    0   1.0000   age020_m42            0.0000     5.8011E-01     6.0233   2.6918    87.1727
  2      0.0000     0.0000E+00    0.0000E+00    3.160000E+06  0.00400  4.007E-02    0   0.9999   age045_m42            0.0000     5.1428E-01     5.5008   1.9527    93.7906
  3      0.0000     0.0000E+00    0.0000E+00    5.010000E+06  0.00400  2.539E-02    0   0.9488   age055_m42            0.0000     5.1289E-01     5.5684   2.2793    91.2144
  4      0.0000     0.0000E+00    0.0000E+00    6.610000E+06  0.00400  2.620E-02    0   0.9220   age061_m42            0.0000     5.1282E-01     5.3659   1.8824    93.9408
  5      0.0021     1.1557E-05    2.0012E-05    1.000000E+07  0.00400  1.322E-02    0   0.8862   age070_m42            0.0000     3.5617E-01     4.3448   1.6187    95.5640
  6      0.0000     0.0000E+00    0.0000E+00    1.445000E+07  0.00400  7.883E-03    0   0.8571   age078_m42            0.0000     3.8468E-01     4.6044   1.9476    93.0067
  7      0.0000     0.0000E+00    0.0000E+00    2.512000E+07  0.00400  5.251E-03    0   0.8174   age090_m42            0.0000     3.4101E-01     4.1893   1.4900    96.1139
  8      0.0000     0.0000E+00    0.0000E+00    4.000000E+07  0.00400  3.649E-03    0   0.7851   age104_m42            0.0000     3.4302E-01     4.1748   1.2574    97.1205
  9      0.0000     0.0000E+00    0.0000E+00    5.500000E+07  0.00400  3.098E-03    0   0.7629   age110_m42            0.0000     4.4868E-01     4.7084   1.4036    97.3007
 10      0.0000     0.0000E+00    0.0000E+00    1.015200E+08  0.00400  2.228E-03    0   0.7207   age116_m42            0.0000     5.5429E-01     5.1152   1.4197    97.5755
 11      0.0000     0.0000E+00    0.0000E+00    2.861200E+08  0.00400  1.093E-03    0   0.6648   age125_m42            0.0000     5.5161E-01     4.8695   0.8624   100.3913
 12      0.0000     0.0000E+00    0.0000E+00    5.088000E+08  0.00400  6.597E-04    0   0.6365   age130_m42            0.0000     7.0389E-01     5.4637   0.8418   101.4972
 13      0.0055     1.8563E-03    2.1030E-03    1.434000E+09  0.00400  2.132E-04    0   0.5798   age139_m42            0.0000     6.6823E-01     5.4907  -0.1464   104.1159
 14      3.8079     4.6275E+00    4.8617E+00    4.250000E+09  0.00400  5.895E-05    0   0.5377   age158_m42            0.0000     7.1944E-01     6.1007  -0.5987   100.3193
 15      0.0000     0.0000E+00    0.0000E+00    7.500000E+09  0.00400  3.510E-05    0   0.5212   age171_m42            0.0000     8.6281E-01     6.6500  -0.7869    99.6353
 16      1.7920     6.4030E+00    6.2979E+00    1.300000E+10  0.00400  2.005E-05    0   0.5034   age193_m42            0.0000     1.0170E+00     7.1726  -0.9505    99.0270
 17      0.0000     0.0000E+00    0.0000E+00    1.800000E+10  0.00400  1.525E-05    0   0.4967   age213_m42            0.0000     9.7292E-01     7.0136  -0.9737    98.6003
 18      5.3139     3.0750E-02    6.0082E-02    1.000000E+06  0.00800  1.238E-02    0   1.0000   age020_m52            0.0000     5.7946E-01     6.0254   2.6872    87.3672
 19      0.0000     0.0000E+00    0.0000E+00    3.160000E+06  0.00800  3.074E-02    0   0.9966   age045_m52            0.0000     5.6972E-01     5.9664   2.6077    88.2336
 20      0.0000     0.0000E+00    0.0000E+00    5.010000E+06  0.00800  2.668E-02    0   0.9443   age055_m52            0.0000     5.0804E-01     5.5513   2.3629    90.3485
 21      0.0000     0.0000E+00    0.0000E+00    6.610000E+06  0.00800  2.136E-02    0   0.9177   age061_m52            0.0000     2.7215E-01     4.0384   1.1103    96.9254
 22      0.0000     0.0000E+00    0.0000E+00    1.000000E+07  0.00800  1.215E-02    0   0.8827   age070_m52            0.0000     3.2678E-01     4.1690   1.8079    95.1030
 23      0.0000     0.0000E+00    0.0000E+00    1.445000E+07  0.00800  8.717E-03    0   0.8552   age078_m52            0.0000     3.6263E-01     4.4374   1.9120    94.3608
 24      0.0000     0.0000E+00    0.0000E+00    2.512000E+07  0.00800  5.592E-03    0   0.8162   age090_m52            0.0000     3.2551E-01     4.0181   1.5566    97.2320
 25      0.0000     0.0000E+00    0.0000E+00    4.000000E+07  0.00800  3.896E-03    0   0.7841   age104_m52            0.0000     3.6099E-01     4.1795   1.4648    98.1491
 26      0.0000     0.0000E+00    0.0000E+00    1.015200E+08  0.00800  2.148E-03    0   0.7226   age116_m52            0.0000     4.6904E-01     4.6819   1.3926    98.2704
 27      0.0000     0.0000E+00    0.0000E+00    2.861200E+08  0.00800  9.925E-04    0   0.6683   age125_m52            0.0000     6.9702E-01     5.3011   0.9067   102.4732
 28      6.9182     1.5779E+00    1.8924E+00    9.047900E+08  0.00800  3.141E-04    0   0.6138   age135_m52            0.0000     8.9520E-01     6.3516   0.0950   107.2149
 29     11.2196     4.6758E+00    5.3473E+00    1.434000E+09  0.00800  1.719E-04    0   0.5853   age139_m52            0.0000     7.5784E-01     6.0505  -0.4868   105.1051
 30      0.0000     0.0000E+00    0.0000E+00    2.500000E+09  0.00800  7.872E-05    0   0.5600   age150_m52            0.0000     9.6852E-01     7.0144  -0.7701   102.6011
 31      0.0000     0.0000E+00    0.0000E+00    4.250000E+09  0.00800  4.336E-05    0   0.5426   age158_m52            0.0000     9.9461E-01     7.0886  -0.7852   101.5928
 32      0.0000     0.0000E+00    0.0000E+00    6.250000E+09  0.00800  3.159E-05    0   0.5319   age166_m52            0.0000     1.2460E+00     7.8857  -0.9919   101.6934
 33      0.0000     0.0000E+00    0.0000E+00    1.300000E+10  0.00800  1.361E-05    0   0.5073   age193_m52            0.0000     2.3493E+00    10.0034  -1.0000    85.3223
 34      0.0000     0.0000E+00    0.0000E+00    1.800000E+10  0.00800  9.886E-06    0   0.4990   age213_m52            0.0000     3.0045E+00    11.3841  -1.0000    81.2852
 35      6.3102     2.9278E-02    5.7206E-02    1.000000E+06  0.02000  1.544E-02    0   1.0000   age020_m62            0.0000     5.8412E-01     6.0554   2.6836    87.5561
 36      0.0000     0.0000E+00    0.0000E+00    3.160000E+06  0.02000  3.762E-02    0   0.9858   age045_m62            0.0000     5.8799E-01     6.0653   2.6215    88.3631
 37      0.0000     0.0000E+00    0.0000E+00    5.010000E+06  0.02000  3.296E-02    0   0.9342   age055_m62            0.0000     5.3211E-01     5.5934   2.2336    92.5490
 38     18.2913     1.1355E-01    1.9659E-01    8.710000E+06  0.02000  1.154E-02    0   0.8861   age067_m62            0.0000     3.8185E-01     4.4554   1.2994    96.8392
 39      0.0010     9.1008E-06    1.5065E-05    1.445000E+07  0.02000  7.663E-03    0   0.8472   age078_m62            0.0000     2.6322E-01     3.7054   1.4685    97.0468
 40      0.0000     0.0000E+00    0.0000E+00    2.512000E+07  0.02000  4.532E-03    0   0.8099   age090_m62            0.0000     2.8563E-01     3.7483   1.4643    96.7301
 41      0.0000     0.0000E+00    0.0000E+00    5.500000E+07  0.02000  2.733E-03    0   0.7595   age110_m62            0.0000     3.5634E-01     4.0983   1.4479    97.4084
 42      0.0000     0.0000E+00    0.0000E+00    1.609000E+08  0.02000  1.369E-03    0   0.6985   age120_m62            0.0000     6.0017E-01     4.9400   1.2734   100.5265
 43      0.0000     0.0000E+00    0.0000E+00    2.861200E+08  0.02000  9.013E-04    0   0.6714   age125_m62            0.0000     8.0484E-01     5.5169   1.0135   103.7596
 44      2.0551     2.9281E-01    3.6896E-01    5.088000E+08  0.02000  5.028E-04    0   0.6449   age130_m62            0.0000     1.0293E+00     6.6357   0.6225   106.9602
 45      0.0000     0.0000E+00    0.0000E+00    9.047900E+08  0.02000  2.428E-04    0   0.6179   age135_m62            0.0000     9.5482E-01     6.7967   0.0288   106.6120
 46      0.0000     0.0000E+00    0.0000E+00    1.434000E+09  0.02000  1.263E-04    0   0.5908   age139_m62            0.0000     9.6205E-01     6.8887  -0.4202   105.1763
 47      0.0000     0.0000E+00    0.0000E+00    2.500000E+09  0.02000  5.985E-05    0   0.5673   age150_m62            0.0000     1.2082E+00     7.7917  -0.7941   103.8933
 48      0.4458     9.7635E-01    1.0431E+00    4.250000E+09  0.02000  3.271E-05    0   0.5468   age158_m62            0.0000     1.6534E+00     8.7328  -1.0000    99.4278
 49      0.0000     0.0000E+00    0.0000E+00    1.000000E+10  0.02000  1.360E-05    0   0.5167   age181_m62            0.0000     2.8803E+00    11.0210  -1.0000    86.9140
 50      0.0000     0.0000E+00    0.0000E+00    1.800000E+10  0.02000  7.124E-06    0   0.5013   age213_m62            0.0000     4.0135E+00    13.1039  -1.0000    79.2255
 51      8.3583     2.3101E-02    4.5128E-02    1.000000E+06  0.05000  2.592E-02    0   0.9998   age020_m72            0.0000     5.9506E-01     6.1153   2.6771    87.5059
 52      0.0000     0.0000E+00    0.0000E+00    3.160000E+06  0.05000  4.845E-02    0   0.9577   age045_m72            0.0000     5.7264E-01     5.9245   2.4990    89.7453
 53      0.0000     0.0000E+00    0.0000E+00    5.010000E+06  0.05000  3.072E-02    0   0.9147   age055_m72            0.0000     3.6993E-01     4.5556   2.0591    93.0846
 54      8.0325     3.9549E-02    6.8597E-02    6.610000E+06  0.05000  1.455E-02    0   0.8877   age061_m72            0.0000     5.8344E-01     5.9063   1.4036    96.6652
 55      0.0000     0.0000E+00    0.0000E+00    1.000000E+07  0.05000  9.074E-03    0   0.8524   age070_m72            0.0000     4.4478E-01     5.0726   2.2683    92.3282
 56      0.0000     0.0000E+00    0.0000E+00    2.512000E+07  0.05000  4.250E-03    0   0.7902   age090_m72            0.0000     3.9534E-01     4.5402   1.9468    94.6537
 57      0.0000     0.0000E+00    0.0000E+00    4.000000E+07  0.05000  3.087E-03    0   0.7618   age104_m72            0.0000     3.9423E-01     4.3917   1.7175    96.3674
 58      0.0000     0.0000E+00    0.0000E+00    1.015200E+08  0.05000  1.700E-03    0   0.7096   age116_m72            0.0000     5.4213E-01     4.6538   1.4265    99.8552
 59      0.8798     8.5355E-02    1.1062E-01    2.861200E+08  0.05000  7.384E-04    0   0.6633   age125_m72            0.0000     9.2420E-01     6.0008   0.8737   105.4453
 60      7.3010     1.3696E+00    1.7051E+00    5.088000E+08  0.05000  3.819E-04    0   0.6372   age130_m72            0.0000     9.8385E-01     6.7496   0.3630   107.7377
 61      0.0000     0.0000E+00    0.0000E+00    9.047900E+08  0.05000  1.676E-04    0   0.6110   age135_m72            0.0000     1.1811E+00     7.7397  -0.3463   106.1697
 62      5.5902     4.5318E+00    5.2012E+00    1.434000E+09  0.05000  8.837E-05    0   0.5874   age139_m72            0.0000     1.3147E+00     8.0643  -0.7972   105.5230
 63      0.0000     0.0000E+00    0.0000E+00    2.500000E+09  0.05000  4.233E-05    0   0.5598   age150_m72            0.0000     1.8028E+00     9.1387  -1.0000   100.2459
 64      0.0000     0.0000E+00    0.0000E+00    6.250000E+09  0.05000  1.435E-05    0   0.5249   age166_m72            0.0000     3.2846E+00    11.9215  -1.0000    83.3027
 65      0.0000     0.0000E+00    0.0000E+00    1.300000E+10  0.05000  6.513E-06    0   0.5036   age193_m72            0.0000     4.9261E+00    14.7798  -1.0000    74.8647
 66      4.7493     7.5158E+01    7.2617E+01    1.800000E+10  0.05000  4.527E-06    0   0.4945   age213_m72            0.0000     5.9769E+00    16.4402  -1.0000    69.7063


## Synthesis Results - Average & Chains ##

# j      x_j: min, <> & last-chain-values for 1 ...  7 chains
  1      9.7922      5.2184      6.2587      8.2932      6.0864      4.3473      4.9221      7.4886      6.4792
  2      0.0000      0.4200      0.7388      0.0000      0.0000      0.0000      0.2569      0.0000      2.0954
  3      0.0000      0.3769      1.7996      0.0000      0.0000      0.0000      0.0000      0.1838      0.0000
  4      0.0000      0.3704      0.0000      0.0000      0.0736      0.5964      0.0000      0.0000      0.0730
  5      0.0021      0.5449      0.0000      0.0000      1.7701      0.0000      0.0000      0.0000      1.1144
  6      0.0000      0.4520      0.0000      2.1859      0.0000      0.2728      0.0000      0.0000      0.0000
  7      0.0000      0.6091      0.0000      0.0000      0.0000      0.0000      0.0000      0.0000      0.0000
  8      0.0000      0.5924      0.0000      0.0000      0.0000      0.0000      0.0000      0.0000      0.0000
  9      0.0000      0.3961      0.0000      0.0000      0.5502      0.0000      0.0000      0.0000      0.0000
 10      0.0000      0.4696      0.0000      0.0000      0.6958      0.0000      0.0000      0.0000      0.0000
 11      0.0000      0.5027      0.0000      0.0000      0.0000      0.0000      0.0000      0.0000      0.0000
 12      0.0000      0.4216      0.0000      0.0000      0.0000      0.0000      0.0000      0.0000      0.0000
 13      0.0055      0.8005      0.0000      0.2633      1.5242      0.0000      0.0000      0.0000      0.0000
 14      3.8079      5.8345      4.8263      6.5641      4.7795      5.9311      5.1687      4.4405      7.5432
 15      0.0000      0.6835      0.0000      0.0000      0.0000      0.0000      2.5313      0.0000      1.6543
 16      1.7920      2.5237      4.2676      3.5774      2.8580      3.3928      2.5098      3.5363      2.6395
 17      0.0000      0.1589      0.0000      0.0000      0.2637      0.0896      0.0000      0.0000      0.0000
 18      5.3139      3.7627      3.1401      4.5018      4.4889      4.7058      3.5472      6.5803      4.5121
 19      0.0000      2.3172      1.0524      2.3982      0.1678      3.6835      0.8434      0.0000      2.7019
 20      0.0000      0.3202      0.7373      0.0000      0.0874      0.0000      0.0000      0.1048      0.0000
 21      0.0000      1.5709      0.0665      0.0000      0.3571      0.0000      0.0000      1.4555      0.0000
 22      0.0000      0.4338      2.5173      0.0066      0.0000      0.0000      3.1986      0.0000      0.0845
 23      0.0000      0.4760      0.0000      0.0000      0.0163      0.4475      3.1129      0.0000      0.0401
 24      0.0000      0.5153      2.8126      1.1953      0.0000      0.0000      0.0000      0.0000      1.5860
 25      0.0000      0.4851      0.0000      0.0000      0.0000      0.0000      0.0000      0.0000      0.0000
 26      0.0000      0.3941      0.0000      0.0000      0.0622      0.0000      2.0815      0.0000      0.0000
 27      0.0000      0.5500      0.0000      0.0729      0.8125      0.0000      0.1953      0.1464      2.2537
 28      6.9182      3.1167      0.9987      0.0000      2.4490      5.1236      0.0000      1.7016      5.2301
 29     11.2196      2.1277      0.1269      3.4524      3.4117      2.7774      1.7399      3.7870      2.7640
 30      0.0000      0.1612      0.0801      0.0000      0.0000      0.0000      0.0000      0.0000      0.0000
 31      0.0000      0.8052      2.0608      0.0000      0.5316      0.0000      1.6386      1.0258      0.0000
 32      0.0000      0.1571      0.0000      0.0000      0.0000      0.0000      0.0000      0.8063      0.5250
 33      0.0000      0.0653      0.0000      0.0000      0.0000      0.0000      0.3194      0.0000      0.0000
 34      0.0000      0.0793      0.0000      0.0000      0.0000      0.0341      0.0000      0.0000      0.0000
 35      6.3102      2.9917      3.9952      4.5242      5.4146      5.6512      4.7773      2.4607      3.5173
 36      0.0000      1.0492      4.0675      0.0000      0.0000      0.0000      1.2196      1.1504      1.9549
 37      0.0000      0.3083      0.3636      0.0000      0.0000      2.1986      0.0000      0.0000      0.0000
 38     18.2913     15.3035     15.9814     15.1297     20.2342     16.8918     17.2072     17.7884     15.2955
 39      0.0010      1.0674      0.0000      2.6651      1.1511      0.0000      0.6692      0.1974      0.4119
 40      0.0000      0.5945      0.0000      0.0000      0.0000      1.4367      0.0000      3.1388      1.0683
 41      0.0000      0.7687      0.0000      0.0000      0.0000      0.0000      0.0000      0.0000      0.0000
 42      0.0000      0.3864      0.0000      0.0000      0.0000      0.1513      0.0000      0.0000      0.0000
 43      0.0000      0.4734      0.0000      1.2986      0.0000      0.5281      0.0000      0.0000      0.1041
 44      2.0551      1.3967      3.6201      2.8759      1.3650      3.7419      3.1809      0.0000      0.0000
 45      0.0000      2.7109      3.0341      1.2890      0.0000      2.4083      0.0000      2.8222      2.2609
 46      0.0000      1.4793      0.0000      1.2191      0.0000      1.3415      0.0000      4.3595      2.6729
