###################################################################
## OUTPUT of StarlightChains_v04.for    [Cid@UFSC - 01/Apr/2007] ##
###################################################################

## Some input info
2007hj.txt                               [arq_obs]
Base.CB07.vall.4m                        [arq_base]
Masks.EmLines.NEW.gm                     [arq_masks]
StCv04.C11.config                        [arq_config]
   66                                    [N_base]
    0                                    [N_YAV_components = # of components with extra extinction!]
    0                                    [i_FitPowerLaw (1/0 = Yes/No)]
-9.99                                    [alpha_PowerLaw]
CCM                                      [red_law_option]
 1.458241                                [q_norm = A(l_norm)/A(V)]

## (Re)Sampling Parameters
 3741.00                                 [l_ini (A)]
 7218.00                                 [l_fin (A)]
    1.00                                 [dl    (A)]     (OBS: dl_cushion =    50.00 A)

## Normalization info
 4020.00                                 [l_norm (A) - for base]
 4010.00                                 [llow_norm (A) - window for f_obs]
 4060.00                                 [lupp_norm (A) - window for f_obs]
2.149099E-16                             [fobs_norm (in input units)]

## S/N
 3691.00                                 [llow_SN (A) - window for S/N]
 7268.00                                 [lupp_SN (A) - window for S/N]
   4.559                                 [S/N in S/N window]
   4.243                                 [S/N in norm. window]
  10.000                                 [S/N_err in S/N window]
   9.309                                 [S/N_err in norm. window]
  1.0000                                 [fscale_chi2]

## etc...
    -2007335                             [idum_orig]
  2384                                   [NOl_eff]
  2364                                   [Nl_eff]
    20    NSIGMA                         [Ntot_cliped & clip_method]
   740250                                [Nglobal_steps]
   7                                     [N_chains]
  13                                     [NEX0s_base = N_base in EX0s-fits]
 0   0   1      124   2.0   1.839E+01    [Clip-Bug, RC-Crash & Burn-In warning-flags, n_censored_weights, wei_nsig_threshold & wei_limit]
    10      9.737      9.230      0.507  [idt_all, wdt_TotTime, wdt_UsrTime & wdt_SysTime (sec)]

## Synthesis Results - Best model ##

 3.02945E-01                             [chi2/Nl_eff]
     3.95871                             [adev (%)]

   100.97835                             [sum-of-x (%)]
 1.09076E-16                             [Flux_tot (units of input spectrum!)]
 1.11585E-11                             [Mini_tot (???)]
 5.58374E-12                             [Mcor_tot (???)]

-127.70                                  [v0_min  (km/s)]
 244.79                                  [vd_min  (km/s)]
-0.5122                                  [AV_min  (mag)]
 0.0000                                  [YAV_min (mag)]

# j     x_j(%)      Mini_j(%)     Mcor_j(%)     age_j(yr)     Z_j      (L/M)_j    YAV?  Mstars   component_j        a/Fe...       SSP_chi2r SSP_adev(%)   SSP_AV   SSP_x(%)
  1      0.0000     0.0000E+00    0.0000E+00    1.000000E+06  0.00400  1.094E-02    0   1.0000   age020_m42            0.0000     2.3212E+00    10.6149   3.7287    74.5699
  2      0.0000     0.0000E+00    0.0000E+00    3.160000E+06  0.00400  4.007E-02    0   0.9999   age045_m42            0.0000     1.8169E+00     9.3521   2.9476    81.8397
  3      0.0000     0.0000E+00    0.0000E+00    5.010000E+06  0.00400  2.539E-02    0   0.9488   age055_m42            0.0000     2.0512E+00     9.9532   3.2942    78.8035
  4      0.0000     0.0000E+00    0.0000E+00    6.610000E+06  0.00400  2.620E-02    0   0.9220   age061_m42            0.0000     1.8354E+00     9.3794   2.8722    82.0499
  5      0.0000     0.0000E+00    0.0000E+00    1.000000E+07  0.00400  1.322E-02    0   0.8862   age070_m42            0.0000     2.1121E+00    10.6616   2.6031    82.9130
  6      0.0000     0.0000E+00    0.0000E+00    1.445000E+07  0.00400  7.883E-03    0   0.8571   age078_m42            0.0000     2.2248E+00    10.8882   2.9439    80.3005
  7      0.0000     0.0000E+00    0.0000E+00    2.512000E+07  0.00400  5.251E-03    0   0.8174   age090_m42            0.0000     2.1404E+00    10.8471   2.4707    83.4056
  8      0.0000     0.0000E+00    0.0000E+00    4.000000E+07  0.00400  3.649E-03    0   0.7851   age104_m42            0.0000     1.9926E+00    10.4114   2.2299    84.7033
  9      0.0000     0.0000E+00    0.0000E+00    5.500000E+07  0.00400  3.098E-03    0   0.7629   age110_m42            0.0000     1.8153E+00     9.6083   2.3688    85.4764
 10      0.0000     0.0000E+00    0.0000E+00    1.015200E+08  0.00400  2.228E-03    0   0.7207   age116_m42            0.0000     1.7139E+00     9.1283   2.3784    86.1974
 11      0.0000     0.0000E+00    0.0000E+00    2.861200E+08  0.00400  1.093E-03    0   0.6648   age125_m42            0.0000     1.6493E+00     9.2702   1.7895    89.4805
 12      0.0000     0.0000E+00    0.0000E+00    5.088000E+08  0.00400  6.597E-04    0   0.6365   age130_m42            0.0000     1.4191E+00     8.3114   1.7590    91.3601
 13      0.0000     0.0000E+00    0.0000E+00    1.434000E+09  0.00400  2.132E-04    0   0.5798   age139_m42            0.0000     9.1280E-01     6.8482   0.7545    94.9862
 14      0.0000     0.0000E+00    0.0000E+00    4.250000E+09  0.00400  5.895E-05    0   0.5377   age158_m42            0.0000     7.2154E-01     5.9934   0.3149    91.6171
 15      0.0000     0.0000E+00    0.0000E+00    7.500000E+09  0.00400  3.510E-05    0   0.5212   age171_m42            0.0000     6.3432E-01     5.5637   0.1169    91.5854
 16      0.0000     0.0000E+00    0.0000E+00    1.300000E+10  0.00400  2.005E-05    0   0.5034   age193_m42            0.0000     5.7858E-01     5.2239  -0.0568    91.5833
 17      0.0000     0.0000E+00    0.0000E+00    1.800000E+10  0.00400  1.525E-05    0   0.4967   age213_m42            0.0000     6.0639E-01     5.3526  -0.0745    90.9369
 18      0.0000     0.0000E+00    0.0000E+00    1.000000E+06  0.00800  1.238E-02    0   1.0000   age020_m52            0.0000     2.3220E+00    10.6099   3.7250    74.7172
 19      0.0000     0.0000E+00    0.0000E+00    3.160000E+06  0.00800  3.074E-02    0   0.9966   age045_m52            0.0000     2.2801E+00    10.4946   3.6452    75.5168
 20      0.0000     0.0000E+00    0.0000E+00    5.010000E+06  0.00800  2.668E-02    0   0.9443   age055_m52            0.0000     2.1237E+00    10.1423   3.3843    77.8071
 21      0.0000     0.0000E+00    0.0000E+00    6.610000E+06  0.00800  2.136E-02    0   0.9177   age061_m52            0.0000     1.9199E+00    10.2941   2.0984    84.1864
 22      0.0000     0.0000E+00    0.0000E+00    1.000000E+07  0.00800  1.215E-02    0   0.8827   age070_m52            0.0000     2.2882E+00    11.3041   2.7931    82.1711
 23      0.0000     0.0000E+00    0.0000E+00    1.445000E+07  0.00800  8.717E-03    0   0.8552   age078_m52            0.0000     2.1793E+00    10.8021   2.9055    81.5721
 24      0.0000     0.0000E+00    0.0000E+00    2.512000E+07  0.00800  5.592E-03    0   0.8162   age090_m52            0.0000     2.1261E+00    10.8423   2.5306    84.5359
 25      0.0000     0.0000E+00    0.0000E+00    4.000000E+07  0.00800  3.896E-03    0   0.7841   age104_m52            0.0000     1.9558E+00    10.2806   2.4273    85.9178
 26      0.0000     0.0000E+00    0.0000E+00    1.015200E+08  0.00800  2.148E-03    0   0.7226   age116_m52            0.0000     1.7342E+00     9.4182   2.3482    86.7052
 27      0.0000     0.0000E+00    0.0000E+00    2.861200E+08  0.00800  9.925E-04    0   0.6683   age125_m52            0.0000     1.4177E+00     8.2919   1.8220    92.2733
 28      5.4266     1.6725E-01    2.0515E-01    9.047900E+08  0.00800  3.141E-04    0   0.6138   age135_m52            0.0000     7.9072E-01     6.3655   0.9651    99.2492
 29      0.0000     0.0000E+00    0.0000E+00    1.434000E+09  0.00800  1.719E-04    0   0.5853   age139_m52            0.0000     6.9176E-01     5.9854   0.3970    96.8254
 30      0.0000     0.0000E+00    0.0000E+00    2.500000E+09  0.00800  7.872E-05    0   0.5600   age150_m52            0.0000     5.3466E-01     5.1224   0.1182    95.0445
 31      0.0000     0.0000E+00    0.0000E+00    4.250000E+09  0.00800  4.336E-05    0   0.5426   age158_m52            0.0000     5.5439E-01     5.1767   0.1048    94.0867
 32      0.0000     0.0000E+00    0.0000E+00    6.250000E+09  0.00800  3.159E-05    0   0.5319   age166_m52            0.0000     4.5433E-01     4.6289  -0.1183    95.2110
 33      0.0000     0.0000E+00    0.0000E+00    1.300000E+10  0.00800  1.361E-05    0   0.5073   age193_m52            0.0000     3.7620E-01     4.2131  -0.6126    96.0013
 34     23.6220     2.3131E+01    2.3066E+01    1.800000E+10  0.00800  9.886E-06    0   0.4990   age213_m52            0.0000     3.7099E-01     4.2462  -0.7403    96.5889
 35      0.0000     0.0000E+00    0.0000E+00    1.000000E+06  0.02000  1.544E-02    0   1.0000   age020_m62            0.0000     2.3396E+00    10.6496   3.7236    74.8083
 36      0.0000     0.0000E+00    0.0000E+00    3.160000E+06  0.02000  3.762E-02    0   0.9858   age045_m62            0.0000     2.3295E+00    10.6073   3.6612    75.5233
 37      0.0000     0.0000E+00    0.0000E+00    5.010000E+06  0.02000  3.296E-02    0   0.9342   age055_m62            0.0000     1.9466E+00     9.5793   3.2417    80.3003
 38      0.0000     0.0000E+00    0.0000E+00    8.710000E+06  0.02000  1.154E-02    0   0.8861   age067_m62            0.0000     3.3731E+00    14.9052   2.2793    82.1950
 39      0.0000     0.0000E+00    0.0000E+00    1.445000E+07  0.02000  7.663E-03    0   0.8472   age078_m62            0.0000     2.4765E+00    12.2235   2.4419    83.7115
 40      0.0000     0.0000E+00    0.0000E+00    2.512000E+07  0.02000  4.532E-03    0   0.8099   age090_m62            0.0000     2.5287E+00    12.3621   2.4309    83.5455
 41      0.0000     0.0000E+00    0.0000E+00    5.500000E+07  0.02000  2.733E-03    0   0.7595   age110_m62            0.0000     1.9921E+00    10.3639   2.4154    85.0917
 42      0.0000     0.0000E+00    0.0000E+00    1.609000E+08  0.02000  1.369E-03    0   0.6985   age120_m62            0.0000     1.6753E+00     9.0807   2.2158    89.3076
 43      0.0000     0.0000E+00    0.0000E+00    2.861200E+08  0.02000  9.013E-04    0   0.6714   age125_m62            0.0000     1.4690E+00     8.2868   1.9326    93.4619
 44     23.0728     4.4422E-01    5.7250E-01    5.088000E+08  0.02000  5.028E-04    0   0.6449   age130_m62            0.0000     1.0368E+00     6.9356   1.5106    98.3438
 45      0.0000     0.0000E+00    0.0000E+00    9.047900E+08  0.02000  2.428E-04    0   0.6179   age135_m62            0.0000     6.7255E-01     5.7865   0.9081    98.8146
 46      0.0000     0.0000E+00    0.0000E+00    1.434000E+09  0.02000  1.263E-04    0   0.5908   age139_m62            0.0000     5.8434E-01     5.3609   0.4652    97.4723
 47      0.0000     0.0000E+00    0.0000E+00    2.500000E+09  0.02000  5.985E-05    0   0.5673   age150_m62            0.0000     4.8361E-01     4.8211   0.0862    97.0066
 48      0.0007     1.9307E-04    2.1097E-04    4.250000E+09  0.02000  3.271E-05    0   0.5468   age158_m62            0.0000     3.8046E-01     4.3692  -0.2470    97.7693
 49      0.0000     0.0000E+00    0.0000E+00    1.000000E+10  0.02000  1.360E-05    0   0.5167   age181_m62            0.0000     3.8709E-01     4.5088  -0.6328    99.3723
 50     26.8294     3.6457E+01    3.6523E+01    1.800000E+10  0.02000  7.124E-06    0   0.5013   age213_m62            0.0000     4.7857E-01     5.1124  -0.8665    99.8835
 51      0.0000     0.0000E+00    0.0000E+00    1.000000E+06  0.05000  2.592E-02    0   0.9998   age020_m72            0.0000     2.4025E+00    10.8029   3.7200    74.6395
 52      0.0000     0.0000E+00    0.0000E+00    3.160000E+06  0.05000  4.845E-02    0   0.9577   age045_m72            0.0000     2.1686E+00    10.1656   3.5277    77.1674
 53      0.0000     0.0000E+00    0.0000E+00    5.010000E+06  0.05000  3.072E-02    0   0.9147   age055_m72            0.0000     2.4266E+00    11.6398   3.0404    80.3141
 54      0.0000     0.0000E+00    0.0000E+00    6.610000E+06  0.05000  1.455E-02    0   0.8877   age061_m72            0.0000     4.2453E+00    17.2762   2.3304    82.2099
 55      0.0000     0.0000E+00    0.0000E+00    1.000000E+07  0.05000  9.074E-03    0   0.8524   age070_m72            0.0000     2.5711E+00    11.9811   3.2203    80.1515
 56      0.0000     0.0000E+00    0.0000E+00    2.512000E+07  0.05000  4.250E-03    0   0.7902   age090_m72            0.0000     2.3146E+00    11.3432   2.8973    82.5554
 57      0.0000     0.0000E+00    0.0000E+00    4.000000E+07  0.05000  3.087E-03    0   0.7618   age104_m72            0.0000     2.2956E+00    11.3487   2.6593    84.2867
 58      0.0000     0.0000E+00    0.0000E+00    1.015200E+08  0.05000  1.700E-03    0   0.7096   age116_m72            0.0000     1.8361E+00     9.7027   2.3674    88.3799
 59      0.0000     0.0000E+00    0.0000E+00    2.861200E+08  0.05000  7.384E-04    0   0.6633   age125_m72            0.0000     1.2599E+00     7.5794   1.7782    95.9370
 60      0.0000     0.0000E+00    0.0000E+00    5.088000E+08  0.05000  3.819E-04    0   0.6372   age130_m72            0.0000     8.2780E-01     6.2441   1.2551    99.3098
 61      0.0000     0.0000E+00    0.0000E+00    9.047900E+08  0.05000  1.676E-04    0   0.6110   age135_m72            0.0000     5.4916E-01     5.2689   0.5412    98.8817
 62      0.0000     0.0000E+00    0.0000E+00    1.434000E+09  0.05000  8.837E-05    0   0.5874   age139_m72            0.0000     4.6931E-01     4.7169   0.0744    99.0015
 63      0.0000     0.0000E+00    0.0000E+00    2.500000E+09  0.05000  4.233E-05    0   0.5598   age150_m72            0.0000     3.8298E-01     4.4152  -0.2585    99.1869
 64      0.0000     0.0000E+00    0.0000E+00    6.250000E+09  0.05000  1.435E-05    0   0.5249   age166_m72            0.0000     4.0695E-01     4.7030  -0.7350    99.3006
 65     11.1972     1.6643E+01    1.6749E+01    1.300000E+10  0.05000  6.513E-06    0   0.5036   age193_m72            0.0000     5.6089E-01     5.5662  -1.0000   100.1819
 66     10.8296     2.3158E+01    2.2885E+01    1.800000E+10  0.05000  4.527E-06    0   0.4945   age213_m72            0.0000     8.6515E-01     6.6886  -1.0000    94.2432


## Synthesis Results - Average & Chains ##

# j      x_j: min, <> & last-chain-values for 1 ...  7 chains
  1      0.0000      0.0269      0.0000      0.0000      0.0000      0.0000      0.0000      0.0000      0.0000
  2      0.0000      0.0614      0.0000      0.0000      0.0000      0.0000      0.0000      0.0000      0.0000
  3      0.0000      0.0629      0.0000      0.0000      0.0000      0.0000      0.0000      0.0000      0.0000
  4      0.0000      0.0317      0.0000      0.0000      0.0000      0.0000      0.0000      0.0000      0.0000
  5      0.0000      0.0547      0.0000      0.0000      0.0000      0.0000      0.0000      0.0000      0.0000
  6      0.0000      0.0149      0.0000      0.0000      0.0000      0.0000      0.0000      0.0000      0.0000
  7      0.0000      0.0220      0.0000      0.0000      0.0000      0.0000      0.0000      0.0000      0.0000
  8      0.0000      0.0967      0.0000      0.0000      0.3396      0.0000      0.5864      0.0000      0.0000
  9      0.0000      0.0609      0.0000      0.0000      0.0000      0.0000      0.0000      0.0000      0.7574
 10      0.0000      0.0851      0.2768      0.0000      0.0000      0.0000      0.0000      0.6287      0.0000
 11      0.0000      0.2514      0.0000      0.0000      0.0000      0.9028      0.0000      0.0000      0.0000
 12      0.0000      0.3812      0.0307      0.5474      0.0000      0.0000      2.4330      0.4546      0.0000
 13      0.0000      1.1756      1.2665      0.0000      1.9176      4.3988      1.8745      1.9735      0.0000
 14      0.0000      0.2381      0.0000      0.3267      0.0000      0.0000      0.0000      0.0000      0.0000
 15      0.0000      0.3019      0.0000      0.0000      0.0000      0.5948      0.0000      0.8358      0.0000
 16      0.0000      0.4286      0.0000      0.0000      0.0000      0.0000      0.0000      0.0000      0.0000
 17      0.0000      0.2577      0.0000      0.0000      0.0000      0.0000      0.0000      0.0000      0.0000
 18      0.0000      0.0243      0.0000      0.0000      0.0000      0.0000      0.0000      0.0000      0.0000
 19      0.0000      0.0177      0.0000      0.0000      0.0000      0.0000      0.0000      0.0000      0.0000
 20      0.0000      0.0292      0.0000      0.0000      0.0000      0.0000      0.0000      0.0000      0.2800
 21      0.0000      0.0252      0.0000      0.0000      0.0000      0.0000      0.0000      0.0000      0.0000
 22      0.0000      0.0399      0.2429      0.0000      0.0000      0.0000      0.0000      0.0000      0.0000
 23      0.0000      0.0367      0.0000      0.0000      0.0000      0.0000      0.0000      0.0000      0.0000
 24      0.0000      0.0504      0.0000      0.1399      0.0000      0.0000      0.0000      0.0000      0.0000
 25      0.0000      0.0279      0.0000      0.3047      0.0000      0.0000      0.0000      0.0000      0.0000
 26      0.0000      0.1899      0.0000      0.0000      0.0000      0.4243      0.4880      0.0000      0.0000
 27      0.0000      0.4670      0.2895      0.0000      1.9690      0.8828      0.0000      1.9039      0.0000
 28      5.4266      5.7020     11.3928      8.2059      5.8036      5.7077      5.1852      4.2553      6.5994
 29      0.0000      1.1842      0.0884      0.8343      0.4013      0.0000      1.1518      0.0000      0.0000
 30      0.0000      0.5409      0.0000      0.6339      0.0000      1.3549      0.7298      0.0000      0.3484
 31      0.0000      0.2872      0.0000      0.0000      0.0000      0.0000      0.4283      0.0000      0.0000
 32      0.0000      0.7302      0.0000      0.0000      0.0000      0.7322      0.0000      0.0000      0.1829
 33      0.0000      0.9033      0.0000      1.8004      0.0000      0.0000      0.7037      4.1466      0.0000
 34     23.6220      1.7410      0.1762      2.3975      0.0000      0.0000      0.7907      1.9061      3.6158
 35      0.0000      0.0134      0.0000      0.0000      0.0000      0.0000      0.0000      0.0000      0.0000
 36      0.0000      0.0239      0.0000      0.0000      0.0000      0.0000      0.0000      0.0000      0.0000
 37      0.0000      0.0322      0.3124      0.0000      0.0000      0.0000      0.0000      0.0000      0.0000
 38      0.0000      0.0213      0.0000      0.0000      0.0000      0.0000      0.0000      0.0000      0.0000
 39      0.0000      0.0529      0.0000      0.0000      0.0000      0.0000      0.0000      0.0000      0.0000
 40      0.0000      0.0296      0.0000      0.0000      0.0000      0.0000      0.0000      0.0000      0.0000
 41      0.0000      0.0393      0.0000      0.0000      0.0000      0.0000      0.0000      0.0000      0.0000
 42      0.0000      0.1693      0.0000      0.0000      0.0000      0.0000      0.0000      0.0000      0.0000
 43      0.0000      0.3172      0.7836      0.0000      0.0000      0.3955      0.0000      1.3046      0.2357
 44     23.0728      5.4223      7.6912      6.6166      5.5471      4.2256      6.2555      6.3496      8.6860
 45      0.0000      4.3965      3.1638      2.2661      5.7787      3.1895      4.1637      5.4024      6.2951
 46      0.0000      0.2975      0.0000      0.0000      0.0000      0.0470      0.0000      0.0000      0.0000
