###################################################################
## OUTPUT of StarlightChains_v04.for    [Cid@UFSC - 01/Apr/2007] ##
###################################################################

## Some input info
2007cm.txt                               [arq_obs]
Base.CB07.vall.4m                        [arq_base]
Masks.EmLines.NEW.gm                     [arq_masks]
StCv04.C11.config                        [arq_config]
   66                                    [N_base]
    0                                    [N_YAV_components = # of components with extra extinction!]
    0                                    [i_FitPowerLaw (1/0 = Yes/No)]
-9.99                                    [alpha_PowerLaw]
CCM                                      [red_law_option]
 1.458241                                [q_norm = A(l_norm)/A(V)]

## (Re)Sampling Parameters
 3741.00                                 [l_ini (A)]
 7218.00                                 [l_fin (A)]
    1.00                                 [dl    (A)]     (OBS: dl_cushion =    50.00 A)

## Normalization info
 4020.00                                 [l_norm (A) - for base]
 4010.00                                 [llow_norm (A) - window for f_obs]
 4060.00                                 [lupp_norm (A) - window for f_obs]
3.312310E-17                             [fobs_norm (in input units)]

## S/N
 3691.00                                 [llow_SN (A) - window for S/N]
 7268.00                                 [lupp_SN (A) - window for S/N]
   8.461                                 [S/N in S/N window]
   9.307                                 [S/N in norm. window]
   8.209                                 [S/N_err in S/N window]
   9.030                                 [S/N_err in norm. window]
  1.0000                                 [fscale_chi2]

## etc...
    -2007333                             [idum_orig]
  2383                                   [NOl_eff]
  2383                                   [Nl_eff]
     0    NSIGMA                         [Ntot_cliped & clip_method]
  1969730                                [Nglobal_steps]
   7                                     [N_chains]
  38                                     [NEX0s_base = N_base in EX0s-fits]
 0   0   1        3   2.0   1.369E+01    [Clip-Bug, RC-Crash & Burn-In warning-flags, n_censored_weights, wei_nsig_threshold & wei_limit]
    16     15.878     15.368      0.510  [idt_all, wdt_TotTime, wdt_UsrTime & wdt_SysTime (sec)]

## Synthesis Results - Best model ##

 3.46314E-01                             [chi2/Nl_eff]
     6.11304                             [adev (%)]

    96.78378                             [sum-of-x (%)]
 4.94482E-17                             [Flux_tot (units of input spectrum!)]
 1.10753E-12                             [Mini_tot (???)]
 5.74110E-13                             [Mcor_tot (???)]

-160.21                                  [v0_min  (km/s)]
 125.20                                  [vd_min  (km/s)]
 0.3227                                  [AV_min  (mag)]
 0.0000                                  [YAV_min (mag)]

# j     x_j(%)      Mini_j(%)     Mcor_j(%)     age_j(yr)     Z_j      (L/M)_j    YAV?  Mstars   component_j        a/Fe...       SSP_chi2r SSP_adev(%)   SSP_AV   SSP_x(%)
  1      2.5277     1.0659E-02    2.0562E-02    1.000000E+06  0.00400  1.094E-02    0   1.0000   age020_m42            0.0000     6.1265E-01     7.9355   3.1054    82.5786
  2      1.9977     2.2999E-03    4.4363E-03    3.160000E+06  0.00400  4.007E-02    0   0.9999   age045_m42            0.0000     5.4183E-01     7.4248   2.3985    87.4693
  3      1.4824     2.6933E-03    4.9297E-03    5.010000E+06  0.00400  2.539E-02    0   0.9488   age055_m42            0.0000     5.6241E-01     7.5291   2.7073    85.7694
  4      1.5762     2.7753E-03    4.9363E-03    6.610000E+06  0.00400  2.620E-02    0   0.9220   age061_m42            0.0000     5.2409E-01     7.3442   2.3186    87.9087
  5      0.0000     0.0000E+00    0.0000E+00    1.000000E+07  0.00400  1.322E-02    0   0.8862   age070_m42            0.0000     4.7026E-01     6.9985   1.9888    91.7449
  6      0.0000     0.0000E+00    0.0000E+00    1.445000E+07  0.00400  7.883E-03    0   0.8571   age078_m42            0.0000     4.9640E-01     7.1465   2.3172    89.3734
  7      0.0180     1.5799E-04    2.4913E-04    2.512000E+07  0.00400  5.251E-03    0   0.8174   age090_m42            0.0000     4.6763E-01     6.9882   1.8522    92.5397
  8      0.0000     0.0000E+00    0.0000E+00    4.000000E+07  0.00400  3.649E-03    0   0.7851   age104_m42            0.0000     4.5178E-01     6.8985   1.6320    92.9996
  9      0.0000     0.0000E+00    0.0000E+00    5.500000E+07  0.00400  3.098E-03    0   0.7629   age110_m42            0.0000     4.6666E-01     7.0401   1.8093    92.0007
 10      0.4800     9.9376E-03    1.3816E-02    1.015200E+08  0.00400  2.228E-03    0   0.7207   age116_m42            0.0000     4.7816E-01     7.1736   1.8463    91.4798
 11      0.0000     0.0000E+00    0.0000E+00    2.861200E+08  0.00400  1.093E-03    0   0.6648   age125_m42            0.0000     4.6382E-01     7.1186   1.2602    94.8736
 12      0.0000     0.0000E+00    0.0000E+00    5.088000E+08  0.00400  6.597E-04    0   0.6365   age130_m42            0.0000     4.5841E-01     7.1854   1.2762    94.5628
 13     15.7345     3.4045E+00    3.8080E+00    1.434000E+09  0.00400  2.132E-04    0   0.5798   age139_m42            0.0000     3.8754E-01     6.6839   0.3234    95.6634
 14      3.1743     2.4841E+00    2.5767E+00    4.250000E+09  0.00400  5.895E-05    0   0.5377   age158_m42            0.0000     4.2653E-01     6.9531  -0.0889    90.8353
 15      0.0000     0.0000E+00    0.0000E+00    7.500000E+09  0.00400  3.510E-05    0   0.5212   age171_m42            0.0000     4.5796E-01     7.2444  -0.2615    89.6178
 16      0.0000     0.0000E+00    0.0000E+00    1.300000E+10  0.00400  2.005E-05    0   0.5034   age193_m42            0.0000     4.9620E-01     7.5340  -0.4138    88.6237
 17      2.8758     8.6992E+00    8.3355E+00    1.800000E+10  0.00400  1.525E-05    0   0.4967   age213_m42            0.0000     4.8788E-01     7.4537  -0.4411    88.3948
 18      6.1117     2.2774E-02    4.3934E-02    1.000000E+06  0.00800  1.238E-02    0   1.0000   age020_m52            0.0000     6.1184E-01     7.9354   3.1018    82.7375
 19      2.5182     3.7791E-03    7.2655E-03    3.160000E+06  0.00800  3.074E-02    0   0.9966   age045_m52            0.0000     6.0734E-01     7.8852   3.0280    83.3680
 20      2.6917     4.6541E-03    8.4782E-03    5.010000E+06  0.00800  2.668E-02    0   0.9443   age055_m52            0.0000     5.6013E-01     7.5425   2.7849    85.1990
 21      0.0000     0.0000E+00    0.0000E+00    6.610000E+06  0.00800  2.136E-02    0   0.9177   age061_m52            0.0000     4.1389E-01     6.6097   1.4922    92.6780
 22      1.5172     5.7604E-03    9.8089E-03    1.000000E+07  0.00800  1.215E-02    0   0.8827   age070_m52            0.0000     4.7358E-01     7.0422   2.1514    92.2284
 23      0.0000     0.0000E+00    0.0000E+00    1.445000E+07  0.00800  8.717E-03    0   0.8552   age078_m52            0.0000     4.7955E-01     7.0422   2.2816    90.6537
 24      0.0040     3.3073E-05    5.2075E-05    2.512000E+07  0.00800  5.592E-03    0   0.8162   age090_m52            0.0000     4.5675E-01     6.9287   1.9134    93.7344
 25      0.0000     0.0000E+00    0.0000E+00    4.000000E+07  0.00800  3.896E-03    0   0.7841   age104_m52            0.0000     4.5512E-01     6.9286   1.8381    93.9203
 26      0.0000     0.0000E+00    0.0000E+00    1.015200E+08  0.00800  2.148E-03    0   0.7226   age116_m52            0.0000     4.5684E-01     6.9996   1.8019    92.7016
 27      0.0000     0.0000E+00    0.0000E+00    2.861200E+08  0.00800  9.925E-04    0   0.6683   age125_m52            0.0000     4.4374E-01     7.0883   1.3392    95.5237
 28      0.0243     3.5702E-03    4.2275E-03    9.047900E+08  0.00800  3.141E-04    0   0.6138   age135_m52            0.0000     4.3184E-01     7.1748   0.5804    97.7126
 29      0.0000     0.0000E+00    0.0000E+00    1.434000E+09  0.00800  1.719E-04    0   0.5853   age139_m52            0.0000     4.1117E-01     6.9036  -0.0004    95.7359
 30      0.0000     0.0000E+00    0.0000E+00    2.500000E+09  0.00800  7.872E-05    0   0.5600   age150_m52            0.0000     4.6673E-01     7.4004  -0.2313    91.6910
 31      0.0000     0.0000E+00    0.0000E+00    4.250000E+09  0.00800  4.336E-05    0   0.5426   age158_m52            0.0000     4.8180E-01     7.4981  -0.2440    90.7308
 32      0.0000     0.0000E+00    0.0000E+00    6.250000E+09  0.00800  3.159E-05    0   0.5319   age166_m52            0.0000     5.4160E-01     7.9905  -0.4238    89.8346
 33      0.0000     0.0000E+00    0.0000E+00    1.300000E+10  0.00800  1.361E-05    0   0.5073   age193_m52            0.0000     6.4075E-01     8.7589  -0.8622    88.0749
 34      0.0000     0.0000E+00    0.0000E+00    1.800000E+10  0.00800  9.886E-06    0   0.4990   age213_m52            0.0000     7.2943E-01     9.3840  -0.9435    86.6247
 35      4.8686     1.4546E-02    2.8061E-02    1.000000E+06  0.02000  1.544E-02    0   1.0000   age020_m62            0.0000     6.1387E-01     7.9608   3.0977    82.9334
 36      0.0000     0.0000E+00    0.0000E+00    3.160000E+06  0.02000  3.762E-02    0   0.9858   age045_m62            0.0000     6.1452E-01     7.9481   3.0374    83.6296
 37      1.6379     2.2925E-03    4.1314E-03    5.010000E+06  0.02000  3.296E-02    0   0.9342   age055_m62            0.0000     5.5179E-01     7.5090   2.6748    86.5303
 38      7.7276     3.0891E-02    5.2805E-02    8.710000E+06  0.02000  1.154E-02    0   0.8861   age067_m62            0.0000     6.0485E-01     8.4481   1.5092    98.9395
 39      2.8916     1.7407E-02    2.8450E-02    1.445000E+07  0.02000  7.663E-03    0   0.8472   age078_m62            0.0000     4.7528E-01     7.1758   1.7681    95.5847
 40      0.9212     9.3765E-03    1.4650E-02    2.512000E+07  0.02000  4.532E-03    0   0.8099   age090_m62            0.0000     4.9545E-01     7.3170   1.7562    95.4905
 41      0.0000     0.0000E+00    0.0000E+00    5.500000E+07  0.02000  2.733E-03    0   0.7595   age110_m62            0.0000     4.4370E-01     6.8721   1.8189    93.3267
 42      0.3566     1.2015E-02    1.6190E-02    1.609000E+08  0.02000  1.369E-03    0   0.6985   age120_m62            0.0000     4.5115E-01     7.0694   1.6904    94.4697
 43      0.0000     0.0000E+00    0.0000E+00    2.861200E+08  0.02000  9.013E-04    0   0.6714   age125_m62            0.0000     4.5125E-01     7.2007   1.4580    96.3841
 44      0.0000     0.0000E+00    0.0000E+00    5.088000E+08  0.02000  5.028E-04    0   0.6449   age130_m62            0.0000     4.6282E-01     7.4632   1.1187    97.2501
 45      0.0000     0.0000E+00    0.0000E+00    9.047900E+08  0.02000  2.428E-04    0   0.6179   age135_m62            0.0000     4.4433E-01     7.3101   0.5502    95.9248
 46      0.0000     0.0000E+00    0.0000E+00    1.434000E+09  0.02000  1.263E-04    0   0.5908   age139_m62            0.0000     4.5837E-01     7.3778   0.1148    94.1441
 47      0.0000     0.0000E+00    0.0000E+00    2.500000E+09  0.02000  5.985E-05    0   0.5673   age150_m62            0.0000     5.3572E-01     7.9661  -0.2217    91.6645
 48      5.1343     7.2410E+00    7.6381E+00    4.250000E+09  0.02000  3.271E-05    0   0.5468   age158_m62            0.0000     6.4619E-01     8.8113  -0.4908    89.4607
 49      0.0000     0.0000E+00    0.0000E+00    1.000000E+10  0.02000  1.360E-05    0   0.5167   age181_m62            0.0000     8.0994E-01     9.9272  -0.7965    87.4319
 50      2.3659     1.5320E+01    1.4816E+01    1.800000E+10  0.02000  7.124E-06    0   0.5013   age213_m62            0.0000     9.5133E-01    10.7982  -0.9725    85.4537
 51      0.0000     0.0000E+00    0.0000E+00    1.000000E+06  0.05000  2.592E-02    0   0.9998   age020_m72            0.0000     6.1883E-01     8.0406   3.0853    83.1049
 52      3.2733     3.1166E-03    5.7579E-03    3.160000E+06  0.05000  4.845E-02    0   0.9577   age045_m72            0.0000     6.0080E-01     7.8073   2.9306    84.3517
 53      0.0000     0.0000E+00    0.0000E+00    5.010000E+06  0.05000  3.072E-02    0   0.9147   age055_m72            0.0000     5.2005E-01     7.4246   2.3821    90.7988
 54      0.0000     0.0000E+00    0.0000E+00    6.610000E+06  0.05000  1.455E-02    0   0.8877   age061_m72            0.0000     1.0059E+00    10.7208   1.5114   101.7701
 55      0.0000     0.0000E+00    0.0000E+00    1.000000E+07  0.05000  9.074E-03    0   0.8524   age070_m72            0.0000     6.4859E-01     8.0855   2.5616    90.6586
 56      0.0000     0.0000E+00    0.0000E+00    2.512000E+07  0.05000  4.250E-03    0   0.7902   age090_m72            0.0000     5.5289E-01     7.5493   2.2669    92.1243
 57      0.0082     1.2233E-04    1.7978E-04    4.000000E+07  0.05000  3.087E-03    0   0.7618   age104_m72            0.0000     5.4743E-01     7.5481   2.0326    93.9096
 58      0.0000     0.0000E+00    0.0000E+00    1.015200E+08  0.05000  1.700E-03    0   0.7096   age116_m72            0.0000     4.6706E-01     7.1285   1.8161    94.7674
 59      0.0000     0.0000E+00    0.0000E+00    2.861200E+08  0.05000  7.384E-04    0   0.6633   age125_m72            0.0000     4.5604E-01     7.3459   1.3460    96.8099
 60      2.9925     3.6147E-01    4.4434E-01    5.088000E+08  0.05000  3.819E-04    0   0.6372   age130_m72            0.0000     4.5270E-01     7.4032   0.8870    96.9470
 61      0.0000     0.0000E+00    0.0000E+00    9.047900E+08  0.05000  1.676E-04    0   0.6110   age135_m72            0.0000     5.4147E-01     8.0945   0.2356    93.4121
 62      0.0000     0.0000E+00    0.0000E+00    1.434000E+09  0.05000  8.837E-05    0   0.5874   age139_m72            0.0000     5.6181E-01     8.1745  -0.2168    92.7622
 63     15.8967     1.7324E+01    1.8709E+01    2.500000E+09  0.05000  4.233E-05    0   0.5598   age150_m72            0.0000     6.9049E-01     9.1168  -0.4807    89.7969
 64      1.8723     6.0190E+00    6.0948E+00    6.250000E+09  0.05000  1.435E-05    0   0.5249   age166_m72            0.0000     8.6068E-01    10.2241  -0.8831    86.6663
 65      0.9103     6.4473E+00    6.2635E+00    1.300000E+10  0.05000  6.513E-06    0   0.5036   age193_m72            0.0000     1.0776E+00    11.5196  -1.0000    81.5759
 66      3.1933     3.2541E+01    3.1042E+01    1.800000E+10  0.05000  4.527E-06    0   0.4945   age213_m72            0.0000     1.3023E+00    12.6065  -1.0000    75.8862


## Synthesis Results - Average & Chains ##

# j      x_j: min, <> & last-chain-values for 1 ...  7 chains
  1      2.5277      0.9938      1.8259      1.6630      1.4047      3.2646      2.5269      0.7676      3.7323
  2      1.9977      0.5153      2.6536      0.0000      0.0000      1.1214      0.0000      0.5344      1.0886
  3      1.4824      0.6599      0.8565      1.1855      0.0000      0.7985      0.0000      1.9228      2.2031
  4      1.5762      0.5017      0.0000      0.0000      0.0000      0.0000      0.0000      1.9473      0.0000
  5      0.0000      0.8010      1.4666      3.2932      0.0000      0.0000      1.2352      0.0000      0.0000
  6      0.0000      0.8114      2.7891      1.9960      0.0000      0.8526      0.0000      0.2598      1.0927
  7      0.0180      0.5200      0.0000      0.8223      0.3032      0.0000      0.0000      0.9356      0.0000
  8      0.0000      0.8680      0.9715      2.7626      0.0000      0.6280      2.4656      0.0000      0.0000
  9      0.0000      0.8977      0.4362      1.0137      1.2269      3.0857      0.0000      0.0000      1.2103
 10      0.4800      0.8231      0.6697      0.0249      0.0000      2.1814      0.0000      0.4907      0.0000
 11      0.0000      0.7901      3.8726      0.6940      0.0000      0.5428      0.0000      0.8881      0.0000
 12      0.0000      0.7212      0.0000      0.0000      1.1197      5.5137      0.0000      0.0518      0.0000
 13     15.7345      4.2657      0.0000      5.6326      3.8280      1.8220      2.5915      4.1793      0.0000
 14      3.1743      3.4368      3.9274      5.3408      1.4355      4.3994      3.5776      0.4782      2.5349
 15      0.0000      1.9103      2.4338      4.7139      2.4042      3.1579      1.8109      0.0000      6.0136
 16      0.0000      0.4592      0.0000      0.0000      0.2344      0.0000      2.7363      0.4624      1.6489
 17      2.8758      3.1394      2.0117      4.4764      4.4169      1.5063      3.5721      2.8412      6.2560
 18      6.1117      1.1315      1.2217      0.8095      0.0000      5.5854      0.0000      4.6234      0.0000
 19      2.5182      2.2024      1.8047      2.7934      3.6742      1.9520      1.5252      2.0995      0.7841
 20      2.6917      0.5273      0.9689      1.9601      0.5647      0.7161      2.5801      1.0967      0.4944
 21      0.0000      1.0158      0.4767      1.0017      0.1551      0.0000      0.0000      0.0000      1.6948
 22      1.5172      1.1091      2.2024      1.9468      1.3901      0.8065      1.6445      1.5771      0.5040
 23      0.0000      1.1643      1.1126      1.1291      0.0000      2.1270      0.2336      0.0000      1.4829
 24      0.0040      0.7909      1.6892      0.0000      0.3639      0.0000      0.4996      0.5067      0.2284
 25      0.0000      1.6695      2.0600      0.0000      0.6182      3.7766      3.3846      1.8046      0.0000
 26      0.0000      1.0007      0.0000      3.0072      1.2977      1.1955      0.0000      2.3295      0.0000
 27      0.0000      1.1451      0.0000      0.0000      0.0000      0.4215      0.0000      0.1828      3.0817
 28      0.0243      2.0464      0.0000      1.3863      0.4159      0.1729      0.0000      1.6639      0.0000
 29      0.0000      1.4744      1.4523      0.0000      0.0000      0.0000      1.7077      0.0000      0.4901
 30      0.0000      0.5800      2.5919      0.0000      0.4074      0.3795      0.0058      0.0000      0.0000
 31      0.0000      4.1119      3.8503      0.0000      0.0000      3.7085      5.6621      4.1149      0.0000
 32      0.0000      0.7681      0.8835      0.0000      0.0000      0.0000      0.0000      1.9821      0.1375
 33      0.0000      0.1253      0.0000      0.0000      0.0000      0.6618      0.0000      0.0000      0.0000
 34      0.0000      0.1017      1.2055      0.3552      0.0000      0.0000      0.0000      0.0000      0.0000
 35      4.8686      2.6838      5.1806      3.3219      3.3652      0.6966      3.9973      0.9707      4.7347
 36      0.0000      0.6974      1.2558      0.0000      0.0000      0.0000      1.5119      0.0617      0.1600
 37      1.6379      0.6162      0.0000      2.4008      1.5787      0.0000      0.0000      1.9317      0.6780
 38      7.7276      6.9840      7.8940      3.9149      9.0737      3.9745      6.8826      9.4316     10.3050
 39      2.8916      2.0346      0.6720      2.0208      5.2928      0.0000      4.1428      2.5494      0.0000
 40      0.9212      1.6934      0.0000      0.4692      7.3797      0.0000      2.3413      0.8699      0.0000
 41      0.0000      0.7833      0.0000      1.3918      1.1193      0.5914      0.0000      0.2925      1.1676
 42      0.3566      0.5180      1.4903      0.0000      0.0000      0.3136      0.0000      2.2947      0.6663
 43      0.0000      0.7199      0.0000      0.0000      3.5183      0.4945      1.4275      0.0000      0.0000
 44      0.0000      1.0860      0.0000      0.0000      1.9692      1.6292      2.3231      0.3484      0.0000
 45      0.0000      2.7785      2.7102      0.0000      1.8141      0.4155      1.2325      0.0000     10.5954
 46      0.0000      6.7882      5.4403      8.3876      8.0358      3.3479      6.3346      6.7840      5.8088
