###################################################################
## OUTPUT of StarlightChains_v04.for    [Cid@UFSC - 01/Apr/2007] ##
###################################################################

## Some input info
2007kj.txt                               [arq_obs]
Base.CB07.vall.4m                        [arq_base]
Masks.EmLines.NEW.gm                     [arq_masks]
StCv04.C11.config                        [arq_config]
   66                                    [N_base]
    0                                    [N_YAV_components = # of components with extra extinction!]
    0                                    [i_FitPowerLaw (1/0 = Yes/No)]
-9.99                                    [alpha_PowerLaw]
CCM                                      [red_law_option]
 1.458241                                [q_norm = A(l_norm)/A(V)]

## (Re)Sampling Parameters
 3741.00                                 [l_ini (A)]
 7218.00                                 [l_fin (A)]
    1.00                                 [dl    (A)]     (OBS: dl_cushion =    50.00 A)

## Normalization info
 4020.00                                 [l_norm (A) - for base]
 4010.00                                 [llow_norm (A) - window for f_obs]
 4060.00                                 [lupp_norm (A) - window for f_obs]
1.218785E-16                             [fobs_norm (in input units)]

## S/N
 3691.00                                 [llow_SN (A) - window for S/N]
 7268.00                                 [lupp_SN (A) - window for S/N]
   5.699                                 [S/N in S/N window]
   6.229                                 [S/N in norm. window]
  10.000                                 [S/N_err in S/N window]
  10.930                                 [S/N_err in norm. window]
  1.0000                                 [fscale_chi2]

## etc...
    -2007337                             [idum_orig]
  2385                                   [NOl_eff]
  2218                                   [Nl_eff]
   167    NSIGMA                         [Ntot_cliped & clip_method]
   862190                                [Nglobal_steps]
   7                                     [N_chains]
  14                                     [NEX0s_base = N_base in EX0s-fits]
 0   0   1       27   2.0   2.314E+01    [Clip-Bug, RC-Crash & Burn-In warning-flags, n_censored_weights, wei_nsig_threshold & wei_limit]
    11     11.012     10.509      0.504  [idt_all, wdt_TotTime, wdt_UsrTime & wdt_SysTime (sec)]

## Synthesis Results - Best model ##

 1.00659E+00                             [chi2/Nl_eff]
     7.47524                             [adev (%)]

    94.05620                             [sum-of-x (%)]
 1.02596E-16                             [Flux_tot (units of input spectrum!)]
 1.42850E-12                             [Mini_tot (???)]
 7.97248E-13                             [Mcor_tot (???)]

-132.42                                  [v0_min  (km/s)]
 212.23                                  [vd_min  (km/s)]
-0.0826                                  [AV_min  (mag)]
 0.0000                                  [YAV_min (mag)]

# j     x_j(%)      Mini_j(%)     Mcor_j(%)     age_j(yr)     Z_j      (L/M)_j    YAV?  Mstars   component_j        a/Fe...       SSP_chi2r SSP_adev(%)   SSP_AV   SSP_x(%)
  1      0.0000     0.0000E+00    0.0000E+00    1.000000E+06  0.00400  1.094E-02    0   1.0000   age020_m42            0.0000     1.8088E+00     9.1740   3.2276    76.2977
  2      0.0000     0.0000E+00    0.0000E+00    3.160000E+06  0.00400  4.007E-02    0   0.9999   age045_m42            0.0000     1.6254E+00     8.8380   2.4744    82.5774
  3      0.0000     0.0000E+00    0.0000E+00    5.010000E+06  0.00400  2.539E-02    0   0.9488   age055_m42            0.0000     1.7291E+00     9.0160   2.8101    79.9385
  4      0.0000     0.0000E+00    0.0000E+00    6.610000E+06  0.00400  2.620E-02    0   0.9220   age061_m42            0.0000     1.6712E+00     8.9405   2.4013    82.6815
  5      0.0000     0.0000E+00    0.0000E+00    1.000000E+07  0.00400  1.322E-02    0   0.8862   age070_m42            0.0000     1.8345E+00     9.4886   2.1139    84.3174
  6      0.0000     0.0000E+00    0.0000E+00    1.445000E+07  0.00400  7.883E-03    0   0.8571   age078_m42            0.0000     1.8701E+00     9.5216   2.4487    81.9024
  7      0.0000     0.0000E+00    0.0000E+00    2.512000E+07  0.00400  5.251E-03    0   0.8174   age090_m42            0.0000     1.8576E+00     9.6139   1.9801    84.8913
  8      0.0000     0.0000E+00    0.0000E+00    4.000000E+07  0.00400  3.649E-03    0   0.7851   age104_m42            0.0000     1.7712E+00     9.4146   1.7449    85.9751
  9      0.0000     0.0000E+00    0.0000E+00    5.500000E+07  0.00400  3.098E-03    0   0.7629   age110_m42            0.0000     1.7164E+00     9.1547   1.8979    86.1333
 10      0.0000     0.0000E+00    0.0000E+00    1.015200E+08  0.00400  2.228E-03    0   0.7207   age116_m42            0.0000     1.7042E+00     9.0597   1.9202    86.3135
 11      0.0000     0.0000E+00    0.0000E+00    2.861200E+08  0.00400  1.093E-03    0   0.6648   age125_m42            0.0000     1.7514E+00     9.4939   1.3274    89.6494
 12      0.0000     0.0000E+00    0.0000E+00    5.088000E+08  0.00400  6.597E-04    0   0.6365   age130_m42            0.0000     1.6345E+00     9.0776   1.3127    90.8274
 13      0.0000     0.0000E+00    0.0000E+00    1.434000E+09  0.00400  2.132E-04    0   0.5798   age139_m42            0.0000     1.2441E+00     8.1180   0.3142    94.1618
 14     13.6680     1.7704E+01    1.7057E+01    4.250000E+09  0.00400  5.895E-05    0   0.5377   age158_m42            0.0000     1.0254E+00     7.5568  -0.1319    91.0516
 15      8.3435     1.8151E+01    1.6951E+01    7.500000E+09  0.00400  3.510E-05    0   0.5212   age171_m42            0.0000     1.0272E+00     7.5653  -0.3252    90.7516
 16      0.0000     0.0000E+00    0.0000E+00    1.300000E+10  0.00400  2.005E-05    0   0.5034   age193_m42            0.0000     1.0598E+00     7.6697  -0.4934    90.4550
 17      0.0000     0.0000E+00    0.0000E+00    1.800000E+10  0.00400  1.525E-05    0   0.4967   age213_m42            0.0000     1.0526E+00     7.6543  -0.5152    89.9917
 18      3.7671     2.3235E-02    4.1633E-02    1.000000E+06  0.00800  1.238E-02    0   1.0000   age020_m52            0.0000     1.8065E+00     9.1625   3.2239    76.4468
 19      0.0000     0.0000E+00    0.0000E+00    3.160000E+06  0.00800  3.074E-02    0   0.9966   age045_m52            0.0000     1.7854E+00     9.0896   3.1474    77.1420
 20      0.0000     0.0000E+00    0.0000E+00    5.010000E+06  0.00800  2.668E-02    0   0.9443   age055_m52            0.0000     1.7445E+00     9.0212   2.8950    79.1325
 21      0.0000     0.0000E+00    0.0000E+00    6.610000E+06  0.00800  2.136E-02    0   0.9177   age061_m52            0.0000     1.5754E+00     8.9147   1.6009    85.9716
 22      0.0000     0.0000E+00    0.0000E+00    1.000000E+07  0.00800  1.215E-02    0   0.8827   age070_m52            0.0000     1.9293E+00     9.8074   2.2926    84.0237
 23      0.0000     0.0000E+00    0.0000E+00    1.445000E+07  0.00800  8.717E-03    0   0.8552   age078_m52            0.0000     1.8434E+00     9.4657   2.4109    83.1682
 24      0.0000     0.0000E+00    0.0000E+00    2.512000E+07  0.00800  5.592E-03    0   0.8162   age090_m52            0.0000     1.8586E+00     9.6578   2.0399    86.0324
 25      0.0000     0.0000E+00    0.0000E+00    4.000000E+07  0.00800  3.896E-03    0   0.7841   age104_m52            0.0000     1.7869E+00     9.4893   1.9445    87.0680
 26      0.0000     0.0000E+00    0.0000E+00    1.015200E+08  0.00800  2.148E-03    0   0.7226   age116_m52            0.0000     1.6788E+00     9.1384   1.8796    87.2394
 27      0.0000     0.0000E+00    0.0000E+00    2.861200E+08  0.00800  9.925E-04    0   0.6683   age125_m52            0.0000     1.6245E+00     8.9876   1.3753    91.7642
 28      0.0000     0.0000E+00    0.0000E+00    9.047900E+08  0.00800  3.141E-04    0   0.6138   age135_m52            0.0000     1.2152E+00     8.1010   0.5298    98.0746
 29      0.0000     0.0000E+00    0.0000E+00    1.434000E+09  0.00800  1.719E-04    0   0.5853   age139_m52            0.0000     1.1212E+00     7.9603  -0.0456    95.9359
 30      0.0000     0.0000E+00    0.0000E+00    2.500000E+09  0.00800  7.872E-05    0   0.5600   age150_m52            0.0000     1.0515E+00     7.6560  -0.3104    93.5390
 31      0.0000     0.0000E+00    0.0000E+00    4.250000E+09  0.00800  4.336E-05    0   0.5426   age158_m52            0.0000     1.0529E+00     7.6769  -0.3270    92.7257
 32      0.0000     0.0000E+00    0.0000E+00    6.250000E+09  0.00800  3.159E-05    0   0.5319   age166_m52            0.0000     1.1159E+00     7.8443  -0.5333    93.0343
 33      0.0000     0.0000E+00    0.0000E+00    1.300000E+10  0.00800  1.361E-05    0   0.5073   age193_m52            0.0000     1.2513E+00     8.1397  -1.0000    92.5547
 34      0.0000     0.0000E+00    0.0000E+00    1.800000E+10  0.00800  9.886E-06    0   0.4990   age213_m52            0.0000     1.4451E+00     8.4549  -1.0000    88.4013
 35      0.0000     0.0000E+00    0.0000E+00    1.000000E+06  0.02000  1.544E-02    0   1.0000   age020_m62            0.0000     1.8124E+00     9.1737   3.2217    76.5689
 36      0.0000     0.0000E+00    0.0000E+00    3.160000E+06  0.02000  3.762E-02    0   0.9858   age045_m62            0.0000     1.8131E+00     9.1676   3.1610    77.2339
 37      0.0000     0.0000E+00    0.0000E+00    5.010000E+06  0.02000  3.296E-02    0   0.9342   age055_m62            0.0000     1.6996E+00     8.9131   2.7671    81.0772
 38      0.0000     0.0000E+00    0.0000E+00    8.710000E+06  0.02000  1.154E-02    0   0.8861   age067_m62            0.0000     2.6726E+00    12.3310   1.7353    85.9477
 39      0.0000     0.0000E+00    0.0000E+00    1.445000E+07  0.02000  7.663E-03    0   0.8472   age078_m62            0.0000     2.0586E+00    10.4520   1.9262    86.2095
 40      0.0000     0.0000E+00    0.0000E+00    2.512000E+07  0.02000  4.532E-03    0   0.8099   age090_m62            0.0000     2.1595E+00    10.7318   1.9194    85.8511
 41      0.0000     0.0000E+00    0.0000E+00    5.500000E+07  0.02000  2.733E-03    0   0.7595   age110_m62            0.0000     1.8115E+00     9.5044   1.9335    86.1930
 42      0.0000     0.0000E+00    0.0000E+00    1.609000E+08  0.02000  1.369E-03    0   0.6985   age120_m62            0.0000     1.7426E+00     9.1856   1.7618    89.1911
 43      0.0000     0.0000E+00    0.0000E+00    2.861200E+08  0.02000  9.013E-04    0   0.6714   age125_m62            0.0000     1.6771E+00     8.9499   1.4954    92.5836
 44      0.0000     0.0000E+00    0.0000E+00    5.088000E+08  0.02000  5.028E-04    0   0.6449   age130_m62            0.0000     1.4156E+00     8.3616   1.0866    96.7586
 45      0.0000     0.0000E+00    0.0000E+00    9.047900E+08  0.02000  2.428E-04    0   0.6179   age135_m62            0.0000     1.1173E+00     7.7461   0.4806    97.2965
 46      0.0000     0.0000E+00    0.0000E+00    1.434000E+09  0.02000  1.263E-04    0   0.5908   age139_m62            0.0000     1.0462E+00     7.5851   0.0355    96.0394
 47      0.0000     0.0000E+00    0.0000E+00    2.500000E+09  0.02000  5.985E-05    0   0.5673   age150_m62            0.0000     1.0895E+00     7.7273  -0.3292    94.8659
 48      6.3438     1.4809E+01    1.4509E+01    4.250000E+09  0.02000  3.271E-05    0   0.5468   age158_m62            0.0000     1.2259E+00     8.0865  -0.6346    94.2875
 49      0.0000     0.0000E+00    0.0000E+00    1.000000E+10  0.02000  1.360E-05    0   0.5167   age181_m62            0.0000     1.5148E+00     8.8065  -0.9830    94.0816
 50      0.0000     0.0000E+00    0.0000E+00    1.800000E+10  0.02000  7.124E-06    0   0.5013   age213_m62            0.0000     1.9053E+00     9.3036  -1.0000    86.5653
 51      7.6867     2.2645E-02    4.0566E-02    1.000000E+06  0.05000  2.592E-02    0   0.9998   age020_m72            0.0000     1.8271E+00     9.2051   3.2143    76.5414
 52      0.0000     0.0000E+00    0.0000E+00    3.160000E+06  0.05000  4.845E-02    0   0.9577   age045_m72            0.0000     1.7655E+00     9.0380   3.0404    78.4149
 53      0.0000     0.0000E+00    0.0000E+00    5.010000E+06  0.05000  3.072E-02    0   0.9147   age055_m72            0.0000     2.0374E+00    10.1601   2.5269    82.5155
 54      0.0000     0.0000E+00    0.0000E+00    6.610000E+06  0.05000  1.455E-02    0   0.8877   age061_m72            0.0000     3.6413E+00    14.8948   1.7621    86.7094
 55      0.0000     0.0000E+00    0.0000E+00    1.000000E+07  0.05000  9.074E-03    0   0.8524   age070_m72            0.0000     2.3133E+00    10.9131   2.7028    82.3348
 56      0.0000     0.0000E+00    0.0000E+00    2.512000E+07  0.05000  4.250E-03    0   0.7902   age090_m72            0.0000     2.1327E+00    10.4947   2.3976    84.1793
 57      0.0000     0.0000E+00    0.0000E+00    4.000000E+07  0.05000  3.087E-03    0   0.7618   age104_m72            0.0000     2.1672E+00    10.6655   2.1633    85.7880
 58      0.0000     0.0000E+00    0.0000E+00    1.015200E+08  0.05000  1.700E-03    0   0.7096   age116_m72            0.0000     1.8552E+00     9.5817   1.9033    88.6774
 59      0.0000     0.0000E+00    0.0000E+00    2.861200E+08  0.05000  7.384E-04    0   0.6633   age125_m72            0.0000     1.5524E+00     8.6552   1.3488    94.6492
 60      0.0000     0.0000E+00    0.0000E+00    5.088000E+08  0.05000  3.819E-04    0   0.6372   age130_m72            0.0000     1.2153E+00     7.8486   0.8322    97.6585
 61     12.6734     5.7741E+00    6.3213E+00    9.047900E+08  0.05000  1.676E-04    0   0.6110   age135_m72            0.0000     1.0847E+00     7.6310   0.1291    96.6390
 62     33.4957     2.8943E+01    3.0463E+01    1.434000E+09  0.05000  8.837E-05    0   0.5874   age139_m72            0.0000     1.1100E+00     7.7590  -0.3365    96.5999
 63      8.0780     1.4572E+01    1.4616E+01    2.500000E+09  0.05000  4.233E-05    0   0.5598   age150_m72            0.0000     1.2873E+00     8.2650  -0.6369    95.2343
 64      0.0000     0.0000E+00    0.0000E+00    6.250000E+09  0.05000  1.435E-05    0   0.5249   age166_m72            0.0000     1.5988E+00     8.8520  -1.0000    90.8828
 65      0.0000     0.0000E+00    0.0000E+00    1.300000E+10  0.05000  6.513E-06    0   0.5036   age193_m72            0.0000     2.3344E+00    10.0761  -1.0000    81.9085
 66      0.0000     0.0000E+00    0.0000E+00    1.800000E+10  0.05000  4.527E-06    0   0.4945   age213_m72            0.0000     2.9520E+00    11.2184  -1.0000    76.3303


## Synthesis Results - Average & Chains ##

# j      x_j: min, <> & last-chain-values for 1 ...  7 chains
  1      0.0000      0.2630      0.0000      0.0000      0.0000      1.5448      0.0000      0.8394      0.0000
  2      0.0000      0.1770      0.0000      0.0000      0.0000      0.0000      0.0000      0.0000      0.0000
  3      0.0000      0.0996      0.0000      0.0000      0.0000      0.0000      0.0000      0.0000      0.0000
  4      0.0000      0.1158      0.0000      0.0000      0.0000      0.0000      0.9432      0.0000      0.0000
  5      0.0000      0.2837      0.0000      0.0000      0.0000      0.0000      0.0000      0.0000      0.0000
  6      0.0000      0.2674      0.0000      0.0000      0.0000      0.0000      0.0000      0.0000      0.0000
  7      0.0000      0.1079      0.0000      0.0000      0.0000      0.0000      0.0000      0.0000      0.6777
  8      0.0000      0.2476      0.3843      0.0000      0.2001      0.0000      0.0000      0.0000      0.0000
  9      0.0000      0.1245      0.0000      0.0441      0.0000      0.0000      0.0000      0.0000      0.0000
 10      0.0000      0.0687      0.6514      0.0000      0.9449      0.0000      0.0000      0.0000      0.0000
 11      0.0000      0.1612      0.0000      0.0000      0.0000      0.0000      0.0000      0.0000      0.0000
 12      0.0000      0.1171      0.0000      0.0000      0.0000      0.0000      0.0000      0.0000      0.0000
 13      0.0000      0.6372      0.0000      0.0000      0.0000      0.0000      0.0000      0.0000      1.0597
 14     13.6680     15.0051     16.7663     18.5405     19.1613     11.9927     20.9532     12.2450     14.4791
 15      8.3435     12.6916     12.8532     14.5105      7.7641     13.6585     11.2761     21.6651     22.9373
 16      0.0000      7.2596     11.2913      7.7373      0.0000     10.7537      6.7948      0.5200      7.3054
 17      0.0000      5.5862      9.9732      2.6866     12.7309      3.7722      4.4447      5.5868      0.6105
 18      3.7671      0.4075      0.0000      2.2057      0.5876      0.0000      0.8685      1.0814      0.0000
 19      0.0000      0.6919      0.0000      1.6220      3.7535      0.0000      1.2467      0.0000      0.8751
 20      0.0000      0.3790      1.2330      1.1659      0.0000      0.0000      0.0000      0.0000      0.0000
 21      0.0000      0.2022      0.0000      0.0000      1.8433      0.0000      0.0000      0.0000      1.5356
 22      0.0000      0.3590      0.0000      0.0000      0.0000      0.0000      0.0000      1.7534      0.0000
 23      0.0000      0.1151      0.3276      0.0000      0.0000      0.0000      0.8814      0.1853      0.0000
 24      0.0000      0.2325      0.9633      0.0000      0.0039      0.0000      0.0000      0.0000      0.0000
 25      0.0000      0.1894      0.0647      2.0669      0.1152      0.0000      0.2938      0.0000      0.0000
 26      0.0000      0.2261      0.0000      0.0000      0.0000      0.0000      0.0000      1.4867      0.0000
 27      0.0000      0.1093      0.0000      0.0000      0.0000      0.0000      0.0000      0.0000      0.0000
 28      0.0000      0.3080      0.0000      0.0000      0.0000      0.0821      0.0000      0.0000      0.0000
 29      0.0000      0.4782      0.0000      0.0000      0.0000      0.3084      0.0000      0.0000      1.0803
 30      0.0000      1.6436      0.9997      0.0000      0.0000      0.7899      0.0000      0.0000      0.0000
 31      0.0000      2.1791      0.0000      0.7613      0.3862      0.0000      0.0000      0.0000      0.0000
 32      0.0000      1.2175      1.1573      0.0000      0.0000      0.0000      0.4063      0.0000      0.2844
 33      0.0000      0.3571      0.0859      0.0000      0.0000      0.0000      0.0000      0.0000      0.0000
 34      0.0000      0.1893      0.0000      0.0000      0.0000      0.3238      1.6842      0.0000      0.0000
 35      0.0000      0.4181      0.9961      0.0000      0.0000      0.0000      0.5143      0.0000      0.8585
 36      0.0000      0.3650      1.2082      0.0000      0.6216      0.0000      1.0068      0.2841      0.0000
 37      0.0000      0.1886      0.0000      0.0000      0.0000      0.0000      0.0000      0.0000      1.0977
 38      0.0000      0.5199      1.5914      0.0000      1.6130      3.3022      2.3648      0.0000      0.4278
 39      0.0000      0.4454      0.0480      0.0000      0.0000      0.0000      0.2068      1.8332      0.0000
 40      0.0000      0.1482      0.0000      0.0000      0.0000      0.0549      1.5004      0.0000      0.0000
 41      0.0000      0.1867      0.0000      0.0000      0.0000      0.7308      0.0000      0.0000      0.0000
 42      0.0000      0.0822      0.0000      0.0000      0.0000      0.0000      0.0000      0.0000      0.0000
 43      0.0000      0.0892      0.0000      0.0000      0.0000      0.0000      0.0000      0.0000      0.0000
 44      0.0000      0.1635      0.0000      0.0000      0.0000      0.0000      1.0362      0.0000      0.0000
 45      0.0000      0.2599      0.4576      0.0000      0.0006      0.0000      0.0000      2.5615      0.0000
 46      0.0000      2.4642      0.0000      2.1896      1.4993      0.0000      1.7764      2.8588      2.7003
