###################################################################
## OUTPUT of StarlightChains_v04.for    [Cid@UFSC - 01/Apr/2007] ##
###################################################################

## Some input info
2007Q.txt                                [arq_obs]
Base.CB07.vall.4m                        [arq_base]
Masks.EmLines.NEW.gm                     [arq_masks]
StCv04.C11.config                        [arq_config]
   66                                    [N_base]
    0                                    [N_YAV_components = # of components with extra extinction!]
    0                                    [i_FitPowerLaw (1/0 = Yes/No)]
-9.99                                    [alpha_PowerLaw]
CCM                                      [red_law_option]
 1.458241                                [q_norm = A(l_norm)/A(V)]

## (Re)Sampling Parameters
 3741.00                                 [l_ini (A)]
 7218.00                                 [l_fin (A)]
    1.00                                 [dl    (A)]     (OBS: dl_cushion =    50.00 A)

## Normalization info
 4020.00                                 [l_norm (A) - for base]
 4010.00                                 [llow_norm (A) - window for f_obs]
 4060.00                                 [lupp_norm (A) - window for f_obs]
3.094898E-17                             [fobs_norm (in input units)]

## S/N
 3691.00                                 [llow_SN (A) - window for S/N]
 7268.00                                 [lupp_SN (A) - window for S/N]
   5.136                                 [S/N in S/N window]
   4.156                                 [S/N in norm. window]
  24.500                                 [S/N_err in S/N window]
  19.828                                 [S/N_err in norm. window]
  1.0000                                 [fscale_chi2]

## etc...
    -2007338                             [idum_orig]
  2324                                   [NOl_eff]
  2322                                   [Nl_eff]
     2    NSIGMA                         [Ntot_cliped & clip_method]
  1512980                                [Nglobal_steps]
   7                                     [N_chains]
  23                                     [NEX0s_base = N_base in EX0s-fits]
 0   0   1        2   2.0   2.964E+01    [Clip-Bug, RC-Crash & Burn-In warning-flags, n_censored_weights, wei_nsig_threshold & wei_limit]
    14     14.070     13.559      0.511  [idt_all, wdt_TotTime, wdt_UsrTime & wdt_SysTime (sec)]

## Synthesis Results - Best model ##

 5.54369E-01                             [chi2/Nl_eff]
     2.47595                             [adev (%)]

   105.72834                             [sum-of-x (%)]
 4.37481E-17                             [Flux_tot (units of input spectrum!)]
 1.11891E-12                             [Mini_tot (???)]
 6.03242E-13                             [Mcor_tot (???)]

-209.18                                  [v0_min  (km/s)]
 163.58                                  [vd_min  (km/s)]
 0.2162                                  [AV_min  (mag)]
 0.0000                                  [YAV_min (mag)]

# j     x_j(%)      Mini_j(%)     Mcor_j(%)     age_j(yr)     Z_j      (L/M)_j    YAV?  Mstars   component_j        a/Fe...       SSP_chi2r SSP_adev(%)   SSP_AV   SSP_x(%)
  1      0.0000     0.0000E+00    0.0000E+00    1.000000E+06  0.00400  1.094E-02    0   1.0000   age020_m42            0.0000     4.4660E+00     8.2345   3.6700    91.8003
  2      0.0000     0.0000E+00    0.0000E+00    3.160000E+06  0.00400  4.007E-02    0   0.9999   age045_m42            0.0000     3.7870E+00     7.1188   2.9631    97.2462
  3      0.0000     0.0000E+00    0.0000E+00    5.010000E+06  0.00400  2.539E-02    0   0.9488   age055_m42            0.0000     4.0481E+00     7.5936   3.2742    95.2704
  4      0.0000     0.0000E+00    0.0000E+00    6.610000E+06  0.00400  2.620E-02    0   0.9220   age061_m42            0.0000     3.7623E+00     7.1278   2.8877    97.5646
  5      0.0187     5.2364E-05    8.6073E-05    1.000000E+07  0.00400  1.322E-02    0   0.8862   age070_m42            0.0000     4.2401E+00     7.9587   2.5794   100.8678
  6      0.0000     0.0000E+00    0.0000E+00    1.445000E+07  0.00400  7.883E-03    0   0.8571   age078_m42            0.0000     4.3779E+00     8.1413   2.9060    98.3577
  7      0.0000     0.0000E+00    0.0000E+00    2.512000E+07  0.00400  5.251E-03    0   0.8174   age090_m42            0.0000     4.3893E+00     8.1181   2.4465   101.5622
  8      0.0000     0.0000E+00    0.0000E+00    4.000000E+07  0.00400  3.649E-03    0   0.7851   age104_m42            0.0000     4.0981E+00     7.7844   2.2226   102.2359
  9      0.0000     0.0000E+00    0.0000E+00    5.500000E+07  0.00400  3.098E-03    0   0.7629   age110_m42            0.0000     3.8079E+00     7.2923   2.3917   101.5380
 10      0.0000     0.0000E+00    0.0000E+00    1.015200E+08  0.00400  2.228E-03    0   0.7207   age116_m42            0.0000     3.6400E+00     7.0070   2.4227   101.2431
 11      0.0000     0.0000E+00    0.0000E+00    2.861200E+08  0.00400  1.093E-03    0   0.6648   age125_m42            0.0000     3.7043E+00     7.2372   1.8558   104.3784
 12      0.0000     0.0000E+00    0.0000E+00    5.088000E+08  0.00400  6.597E-04    0   0.6365   age130_m42            0.0000     3.1467E+00     6.5450   1.8581   104.6570
 13     19.4866     3.3800E+00    3.6350E+00    1.434000E+09  0.00400  2.132E-04    0   0.5798   age139_m42            0.0000     1.7585E+00     4.8855   0.8852   106.7776
 14      0.8392     5.2642E-01    5.2502E-01    4.250000E+09  0.00400  5.895E-05    0   0.5377   age158_m42            0.0000     9.8816E-01     3.4998   0.4508   102.4126
 15      0.0071     7.4477E-03    7.1999E-03    7.500000E+09  0.00400  3.510E-05    0   0.5212   age171_m42            0.0000     8.1962E-01     3.1561   0.2696   101.5200
 16      0.0000     0.0000E+00    0.0000E+00    1.300000E+10  0.00400  2.005E-05    0   0.5034   age193_m42            0.0000     7.8047E-01     3.0822   0.1113   100.7790
 17      2.0636     5.0041E+00    4.6102E+00    1.800000E+10  0.00400  1.525E-05    0   0.4967   age213_m42            0.0000     7.8127E-01     3.1085   0.0861   100.4067
 18      0.0000     0.0000E+00    0.0000E+00    1.000000E+06  0.00800  1.238E-02    0   1.0000   age020_m52            0.0000     4.4583E+00     8.2276   3.6671    91.9509
 19      0.6046     7.2738E-04    1.3446E-03    3.160000E+06  0.00800  3.074E-02    0   0.9966   age045_m52            0.0000     4.3794E+00     8.1023   3.5912    92.7196
 20      0.0000     0.0000E+00    0.0000E+00    5.010000E+06  0.00800  2.668E-02    0   0.9443   age055_m52            0.0000     4.0879E+00     7.7195   3.3518    94.6296
 21      0.0000     0.0000E+00    0.0000E+00    6.610000E+06  0.00800  2.136E-02    0   0.9177   age061_m52            0.0000     3.3991E+00     7.3809   2.0724   102.3373
 22      0.2685     8.1727E-04    1.3381E-03    1.000000E+07  0.00800  1.215E-02    0   0.8827   age070_m52            0.0000     4.5401E+00     8.4081   2.7530   101.0091
 23      0.0000     0.0000E+00    0.0000E+00    1.445000E+07  0.00800  8.717E-03    0   0.8552   age078_m52            0.0000     4.2521E+00     8.0147   2.8722    99.6992
 24      0.0000     0.0000E+00    0.0000E+00    2.512000E+07  0.00800  5.592E-03    0   0.8162   age090_m52            0.0000     4.3196E+00     8.0688   2.5122   102.7590
 25      0.0000     0.0000E+00    0.0000E+00    4.000000E+07  0.00800  3.896E-03    0   0.7841   age104_m52            0.0000     4.0532E+00     7.7030   2.4346   103.1169
 26      0.0000     0.0000E+00    0.0000E+00    1.015200E+08  0.00800  2.148E-03    0   0.7226   age116_m52            0.0000     3.6007E+00     7.1147   2.3866   102.2829
 27      0.0017     6.2016E-05    7.6873E-05    2.861200E+08  0.00800  9.925E-04    0   0.6683   age125_m52            0.0000     3.0059E+00     6.4452   1.9225   105.6841
 28      6.1928     7.2911E-01    8.3008E-01    9.047900E+08  0.00800  3.141E-04    0   0.6138   age135_m52            0.0000     1.6891E+00     4.6919   1.1442   109.2005
 29      0.0000     0.0000E+00    0.0000E+00    1.434000E+09  0.00800  1.719E-04    0   0.5853   age139_m52            0.0000     1.1433E+00     3.8409   0.5603   107.2643
 30      0.0000     0.0000E+00    0.0000E+00    2.500000E+09  0.00800  7.872E-05    0   0.5600   age150_m52            0.0000     6.9849E-01     2.8644   0.2990   104.0372
 31      0.0000     0.0000E+00    0.0000E+00    4.250000E+09  0.00800  4.336E-05    0   0.5426   age158_m52            0.0000     7.1941E-01     2.8979   0.2824   103.0897
 32      0.0000     0.0000E+00    0.0000E+00    6.250000E+09  0.00800  3.159E-05    0   0.5319   age166_m52            0.0000     6.6580E-01     2.7743   0.0895   102.7520
 33      0.0000     0.0000E+00    0.0000E+00    1.300000E+10  0.00800  1.361E-05    0   0.5073   age193_m52            0.0000     7.8485E-01     3.0796  -0.3685   101.6951
 34      2.3681     8.8583E+00    8.1989E+00    1.800000E+10  0.00800  9.886E-06    0   0.4990   age213_m52            0.0000     1.0504E+00     3.6808  -0.4642   100.7333
 35      0.0000     0.0000E+00    0.0000E+00    1.000000E+06  0.02000  1.544E-02    0   1.0000   age020_m62            0.0000     4.4839E+00     8.2530   3.6624    92.1985
 36      0.0000     0.0000E+00    0.0000E+00    3.160000E+06  0.02000  3.762E-02    0   0.9858   age045_m62            0.0000     4.4759E+00     8.2191   3.6017    93.0098
 37      0.0000     0.0000E+00    0.0000E+00    5.010000E+06  0.02000  3.296E-02    0   0.9342   age055_m62            0.0000     3.8545E+00     7.2764   3.2381    96.2884
 38      0.0000     0.0000E+00    0.0000E+00    8.710000E+06  0.02000  1.154E-02    0   0.8861   age067_m62            0.0000     7.5787E+00    11.6141   2.1545   106.4088
 39      0.0000     0.0000E+00    0.0000E+00    1.445000E+07  0.02000  7.663E-03    0   0.8472   age078_m62            0.0000     5.0148E+00     9.1385   2.3889   103.9836
 40      1.8482     1.5081E-02    2.2655E-02    2.512000E+07  0.02000  4.532E-03    0   0.8099   age090_m62            0.0000     5.2930E+00     9.3375   2.3821   103.7032
 41      0.0000     0.0000E+00    0.0000E+00    5.500000E+07  0.02000  2.733E-03    0   0.7595   age110_m62            0.0000     3.9404E+00     7.6564   2.4140   102.5298
 42      0.0000     0.0000E+00    0.0000E+00    1.609000E+08  0.02000  1.369E-03    0   0.6985   age120_m62            0.0000     3.4650E+00     6.9424   2.2742   104.3296
 43      0.0000     0.0000E+00    0.0000E+00    2.861200E+08  0.02000  9.013E-04    0   0.6714   age125_m62            0.0000     3.1275E+00     6.5521   2.0326   106.8832
 44      0.4528     3.3304E-02    3.9837E-02    5.088000E+08  0.02000  5.028E-04    0   0.6449   age130_m62            0.0000     2.3230E+00     5.5993   1.6763   108.7471
 45      0.0000     0.0000E+00    0.0000E+00    9.047900E+08  0.02000  2.428E-04    0   0.6179   age135_m62            0.0000     1.2337E+00     3.8799   1.0944   108.0308
 46      0.0000     0.0000E+00    0.0000E+00    1.434000E+09  0.02000  1.263E-04    0   0.5908   age139_m62            0.0000     8.1914E-01     3.1143   0.6479   106.5876
 47      0.0000     0.0000E+00    0.0000E+00    2.500000E+09  0.02000  5.985E-05    0   0.5673   age150_m62            0.0000     6.6198E-01     2.7898   0.2902   104.8300
 48     20.5573     2.3241E+01    2.3572E+01    4.250000E+09  0.02000  3.271E-05    0   0.5468   age158_m62            0.0000     7.6461E-01     3.0295  -0.0035   103.5093
 49      1.1726     3.1885E+00    3.0558E+00    1.000000E+10  0.02000  1.360E-05    0   0.5167   age181_m62            0.0000     1.3258E+00     4.2280  -0.3332   102.3848
 50      1.4228     7.3860E+00    6.8676E+00    1.800000E+10  0.02000  7.124E-06    0   0.5013   age213_m62            0.0000     1.9946E+00     5.3171  -0.5257   100.9217
 51      0.0000     0.0000E+00    0.0000E+00    1.000000E+06  0.05000  2.592E-02    0   0.9998   age020_m72            0.0000     4.5745E+00     8.3577   3.6517    92.3060
 52      0.0000     0.0000E+00    0.0000E+00    3.160000E+06  0.05000  4.845E-02    0   0.9577   age045_m72            0.0000     4.2472E+00     7.8325   3.4916    93.9420
 53      0.9714     1.1693E-03    1.9839E-03    5.010000E+06  0.05000  3.072E-02    0   0.9147   age055_m72            0.0000     4.6412E+00     8.6775   2.9984    99.1970
 54      0.0000     0.0000E+00    0.0000E+00    6.610000E+06  0.05000  1.455E-02    0   0.8877   age061_m72            0.0000     1.0865E+01    14.0802   2.2240   107.4938
 55      0.0000     0.0000E+00    0.0000E+00    1.000000E+07  0.05000  9.074E-03    0   0.8524   age070_m72            0.0000     5.0915E+00     9.1385   3.2107    98.2296
 56      0.0000     0.0000E+00    0.0000E+00    2.512000E+07  0.05000  4.250E-03    0   0.7902   age090_m72            0.0000     4.8101E+00     8.6476   2.8973   100.2383
 57      0.3749     4.4912E-03    6.3461E-03    4.000000E+07  0.05000  3.087E-03    0   0.7618   age104_m72            0.0000     4.9605E+00     8.7476   2.6675   101.9826
 58      0.0000     0.0000E+00    0.0000E+00    1.015200E+08  0.05000  1.700E-03    0   0.7096   age116_m72            0.0000     3.8800E+00     7.4307   2.4140   104.1259
 59      0.1421     7.1179E-03    8.7572E-03    2.861200E+08  0.05000  7.384E-04    0   0.6633   age125_m72            0.0000     2.6585E+00     6.0191   1.9120   107.8242
 60      2.8548     2.7644E-01    3.2672E-01    5.088000E+08  0.05000  3.819E-04    0   0.6372   age130_m72            0.0000     1.5775E+00     4.5023   1.4293   109.1186
 61      0.0008     1.8572E-04    2.1048E-04    9.047900E+08  0.05000  1.676E-04    0   0.6110   age135_m72            0.0000     8.2326E-01     3.0867   0.7450   106.7757
 62      0.0012     4.8590E-04    5.2940E-04    1.434000E+09  0.05000  8.837E-05    0   0.5874   age139_m72            0.0000     6.6154E-01     2.8365   0.2936   106.2228
 63     38.8943     3.3979E+01    3.5281E+01    2.500000E+09  0.05000  4.233E-05    0   0.5598   age150_m72            0.0000     8.9290E-01     3.3172   0.0024   104.1586
 64      5.1842     1.3360E+01    1.3007E+01    6.250000E+09  0.05000  1.435E-05    0   0.5249   age166_m72            0.0000     1.5402E+00     4.5465  -0.4238   101.7413
 65      0.0000     0.0000E+00    0.0000E+00    1.300000E+10  0.05000  6.513E-06    0   0.5036   age193_m72            0.0000     2.5439E+00     5.9906  -0.6812   101.8390
 66      0.0000     0.0000E+00    0.0000E+00    1.800000E+10  0.05000  4.527E-06    0   0.4945   age213_m72            0.0000     3.3090E+00     6.8775  -0.8262   101.0234


## Synthesis Results - Average & Chains ##

# j      x_j: min, <> & last-chain-values for 1 ...  7 chains
  1      0.0000      0.0949      0.0000      0.3065      0.4699      0.0000      0.1274      0.0000      0.0414
  2      0.0000      0.1585      0.0000      0.0000      0.0000      0.0000      0.0000      0.0000      0.0390
  3      0.0000      0.0883      0.0000      0.4342      0.0000      0.0000      0.0000      0.3273      0.0000
  4      0.0000      0.1139      0.0000      0.0000      0.1174      0.0000      0.0000      0.0000      0.0000
  5      0.0187      0.0734      0.5625      0.0000      0.0000      0.0000      1.0314      0.7200      0.0000
  6      0.0000      0.0944      0.0000      0.0000      0.0000      0.0000      0.0000      0.0000      0.0000
  7      0.0000      0.4282      0.0526      0.0000      0.9640      0.0000      0.0685      0.0000      0.5727
  8      0.0000      0.1257      0.0000      0.0000      0.0000      0.0000      0.0000      0.0000      0.0000
  9      0.0000      0.1342      0.0528      0.0000      0.0000      0.0000      0.0000      0.4447      0.0000
 10      0.0000      0.3535      0.0000      0.6451      0.0000      1.1176      1.5177      0.0000      0.2883
 11      0.0000      0.1425      0.0000      0.7785      0.0977      0.0000      0.0000      0.0000      0.0000
 12      0.0000      0.3588      0.0000      0.0000      0.4512      0.0000      0.0000      1.3804      0.0000
 13     19.4866      9.0423     12.6289      9.5873     11.7786     10.6847      9.8239     10.2061     11.5777
 14      0.8392      1.4245      1.0098      3.5357      1.3365      0.0000      1.6926      3.0761      0.0000
 15      0.0071      1.2279      0.6697      1.1403      1.3446      0.0000      2.4850      0.0000      1.1218
 16      0.0000      0.5863      0.0188      0.4081      0.0000      0.0000      1.4175      0.0000      0.0082
 17      2.0636      1.2726      0.8240      0.6604      1.8374      1.8121      0.3239      0.1210      2.2022
 18      0.0000      0.1137      0.0000      0.0000      0.3139      0.2165      0.0000      0.0000      0.0000
 19      0.6046      0.1146      0.6661      0.0000      0.0000      0.0000      0.0000      0.0571      0.0000
 20      0.0000      0.1424      0.0000      0.0000      0.0000      2.3166      0.0000      0.0000      0.0000
 21      0.0000      0.0985      0.4310      0.0000      0.0000      0.0000      0.0000      0.0000      0.0000
 22      0.2685      0.1791      0.4998      0.0000      0.0000      0.0000      0.3124      0.1374      0.0000
 23      0.0000      0.0421      0.0000      0.0000      0.2240      0.0000      0.0000      0.0000      0.0000
 24      0.0000      0.1229      0.0915      0.3874      0.0000      0.0000      0.0295      0.0000      1.3314
 25      0.0000      0.0849      0.0000      0.0000      0.0000      0.0000      0.0000      0.3311      0.0000
 26      0.0000      0.0905      0.2125      0.0000      0.0000      0.0000      0.0000      0.0000      0.0000
 27      0.0017      0.1527      0.5963      0.0000      0.0000      0.0000      0.0000      0.0000      0.0000
 28      6.1928      6.5201      7.7110      6.0420      6.4035      6.4795      6.9113      7.7388      6.7342
 29      0.0000      1.9217      0.0000      0.1855      1.8189      1.9196      0.6024      0.0000      1.5269
 30      0.0000      0.9338      0.0721      0.0000      0.0000      0.0000      0.0000      0.0000      0.3476
 31      0.0000      0.5793      0.0000      0.3926      0.0000      0.0000      0.0000      0.0000      0.0000
 32      0.0000      0.4476      0.0000      0.0000      0.0000      0.7581      0.0000      1.1579      0.0000
 33      0.0000      0.2607      0.1179      0.0000      0.3018      0.1155      0.0000      1.4666      0.5500
 34      2.3681      2.8635      2.7531      3.3962      3.4990      3.1070      3.5494      2.7176      2.1066
 35      0.0000      0.1705      0.0000      0.0000      0.0000      0.0000      0.0000      0.0946      0.0000
 36      0.0000      0.1752      0.0000      0.0000      0.9879      0.4975      0.3761      0.4994      0.3266
 37      0.0000      0.1681      0.0000      0.0331      0.0000      0.0000      0.7734      0.0000      0.5831
 38      0.0000      0.2444      0.0000      0.5019      0.5643      0.1123      0.0779      1.3952      0.3496
 39      0.0000      0.2328      0.0000      0.8824      0.0000      0.0000      0.0000      0.0000      0.3275
 40      1.8482      0.2777      0.5820      0.6161      0.0000      0.0000      1.6750      0.0000      0.0299
 41      0.0000      0.1523      0.0000      0.0652      0.0000      0.0000      0.0000      0.0000      0.0267
 42      0.0000      0.1271      0.0000      0.0000      0.0000      0.0000      0.0000      0.0000      0.0776
 43      0.0000      0.1222      0.0000      0.0851      0.0000      0.3770      0.0000      0.0000      0.0866
 44      0.4528      1.5475      2.1417      2.3691      1.4848      1.7130      0.0000      1.7723      1.8179
 45      0.0000      0.1993      0.0000      0.0000      0.0000      1.3726      0.0000      0.0000      0.0000
 46      0.0000      0.4368      0.0000      0.0000      0.8275      0.0000      0.0000      0.0000      0.0000
