###################################################################
## OUTPUT of StarlightChains_v04.for    [Cid@UFSC - 01/Apr/2007] ##
###################################################################

## Some input info
2008hv.txt                               [arq_obs]
Base.CB07.vall.4m                        [arq_base]
Masks.EmLines.NEW.gm                     [arq_masks]
StCv04.C11.config                        [arq_config]
   66                                    [N_base]
    0                                    [N_YAV_components = # of components with extra extinction!]
    0                                    [i_FitPowerLaw (1/0 = Yes/No)]
-9.99                                    [alpha_PowerLaw]
CCM                                      [red_law_option]
 1.458241                                [q_norm = A(l_norm)/A(V)]

## (Re)Sampling Parameters
 3741.00                                 [l_ini (A)]
 7218.00                                 [l_fin (A)]
    1.00                                 [dl    (A)]     (OBS: dl_cushion =    50.00 A)

## Normalization info
 4020.00                                 [l_norm (A) - for base]
 4010.00                                 [llow_norm (A) - window for f_obs]
 4060.00                                 [lupp_norm (A) - window for f_obs]
4.240353E-17                             [fobs_norm (in input units)]

## S/N
 3691.00                                 [llow_SN (A) - window for S/N]
 7268.00                                 [lupp_SN (A) - window for S/N]
   4.691                                 [S/N in S/N window]
   4.081                                 [S/N in norm. window]
   4.186                                 [S/N_err in S/N window]
   3.641                                 [S/N_err in norm. window]
  1.0000                                 [fscale_chi2]

## etc...
    -2007347                             [idum_orig]
  2373                                   [NOl_eff]
  2366                                   [Nl_eff]
     7    NSIGMA                         [Ntot_cliped & clip_method]
   684530                                [Nglobal_steps]
   7                                     [N_chains]
  14                                     [NEX0s_base = N_base in EX0s-fits]
 0   0   1       56   2.0   7.994E+00    [Clip-Bug, RC-Crash & Burn-In warning-flags, n_censored_weights, wei_nsig_threshold & wei_limit]
    10     10.315      9.810      0.505  [idt_all, wdt_TotTime, wdt_UsrTime & wdt_SysTime (sec)]

## Synthesis Results - Best model ##

 3.07829E-01                             [chi2/Nl_eff]
    12.07036                             [adev (%)]

   101.02129                             [sum-of-x (%)]
 3.03340E-17                             [Flux_tot (units of input spectrum!)]
 2.00279E-12                             [Mini_tot (???)]
 1.01300E-12                             [Mcor_tot (???)]

 146.30                                  [v0_min  (km/s)]
 205.66                                  [vd_min  (km/s)]
-0.2570                                  [AV_min  (mag)]
 0.0000                                  [YAV_min (mag)]

# j     x_j(%)      Mini_j(%)     Mcor_j(%)     age_j(yr)     Z_j      (L/M)_j    YAV?  Mstars   component_j        a/Fe...       SSP_chi2r SSP_adev(%)   SSP_AV   SSP_x(%)
  1      0.0000     0.0000E+00    0.0000E+00    1.000000E+06  0.00400  1.094E-02    0   1.0000   age020_m42            0.0000     3.8206E-01    16.5240   3.4354    93.2852
  2      0.0000     0.0000E+00    0.0000E+00    3.160000E+06  0.00400  4.007E-02    0   0.9999   age045_m42            0.0000     3.8056E-01    15.7696   2.7265    99.0497
  3      0.0000     0.0000E+00    0.0000E+00    5.010000E+06  0.00400  2.539E-02    0   0.9488   age055_m42            0.0000     3.8054E-01    16.1605   3.0356    97.0650
  4      0.0000     0.0000E+00    0.0000E+00    6.610000E+06  0.00400  2.620E-02    0   0.9220   age061_m42            0.0000     3.8113E-01    15.8458   2.6452    99.6532
  5      0.0000     0.0000E+00    0.0000E+00    1.000000E+07  0.00400  1.322E-02    0   0.8862   age070_m42            0.0000     4.0018E-01    16.8530   2.3076   104.5536
  6      0.0000     0.0000E+00    0.0000E+00    1.445000E+07  0.00400  7.883E-03    0   0.8571   age078_m42            0.0000     3.9774E-01    16.9800   2.6356   101.8198
  7      0.0000     0.0000E+00    0.0000E+00    2.512000E+07  0.00400  5.251E-03    0   0.8174   age090_m42            0.0000     4.0811E-01    17.0570   2.1669   105.6950
  8      0.0000     0.0000E+00    0.0000E+00    4.000000E+07  0.00400  3.649E-03    0   0.7851   age104_m42            0.0000     4.0300E-01    16.7521   1.9476   106.1931
  9      0.0000     0.0000E+00    0.0000E+00    5.500000E+07  0.00400  3.098E-03    0   0.7629   age110_m42            0.0000     3.9309E-01    16.1871   2.1294   104.7835
 10      0.0000     0.0000E+00    0.0000E+00    1.015200E+08  0.00400  2.228E-03    0   0.7207   age116_m42            0.0000     3.8784E-01    15.8425   2.1678   104.0895
 11      0.0000     0.0000E+00    0.0000E+00    2.861200E+08  0.00400  1.093E-03    0   0.6648   age125_m42            0.0000     3.9929E-01    15.9234   1.5868   107.9503
 12      0.0000     0.0000E+00    0.0000E+00    5.088000E+08  0.00400  6.597E-04    0   0.6365   age130_m42            0.0000     3.8147E-01    15.3132   1.6032   107.5056
 13      0.0000     0.0000E+00    0.0000E+00    1.434000E+09  0.00400  2.132E-04    0   0.5798   age139_m42            0.0000     3.5342E-01    14.2775   0.6408   109.2646
 14      0.0650     1.6532E-02    1.7574E-02    4.250000E+09  0.00400  5.895E-05    0   0.5377   age158_m42            0.0000     3.2532E-01    13.1766   0.2320   103.5276
 15      0.0000     0.0000E+00    0.0000E+00    7.500000E+09  0.00400  3.510E-05    0   0.5212   age171_m42            0.0000     3.1859E-01    12.7779   0.0589   102.1877
 16     71.3756     5.3372E+01    5.3120E+01    1.300000E+10  0.00400  2.005E-05    0   0.5034   age193_m42            0.0000     3.1177E-01    12.4397  -0.0924   101.0537
 17      0.0000     0.0000E+00    0.0000E+00    1.800000E+10  0.00400  1.525E-05    0   0.4967   age213_m42            0.0000     3.1338E-01    12.5059  -0.1196   100.7861
 18      0.0000     0.0000E+00    0.0000E+00    1.000000E+06  0.00800  1.238E-02    0   1.0000   age020_m52            0.0000     3.8195E-01    16.5159   3.4331    93.4069
 19      0.0639     3.1177E-05    6.1431E-05    3.160000E+06  0.00800  3.074E-02    0   0.9966   age045_m52            0.0000     3.8150E-01    16.4588   3.3577    94.1834
 20      0.0000     0.0000E+00    0.0000E+00    5.010000E+06  0.00800  2.668E-02    0   0.9443   age055_m52            0.0000     3.8025E-01    16.3013   3.1113    96.4877
 21      0.0000     0.0000E+00    0.0000E+00    6.610000E+06  0.00800  2.136E-02    0   0.9177   age061_m52            0.0000     3.7868E-01    16.3558   1.8124   105.5109
 22      0.0000     0.0000E+00    0.0000E+00    1.000000E+07  0.00800  1.215E-02    0   0.8827   age070_m52            0.0000     4.0889E-01    17.3179   2.4693   105.2053
 23      0.0000     0.0000E+00    0.0000E+00    1.445000E+07  0.00800  8.717E-03    0   0.8552   age078_m52            0.0000     3.9683E-01    16.9240   2.5986   103.3498
 24      0.0000     0.0000E+00    0.0000E+00    2.512000E+07  0.00800  5.592E-03    0   0.8162   age090_m52            0.0000     4.1013E-01    17.0858   2.2277   107.1207
 25      0.0000     0.0000E+00    0.0000E+00    4.000000E+07  0.00800  3.896E-03    0   0.7841   age104_m52            0.0000     4.0547E-01    16.7046   2.1559   107.1791
 26      0.0000     0.0000E+00    0.0000E+00    1.015200E+08  0.00800  2.148E-03    0   0.7226   age116_m52            0.0000     3.9321E-01    16.0068   2.1226   105.5823
 27      0.0000     0.0000E+00    0.0000E+00    2.861200E+08  0.00800  9.925E-04    0   0.6683   age125_m52            0.0000     3.8355E-01    15.3452   1.6690   108.4607
 28      0.0000     0.0000E+00    0.0000E+00    9.047900E+08  0.00800  3.141E-04    0   0.6138   age135_m52            0.0000     3.5561E-01    13.8460   0.9070   111.1885
 29      0.0000     0.0000E+00    0.0000E+00    1.434000E+09  0.00800  1.719E-04    0   0.5853   age139_m52            0.0000     3.3797E-01    13.5011   0.3238   109.1566
 30      0.0000     0.0000E+00    0.0000E+00    2.500000E+09  0.00800  7.872E-05    0   0.5600   age150_m52            0.0000     3.1792E-01    12.6921   0.0914   104.4858
 31      0.0083     2.8639E-03    3.0723E-03    4.250000E+09  0.00800  4.336E-05    0   0.5426   age158_m52            0.0000     3.1761E-01    12.5860   0.0783   103.4062
 32      0.0485     2.3030E-02    2.4218E-02    6.250000E+09  0.00800  3.159E-05    0   0.5319   age166_m52            0.0000     3.1220E-01    12.1745  -0.1022   102.4349
 33      0.0000     0.0000E+00    0.0000E+00    1.300000E+10  0.00800  1.361E-05    0   0.5073   age193_m52            0.0000     3.1056E-01    11.8263  -0.5460   100.7088
 34      0.0000     0.0000E+00    0.0000E+00    1.800000E+10  0.00800  9.886E-06    0   0.4990   age213_m52            0.0000     3.1210E-01    11.7220  -0.6300    99.1779
 35      0.0000     0.0000E+00    0.0000E+00    1.000000E+06  0.02000  1.544E-02    0   1.0000   age020_m62            0.0000     3.8183E-01    16.5410   3.4272    93.7003
 36      0.0000     0.0000E+00    0.0000E+00    3.160000E+06  0.02000  3.762E-02    0   0.9858   age045_m62            0.0000     3.8175E-01    16.5258   3.3673    94.4865
 37      0.0000     0.0000E+00    0.0000E+00    5.010000E+06  0.02000  3.296E-02    0   0.9342   age055_m62            0.0000     3.7853E-01    15.9260   3.0042    97.8744
 38      0.0000     0.0000E+00    0.0000E+00    8.710000E+06  0.02000  1.154E-02    0   0.8861   age067_m62            0.0000     5.1275E-01    20.4894   1.8124   114.0587
 39      0.0000     0.0000E+00    0.0000E+00    1.445000E+07  0.02000  7.663E-03    0   0.8472   age078_m62            0.0000     4.3134E-01    18.0627   2.0820   109.4534
 40      0.0000     0.0000E+00    0.0000E+00    2.512000E+07  0.02000  4.532E-03    0   0.8099   age090_m62            0.0000     4.4226E-01    18.2585   2.0696   109.4408
 41      0.0000     0.0000E+00    0.0000E+00    5.500000E+07  0.02000  2.733E-03    0   0.7595   age110_m62            0.0000     4.0108E-01    16.7106   2.1359   106.5351
 42      0.0000     0.0000E+00    0.0000E+00    1.609000E+08  0.02000  1.369E-03    0   0.6985   age120_m62            0.0000     3.9077E-01    15.8337   2.0148   107.4491
 43      0.0000     0.0000E+00    0.0000E+00    2.861200E+08  0.02000  9.013E-04    0   0.6714   age125_m62            0.0000     3.8434E-01    15.4036   1.7836   109.5519
 44      0.0000     0.0000E+00    0.0000E+00    5.088000E+08  0.02000  5.028E-04    0   0.6449   age130_m62            0.0000     3.6297E-01    14.3847   1.4465   110.4267
 45      0.0000     0.0000E+00    0.0000E+00    9.047900E+08  0.02000  2.428E-04    0   0.6179   age135_m62            0.0000     3.4055E-01    13.3665   0.8756   109.1125
 46      0.0000     0.0000E+00    0.0000E+00    1.434000E+09  0.02000  1.263E-04    0   0.5908   age139_m62            0.0000     3.2858E-01    12.8948   0.4375   107.2470
 47      0.0000     0.0000E+00    0.0000E+00    2.500000E+09  0.02000  5.985E-05    0   0.5673   age150_m62            0.0000     3.1670E-01    12.3288   0.1008   104.4173
 48     11.1856     5.1269E+00    5.5426E+00    4.250000E+09  0.02000  3.271E-05    0   0.5468   age158_m62            0.0000     3.1207E-01    11.8910  -0.1728   102.1273
 49      0.5074     5.5935E-01    5.7141E-01    1.000000E+10  0.02000  1.360E-05    0   0.5167   age181_m62            0.0000     3.1995E-01    11.7790  -0.4877   100.2966
 50      0.0000     0.0000E+00    0.0000E+00    1.800000E+10  0.02000  7.124E-06    0   0.5013   age213_m62            0.0000     3.3038E-01    11.8859  -0.6664    98.1898
 51      0.0000     0.0000E+00    0.0000E+00    1.000000E+06  0.05000  2.592E-02    0   0.9998   age020_m72            0.0000     3.8424E-01    16.6468   3.4153    93.8649
 52      0.0000     0.0000E+00    0.0000E+00    3.160000E+06  0.05000  4.845E-02    0   0.9577   age045_m72            0.0000     3.8147E-01    16.2600   3.2586    95.4091
 53      0.0000     0.0000E+00    0.0000E+00    5.010000E+06  0.05000  3.072E-02    0   0.9147   age055_m72            0.0000     4.0780E-01    17.4605   2.7082   103.3385
 54      0.0000     0.0000E+00    0.0000E+00    6.610000E+06  0.05000  1.455E-02    0   0.8877   age061_m72            0.0000     6.3980E-01    22.6718   1.8307   117.2902
 55      0.0000     0.0000E+00    0.0000E+00    1.000000E+07  0.05000  9.074E-03    0   0.8524   age070_m72            0.0000     4.3430E-01    17.8051   2.9046   102.7622
 56      0.0000     0.0000E+00    0.0000E+00    2.512000E+07  0.05000  4.250E-03    0   0.7902   age090_m72            0.0000     4.2702E-01    17.4491   2.5949   104.9509
 57      0.0000     0.0000E+00    0.0000E+00    4.000000E+07  0.05000  3.087E-03    0   0.7618   age104_m72            0.0000     4.3730E-01    17.5115   2.3606   107.0315
 58      0.0000     0.0000E+00    0.0000E+00    1.015200E+08  0.05000  1.700E-03    0   0.7096   age116_m72            0.0000     4.0631E-01    16.2730   2.1413   107.8185
 59      0.0000     0.0000E+00    0.0000E+00    2.861200E+08  0.05000  7.384E-04    0   0.6633   age125_m72            0.0000     3.7581E-01    14.9411   1.6735   109.9283
 60      0.0000     0.0000E+00    0.0000E+00    5.088000E+08  0.05000  3.819E-04    0   0.6372   age130_m72            0.0000     3.5131E-01    13.8617   1.2108   110.2302
 61      0.0000     0.0000E+00    0.0000E+00    9.047900E+08  0.05000  1.676E-04    0   0.6110   age135_m72            0.0000     3.3012E-01    12.7178   0.5577   106.2880
 62      0.0000     0.0000E+00    0.0000E+00    1.434000E+09  0.05000  8.837E-05    0   0.5874   age139_m72            0.0000     3.2343E-01    12.3247   0.1049   105.7245
 63      0.0000     0.0000E+00    0.0000E+00    2.500000E+09  0.05000  4.233E-05    0   0.5598   age150_m72            0.0000     3.1627E-01    11.8721  -0.1629   102.5160
 64      0.0000     0.0000E+00    0.0000E+00    6.250000E+09  0.05000  1.435E-05    0   0.5249   age166_m72            0.0000     3.2619E-01    11.8847  -0.5704    99.2472
 65     17.7670     4.0899E+01    4.0721E+01    1.300000E+10  0.05000  6.513E-06    0   0.5036   age193_m72            0.0000     3.4097E-01    12.0591  -0.8139    98.6571
 66      0.0000     0.0000E+00    0.0000E+00    1.800000E+10  0.05000  4.527E-06    0   0.4945   age213_m72            0.0000     3.5684E-01    12.3081  -0.9493    97.3940


## Synthesis Results - Average & Chains ##

# j      x_j: min, <> & last-chain-values for 1 ...  7 chains
  1      0.0000      0.1182      0.0000      0.0000      0.0000      0.0000      0.0000      0.0000      0.0000
  2      0.0000      0.2955      0.0000      0.0000      0.0000      0.0000      0.0730      0.5507      0.0000
  3      0.0000      0.0746      0.0000      0.0000      0.0000      0.0000      0.0000      0.0000      0.0000
  4      0.0000      0.1607      0.0000      0.0000      0.0000      0.0000      0.2651      0.0000      0.0000
  5      0.0000      0.2490      0.0000      0.0000      0.0000      0.0000      1.6799      0.0000      0.0000
  6      0.0000      0.0846      0.9538      0.0000      0.0000      0.0000      0.0000      0.0000      0.0000
  7      0.0000      0.1720      0.0000      0.0000      1.8798      0.0000      0.0000      0.0000      0.0000
  8      0.0000      0.1304      0.0000      0.0000      0.0000      0.0000      1.6015      0.0000      2.4593
  9      0.0000      0.0414      0.0000      0.0000      0.0000      0.0000      0.0000      0.0000      0.0000
 10      0.0000      0.1558      0.0000      0.0000      0.0000      2.2780      0.0000      0.0000      0.0000
 11      0.0000      0.2557      0.0000      0.0000      0.0000      0.0000      0.0000      0.0000      0.0000
 12      0.0000      0.2075      0.0000      0.0000      0.0000      0.0000      0.0000      0.0000      0.0000
 13      0.0000      0.9270      0.0000      0.0000      0.0000      0.0000      4.0469      0.0000      0.0000
 14      0.0650      5.6577      0.0000      4.3364      0.4168      0.0000      6.2102      6.6175      0.0000
 15      0.0000      7.2322      2.7941      2.5452      0.0000      9.4063      0.1090      7.2384      0.0000
 16     71.3756     12.0120     19.3222     26.3902     26.7060     15.0424     18.1498     16.6129      9.5239
 17      0.0000      4.9315      9.6996      0.0000      3.8793     11.1615      0.0000      0.0000      5.2197
 18      0.0000      0.0586      0.0000      0.0000      0.0000      0.0000      0.0000      0.0000      0.2688
 19      0.0639      0.0547      0.0000      0.8802      0.0000      0.0000      0.0000      0.0000      0.0000
 20      0.0000      0.1215      0.0000      0.0000      0.0000      0.0000      0.4292      0.0000      0.0000
 21      0.0000      0.1094      0.0000      0.0000      0.1360      0.0000      0.0000      0.0000      0.0000
 22      0.0000      0.0857      0.0000      0.0000      0.0000      0.0000      0.0000      0.0000      0.0000
 23      0.0000      0.1684      0.0000      0.0000      0.0000      0.0308      0.3268      0.3052      0.0000
 24      0.0000      0.1496      0.0000      0.0000      0.0000      1.4825      0.0000      0.0000      0.0000
 25      0.0000      0.1424      0.0000      0.4609      0.0000      0.0000      0.0000      0.0000      0.2864
 26      0.0000      0.0273      1.3515      0.0000      0.0000      0.0000      0.0000      0.0000      0.0000
 27      0.0000      0.1700      2.5548      0.0296      0.0000      0.0000      0.0000      0.0000      0.0000
 28      0.0000      0.5863      0.0000      0.0000      0.6250      0.0000      0.0000      0.0000     10.9363
 29      0.0000      1.5581      0.0000      0.0000      0.0000      0.0000      0.0000      0.0000      2.8230
 30      0.0000      8.2090      5.1640      1.1096      5.1371      0.0000     11.0127     16.1860      2.0809
 31      0.0083      9.2504      0.0000     12.7698     28.7741      6.4064      0.0000      5.9583      0.0000
 32      0.0485      6.8913      0.9590     10.6758      0.0000      0.2883      8.7596      0.0000      0.0000
 33      0.0000      1.3505      0.0000      3.6399      0.8876      0.0000      1.4618      0.0000      5.2711
 34      0.0000      0.5233      5.0728      0.0000      0.0000      1.2518      0.0000      0.0000      0.0000
 35      0.0000      0.0599      0.0000      0.5515      0.0000      0.0000      0.0000      0.0000      0.0000
 36      0.0000      0.1392      0.0000      0.0000      0.0000      0.0000      0.0000      0.0000      0.3772
 37      0.0000      0.2898      0.0000      0.0000      0.0000      0.0000      0.0000      1.7441      0.0000
 38      0.0000      0.2894      0.8121      0.0000      0.0000      0.0000      0.0000      0.0000      0.0000
 39      0.0000      0.0632      0.0000      0.0000      0.0000      0.0000      0.0000      0.0000      0.0000
 40      0.0000      0.1355      0.0000      0.0000      0.0000      0.0000      0.0000      2.1287      0.0000
 41      0.0000      0.0521      0.0000      0.0000      0.0000      0.0000      0.0000      0.0000      0.0000
 42      0.0000      0.1162      1.7113      0.0000      0.0000      0.0000      0.4562      0.0000      0.0000
 43      0.0000      0.3003      2.2719      0.0000      0.0000      3.3286      0.0000      0.0000      0.0000
 44      0.0000      0.1127      1.1967      0.0000      0.8779      0.0000      0.0000      0.0000      1.0063
 45      0.0000      0.7646      0.0000      0.0000      0.0000      2.8225      0.0000      0.0000      1.7360
 46      0.0000      0.9731      0.0000      1.4865      0.2144      0.0000      0.0000      4.7202      0.0000
