###################################################################
## OUTPUT of StarlightChains_v04.for    [Cid@UFSC - 01/Apr/2007] ##
###################################################################

## Some input info
2008ij.txt                               [arq_obs]
Base.CB07.vall.4m                        [arq_base]
Masks.EmLines.NEW.gm                     [arq_masks]
StCv04.C11.config                        [arq_config]
   66                                    [N_base]
    0                                    [N_YAV_components = # of components with extra extinction!]
    0                                    [i_FitPowerLaw (1/0 = Yes/No)]
-9.99                                    [alpha_PowerLaw]
CCM                                      [red_law_option]
 1.458241                                [q_norm = A(l_norm)/A(V)]

## (Re)Sampling Parameters
 3741.00                                 [l_ini (A)]
 7218.00                                 [l_fin (A)]
    1.00                                 [dl    (A)]     (OBS: dl_cushion =    50.00 A)

## Normalization info
 4020.00                                 [l_norm (A) - for base]
 4010.00                                 [llow_norm (A) - window for f_obs]
 4060.00                                 [lupp_norm (A) - window for f_obs]
4.281438E-16                             [fobs_norm (in input units)]

## S/N
 3691.00                                 [llow_SN (A) - window for S/N]
 7268.00                                 [lupp_SN (A) - window for S/N]
  13.454                                 [S/N in S/N window]
  15.046                                 [S/N in norm. window]
  10.000                                 [S/N_err in S/N window]
  11.183                                 [S/N_err in norm. window]
  1.0000                                 [fscale_chi2]

## etc...
    -2007349                             [idum_orig]
  2254                                   [NOl_eff]
  2248                                   [Nl_eff]
     6    NSIGMA                         [Ntot_cliped & clip_method]
  1474620                                [Nglobal_steps]
   7                                     [N_chains]
  21                                     [NEX0s_base = N_base in EX0s-fits]
 0   0   1       70   2.0   1.282E+01    [Clip-Bug, RC-Crash & Burn-In warning-flags, n_censored_weights, wei_nsig_threshold & wei_limit]
    17     16.662     16.154      0.508  [idt_all, wdt_TotTime, wdt_UsrTime & wdt_SysTime (sec)]

## Synthesis Results - Best model ##

 3.32305E-01                             [chi2/Nl_eff]
     4.28412                             [adev (%)]

    95.82074                             [sum-of-x (%)]
 1.65832E-15                             [Flux_tot (units of input spectrum!)]
 9.74746E-12                             [Mini_tot (???)]
 5.17197E-12                             [Mcor_tot (???)]

   0.00                                  [v0_min  (km/s)]
 150.00                                  [vd_min  (km/s)]
 1.0400                                  [AV_min  (mag)]
 0.0000                                  [YAV_min (mag)]

# j     x_j(%)      Mini_j(%)     Mcor_j(%)     age_j(yr)     Z_j      (L/M)_j    YAV?  Mstars   component_j        a/Fe...       SSP_chi2r SSP_adev(%)   SSP_AV   SSP_x(%)
  1      0.0000     0.0000E+00    0.0000E+00    1.000000E+06  0.00400  1.094E-02    0   1.0000   age020_m42            0.0000     6.6719E-01     6.5964   2.9535    84.4005
  2      0.0000     0.0000E+00    0.0000E+00    3.160000E+06  0.00400  4.007E-02    0   0.9999   age045_m42            0.0000     5.9356E-01     5.9438   2.2720    88.4202
  3      0.0000     0.0000E+00    0.0000E+00    5.010000E+06  0.00400  2.539E-02    0   0.9488   age055_m42            0.0000     6.0049E-01     6.1141   2.5735    86.9838
  4      0.0000     0.0000E+00    0.0000E+00    6.610000E+06  0.00400  2.620E-02    0   0.9220   age061_m42            0.0000     5.6411E-01     5.7807   2.2003    88.5581
  5      0.0000     0.0000E+00    0.0000E+00    1.000000E+07  0.00400  1.322E-02    0   0.8862   age070_m42            0.0000     4.2487E-01     4.9164   1.9002    91.2959
  6      0.0000     0.0000E+00    0.0000E+00    1.445000E+07  0.00400  7.883E-03    0   0.8571   age078_m42            0.0000     4.5517E-01     5.1811   2.2181    89.3324
  7      0.0000     0.0000E+00    0.0000E+00    2.512000E+07  0.00400  5.251E-03    0   0.8174   age090_m42            0.0000     4.0534E-01     4.7408   1.7700    91.8329
  8      0.0000     0.0000E+00    0.0000E+00    4.000000E+07  0.00400  3.649E-03    0   0.7851   age104_m42            0.0000     4.1132E-01     4.7405   1.5493    92.3116
  9      0.0000     0.0000E+00    0.0000E+00    5.500000E+07  0.00400  3.098E-03    0   0.7629   age110_m42            0.0000     4.6697E-01     5.0438   1.7192    91.5821
 10      0.0000     0.0000E+00    0.0000E+00    1.015200E+08  0.00400  2.228E-03    0   0.7207   age116_m42            0.0000     5.0247E-01     5.1937   1.7517    91.2378
 11      0.0000     0.0000E+00    0.0000E+00    2.861200E+08  0.00400  1.093E-03    0   0.6648   age125_m42            0.0000     4.9229E-01     5.0339   1.1853    93.9269
 12      0.0000     0.0000E+00    0.0000E+00    5.088000E+08  0.00400  6.597E-04    0   0.6365   age130_m42            0.0000     5.4227E-01     5.2188   1.1893    94.0928
 13      0.0000     0.0000E+00    0.0000E+00    1.434000E+09  0.00400  2.132E-04    0   0.5798   age139_m42            0.0000     5.8550E-01     5.2928   0.2252    95.7324
 14      9.0094     2.7135E+01    2.7498E+01    4.250000E+09  0.00400  5.895E-05    0   0.5377   age158_m42            0.0000     8.1455E-01     6.3683  -0.2248    92.4176
 15      5.0656     2.5624E+01    2.5170E+01    7.500000E+09  0.00400  3.510E-05    0   0.5212   age171_m42            0.0000     9.5631E-01     6.9308  -0.4074    91.5827
 16      0.0000     0.0000E+00    0.0000E+00    1.300000E+10  0.00400  2.005E-05    0   0.5034   age193_m42            0.0000     1.1035E+00     7.4737  -0.5693    90.9486
 17      0.0000     0.0000E+00    0.0000E+00    1.800000E+10  0.00400  1.525E-05    0   0.4967   age213_m42            0.0000     1.0769E+00     7.3798  -0.5953    90.6825
 18      2.3681     3.3963E-02    6.4008E-02    1.000000E+06  0.00800  1.238E-02    0   1.0000   age020_m52            0.0000     6.6740E-01     6.6014   2.9498    84.5674
 19      2.6712     1.5429E-02    2.8979E-02    3.160000E+06  0.00800  3.074E-02    0   0.9966   age045_m52            0.0000     6.5863E-01     6.5439   2.8772    85.1647
 20      0.0000     0.0000E+00    0.0000E+00    5.010000E+06  0.00800  2.668E-02    0   0.9443   age055_m52            0.0000     5.9936E-01     6.1590   2.6489    86.4888
 21     14.2103     1.1812E-01    2.0429E-01    6.610000E+06  0.00800  2.136E-02    0   0.9177   age061_m52            0.0000     4.0629E-01     4.8871   1.3867    92.9373
 22      0.0000     0.0000E+00    0.0000E+00    1.000000E+07  0.00800  1.215E-02    0   0.8827   age070_m52            0.0000     4.0927E-01     4.8430   2.0687    91.5852
 23      0.0000     0.0000E+00    0.0000E+00    1.445000E+07  0.00800  8.717E-03    0   0.8552   age078_m52            0.0000     4.3729E-01     5.0479   2.1856    90.4928
 24      0.0006     2.0638E-05    3.1746E-05    2.512000E+07  0.00800  5.592E-03    0   0.8162   age090_m52            0.0000     4.0355E-01     4.6967   1.8367    92.8344
 25      0.0000     0.0000E+00    0.0000E+00    4.000000E+07  0.00800  3.896E-03    0   0.7841   age104_m52            0.0000     4.2774E-01     4.8205   1.7604    93.0451
 26      0.0000     0.0000E+00    0.0000E+00    1.015200E+08  0.00800  2.148E-03    0   0.7226   age116_m52            0.0000     4.6926E-01     5.0331   1.7138    92.2299
 27      0.0000     0.0000E+00    0.0000E+00    2.861200E+08  0.00800  9.925E-04    0   0.6683   age125_m52            0.0000     5.3493E-01     5.1524   1.2574    94.8541
 28      0.0011     6.4240E-04    7.4314E-04    9.047900E+08  0.00800  3.141E-04    0   0.6138   age135_m52            0.0000     7.3757E-01     5.8745   0.4804    97.8995
 29      0.0000     0.0000E+00    0.0000E+00    1.434000E+09  0.00800  1.719E-04    0   0.5853   age139_m52            0.0000     7.8339E-01     6.2006  -0.1100    96.3967
 30      0.0000     0.0000E+00    0.0000E+00    2.500000E+09  0.00800  7.872E-05    0   0.5600   age150_m52            0.0000     1.0011E+00     7.1482  -0.3753    93.6245
 31      0.0000     0.0000E+00    0.0000E+00    4.250000E+09  0.00800  4.336E-05    0   0.5426   age158_m52            0.0000     1.0490E+00     7.2734  -0.3925    92.8212
 32      0.0000     0.0000E+00    0.0000E+00    6.250000E+09  0.00800  3.159E-05    0   0.5319   age166_m52            0.0000     1.2407E+00     7.9167  -0.5836    92.3674
 33      2.0785     2.7115E+01    2.5924E+01    1.300000E+10  0.00800  1.361E-05    0   0.5073   age193_m52            0.0000     1.5187E+00     8.6401  -1.0000    89.9239
 34      0.0000     0.0000E+00    0.0000E+00    1.800000E+10  0.00800  9.886E-06    0   0.4990   age213_m52            0.0000     1.7838E+00     9.0563  -1.0000    85.8133
 35      2.3738     2.7298E-02    5.1447E-02    1.000000E+06  0.02000  1.544E-02    0   1.0000   age020_m62            0.0000     6.6873E-01     6.6129   2.9439    84.8388
 36     10.7620     5.0792E-02    9.4366E-02    3.160000E+06  0.02000  3.762E-02    0   0.9858   age045_m62            0.0000     6.6891E-01     6.6126   2.8840    85.5408
 37      0.0000     0.0000E+00    0.0000E+00    5.010000E+06  0.02000  3.296E-02    0   0.9342   age055_m62            0.0000     6.0716E-01     6.1455   2.5433    87.6621
 38     33.5419     5.1606E-01    8.6182E-01    8.710000E+06  0.02000  1.154E-02    0   0.8861   age067_m62            0.0000     4.1812E-01     4.7312   1.4694    96.6313
 39      0.0000     0.0000E+00    0.0000E+00    1.445000E+07  0.02000  7.663E-03    0   0.8472   age078_m62            0.0000     3.8649E-01     4.6826   1.7028    94.3137
 40      0.0000     0.0000E+00    0.0000E+00    2.512000E+07  0.02000  4.532E-03    0   0.8099   age090_m62            0.0000     4.0279E-01     4.7245   1.7000    93.8639
 41      0.0000     0.0000E+00    0.0000E+00    5.500000E+07  0.02000  2.733E-03    0   0.7595   age110_m62            0.0000     4.1932E-01     4.7912   1.7390    92.5605
 42      0.0000     0.0000E+00    0.0000E+00    1.609000E+08  0.02000  1.369E-03    0   0.6985   age120_m62            0.0000     4.9167E-01     5.0037   1.6083    93.7494
 43      0.0000     0.0000E+00    0.0000E+00    2.861200E+08  0.02000  9.013E-04    0   0.6714   age125_m62            0.0000     5.4409E-01     5.0953   1.3748    95.6885
 44      0.0000     0.0000E+00    0.0000E+00    5.088000E+08  0.02000  5.028E-04    0   0.6449   age130_m62            0.0000     7.0071E-01     5.7907   1.0163    97.3758
 45      0.0000     0.0000E+00    0.0000E+00    9.047900E+08  0.02000  2.428E-04    0   0.6179   age135_m62            0.0000     8.4007E-01     6.3825   0.4279    96.9648
 46      0.0000     0.0000E+00    0.0000E+00    1.434000E+09  0.02000  1.263E-04    0   0.5908   age139_m62            0.0000     9.6709E-01     6.8885  -0.0220    95.8010
 47      0.8177     2.4256E+00    2.5934E+00    2.500000E+09  0.02000  5.985E-05    0   0.5673   age150_m62            0.0000     1.2084E+00     7.8511  -0.3827    94.2560
 48      3.0972     1.6812E+01    1.7325E+01    4.250000E+09  0.02000  3.271E-05    0   0.5468   age158_m62            0.0000     1.5023E+00     8.8469  -0.6726    92.8239
 49      0.0000     0.0000E+00    0.0000E+00    1.000000E+10  0.02000  1.360E-05    0   0.5167   age181_m62            0.0000     1.9000E+00     9.9308  -0.9969    91.4755
 50      0.0000     0.0000E+00    0.0000E+00    1.800000E+10  0.02000  7.124E-06    0   0.5013   age213_m62            0.0000     2.3155E+00    10.3049  -1.0000    83.7857
 51      9.8210     6.7273E-02    1.2676E-01    1.000000E+06  0.05000  2.592E-02    0   0.9998   age020_m72            0.0000     6.6840E-01     6.6224   2.9306    85.0570
 52      0.0000     0.0000E+00    0.0000E+00    3.160000E+06  0.05000  4.845E-02    0   0.9577   age045_m72            0.0000     6.6223E-01     6.5414   2.7835    86.0288
 53      0.0000     0.0000E+00    0.0000E+00    5.010000E+06  0.05000  3.072E-02    0   0.9147   age055_m72            0.0000     4.7938E-01     5.4275   2.2934    90.5448
 54      0.0000     0.0000E+00    0.0000E+00    6.610000E+06  0.05000  1.455E-02    0   0.8877   age061_m72            0.0000     7.5548E-01     6.3857   1.5165    97.9872
 55      0.0000     0.0000E+00    0.0000E+00    1.000000E+07  0.05000  9.074E-03    0   0.8524   age070_m72            0.0000     5.8088E-01     6.0144   2.4944    89.8484
 56      0.0000     0.0000E+00    0.0000E+00    2.512000E+07  0.05000  4.250E-03    0   0.7902   age090_m72            0.0000     5.1102E-01     5.4970   2.2017    90.9982
 57      0.0000     0.0000E+00    0.0000E+00    4.000000E+07  0.05000  3.087E-03    0   0.7618   age104_m72            0.0000     5.0580E-01     5.3747   1.9787    92.3159
 58      0.0000     0.0000E+00    0.0000E+00    1.015200E+08  0.05000  1.700E-03    0   0.7096   age116_m72            0.0000     4.7185E-01     4.9329   1.7449    93.6546
 59      0.0000     0.0000E+00    0.0000E+00    2.861200E+08  0.05000  7.384E-04    0   0.6633   age125_m72            0.0000     6.1865E-01     5.4140   1.2534    96.5084
 60      0.0000     0.0000E+00    0.0000E+00    5.088000E+08  0.05000  3.819E-04    0   0.6372   age130_m72            0.0000     7.7493E-01     6.1501   0.7687    97.7479
 61      0.0000     0.0000E+00    0.0000E+00    9.047900E+08  0.05000  1.676E-04    0   0.6110   age135_m72            0.0000     1.1370E+00     7.5494   0.0767    95.8843
 62      0.0000     0.0000E+00    0.0000E+00    1.434000E+09  0.05000  8.837E-05    0   0.5874   age139_m72            0.0000     1.3006E+00     8.0577  -0.3769    95.3769
 63      0.0000     0.0000E+00    0.0000E+00    2.500000E+09  0.05000  4.233E-05    0   0.5598   age150_m72            0.0000     1.6179E+00     9.1830  -0.6668    93.3546
 64      0.0000     0.0000E+00    0.0000E+00    6.250000E+09  0.05000  1.435E-05    0   0.5249   age166_m72            0.0000     2.0225E+00    10.0184  -1.0000    87.9309
 65      0.0022     5.9329E-02    5.6310E-02    1.300000E+10  0.05000  6.513E-06    0   0.5036   age193_m72            0.0000     2.7583E+00    11.0027  -1.0000    79.4053
 66      0.0000     0.0000E+00    0.0000E+00    1.800000E+10  0.05000  4.527E-06    0   0.4945   age213_m72            0.0000     3.3593E+00    12.0148  -1.0000    74.1224


## Synthesis Results - Average & Chains ##

# j      x_j: min, <> & last-chain-values for 1 ...  7 chains
  1      0.0000      1.7259      0.0000      3.2485      0.4770      1.9481      2.5694      0.0000      0.0000
  2      0.0000      0.3434      0.0000      0.0000      0.0000      1.8495      0.0000      0.0000      0.0000
  3      0.0000      0.6065      0.0000      0.0000      0.0000      1.2833      1.5966      0.0000      0.1102
  4      0.0000      0.3239      0.0000      0.0000      0.0000      0.0000      0.0000      0.0000      0.0000
  5      0.0000      0.6924      4.0127      0.0000      0.0000      2.2595      0.0000      0.0000      0.2493
  6      0.0000      0.6013      0.0000      0.7335      2.9036      0.0000      0.0000      0.0000      0.0000
  7      0.0000      0.8864      0.0000      0.0000      0.0000      0.0000      0.0000      0.0000      0.5072
  8      0.0000      0.8961      0.0382      0.0400      0.0000      0.0000      0.1043      0.8603      0.5224
  9      0.0000      0.5360      0.0000      0.0000      0.0000      0.0000      0.0000      0.0000      0.0000
 10      0.0000      0.4635      0.0000      0.0000      0.0000      0.0000      0.0000      0.0000      0.0000
 11      0.0000      0.3749      0.0000      0.3688      0.0000      0.4514      0.0000      0.0000      0.0000
 12      0.0000      0.3681      0.0000      0.0000      0.0000      0.0000      0.4597      0.0000      0.0000
 13      0.0000      4.2093      3.0654      4.8962      4.1768      4.2094      3.5965      4.8965      6.6477
 14      9.0094      2.9659      1.9523      2.9278      5.2215      1.9170      2.9376      5.3816      4.4101
 15      5.0656      2.9514      2.3734      5.6840      3.8597      1.8236      3.1777      2.0662      1.7779
 16      0.0000      0.3308      0.0000      0.0000      0.2806      0.0000      0.0000      0.0000      0.0000
 17      0.0000      0.2242      0.0000      0.0000      0.3668      0.0000      0.0000      0.0000      0.0000
 18      2.3681      0.7904      5.7161      3.1347      1.5982      1.4343      1.1079      0.0000      1.4786
 19      2.6712      1.1492      1.9613      2.2358      6.6136      0.6686      2.2543      0.2866      0.6138
 20      0.0000      0.8076      0.0000      4.2747      0.0944      2.8257      0.0000      0.0000      0.0000
 21     14.2103      9.0742     10.6799      7.7348     10.7354      8.9645     13.5009     18.1638     12.7994
 22      0.0000      0.7737      1.8864      0.0000      0.0000      0.4019      0.0000      0.0000      2.1865
 23      0.0000      0.5243      0.0000      1.0470      1.6904      0.5022      0.9158      0.0000      0.0000
 24      0.0006      0.8015      0.0000      0.0000      0.8156      0.0000      1.1830      0.0000      0.0000
 25      0.0000      0.4768      0.0000      0.0771      0.0000      0.0000      0.0000      0.0183      0.0000
 26      0.0000      0.3803      0.0000      0.0000      0.0000      0.0000      0.0000      0.0000      0.0000
 27      0.0000      0.3716      0.0000      0.0000      0.0000      0.0000      0.0000      0.1826      0.0967
 28      0.0011      0.4378      0.0000      0.0000      0.8839      0.0000      0.0000      0.0000      1.1314
 29      0.0000      0.1303      0.0000      0.1351      0.0000      0.0000      0.0000      0.0000      0.0000
 30      0.0000      0.2137      0.8484      0.1958      0.0000      0.5734      0.1291      0.0000      0.0000
 31      0.0000      0.2748      0.0000      0.0000      0.0196      0.1013      0.0000      0.0000      1.0778
 32      0.0000      1.6929      1.6536      0.9329      1.7797      1.5370      1.0636      3.4991      2.1830
 33      2.0785      1.3572      2.2191      1.7523      1.3340      2.3029      1.8128      0.0000      1.6750
 34      0.0000      0.4059      0.0000      0.2228      0.0000      0.2895      1.4190      0.0000      0.0000
 35      2.3738      0.9141      2.1991      2.0761      0.5436      2.8185      1.6643      0.0000      2.3706
 36     10.7620      6.5276      7.7006      6.8391      8.2170      5.8677      8.0117      8.3969      9.4796
 37      0.0000      0.6944      0.0000      0.0000      0.0000      1.4305      0.5766      0.0000      0.5451
 38     33.5419     33.9106     36.8421     31.4324     35.0039     34.3999     35.7355     42.9648     37.2686
 39      0.0000      0.8990      0.0000      0.2620      0.3219      0.0000      1.0464      0.2446      0.0000
 40      0.0000      0.7178      0.0000      2.9249      0.0000      0.0000      0.1083      0.0000      0.0000
 41      0.0000      0.5081      0.0000      0.0000      0.0000      0.0000      0.0000      0.0000      0.0000
 42      0.0000      0.3364      0.0000      0.0000      0.0000      0.0000      0.0000      0.0000      0.0173
 43      0.0000      0.4029      0.0000      0.0000      0.0000      0.0000      0.0000      0.0000      0.0000
 44      0.0000      0.2885      0.0000      0.0000      0.0000      0.0000      0.0000      0.0000      0.0000
 45      0.0000      0.4231      0.0000      0.0000      0.0000      0.0000      0.1533      0.0000      0.0000
 46      0.0000      0.2039      0.4167      0.0000      0.0000      0.0000      0.0004      0.0000      0.0000
