###################################################################
## OUTPUT of StarlightChains_v04.for    [Cid@UFSC - 01/Apr/2007] ##
###################################################################

## Some input info
2008iz.txt                               [arq_obs]
Base.CB07.vall.4m                        [arq_base]
Masks.EmLines.NEW.gm                     [arq_masks]
StCv04.C11.config                        [arq_config]
   66                                    [N_base]
    0                                    [N_YAV_components = # of components with extra extinction!]
    0                                    [i_FitPowerLaw (1/0 = Yes/No)]
-9.99                                    [alpha_PowerLaw]
CCM                                      [red_law_option]
 1.458241                                [q_norm = A(l_norm)/A(V)]

## (Re)Sampling Parameters
 3741.00                                 [l_ini (A)]
 7218.00                                 [l_fin (A)]
    1.00                                 [dl    (A)]     (OBS: dl_cushion =    50.00 A)

## Normalization info
 4020.00                                 [l_norm (A) - for base]
 4010.00                                 [llow_norm (A) - window for f_obs]
 4060.00                                 [lupp_norm (A) - window for f_obs]
3.987416E-14                             [fobs_norm (in input units)]

## S/N
 3691.00                                 [llow_SN (A) - window for S/N]
 7268.00                                 [lupp_SN (A) - window for S/N]
   3.128                                 [S/N in S/N window]
   1.955                                 [S/N in norm. window]
  28.596                                 [S/N_err in S/N window]
  17.878                                 [S/N_err in norm. window]
  1.0000                                 [fscale_chi2]

## etc...
    -2007350                             [idum_orig]
  2369                                   [NOl_eff]
  1818                                   [Nl_eff]
   551    NSIGMA                         [Ntot_cliped & clip_method]
  1942150                                [Nglobal_steps]
   7                                     [N_chains]
  28                                     [NEX0s_base = N_base in EX0s-fits]
 0   0   1       11   2.0   1.453E+02    [Clip-Bug, RC-Crash & Burn-In warning-flags, n_censored_weights, wei_nsig_threshold & wei_limit]
    18     17.451     16.941      0.510  [idt_all, wdt_TotTime, wdt_UsrTime & wdt_SysTime (sec)]

## Synthesis Results - Best model ##

 2.72100E+00                             [chi2/Nl_eff]
     6.66317                             [adev (%)]

    79.60209                             [sum-of-x (%)]
 3.49153E-13                             [Flux_tot (units of input spectrum!)]
 1.90123E-08                             [Mini_tot (???)]
 9.50520E-09                             [Mcor_tot (???)]

 -22.21                                  [v0_min  (km/s)]
 485.50                                  [vd_min  (km/s)]
 1.7854                                  [AV_min  (mag)]
 0.0000                                  [YAV_min (mag)]

# j     x_j(%)      Mini_j(%)     Mcor_j(%)     age_j(yr)     Z_j      (L/M)_j    YAV?  Mstars   component_j        a/Fe...       SSP_chi2r SSP_adev(%)   SSP_AV   SSP_x(%)
  1      2.0195     4.2588E-03    8.5185E-03    1.000000E+06  0.00400  1.094E-02    0   1.0000   age020_m42            0.0000     1.0613E+02    15.9369   4.0000   106.8563
  2      0.0000     0.0000E+00    0.0000E+00    3.160000E+06  0.00400  4.007E-02    0   0.9999   age045_m42            0.0000     2.2766E+01     7.8477   4.0000    80.6278
  3      0.7337     6.6666E-04    1.2652E-03    5.010000E+06  0.00400  2.539E-02    0   0.9488   age055_m42            0.0000     4.8452E+01     8.5689   4.0000    91.9287
  4      0.0000     0.0000E+00    0.0000E+00    6.610000E+06  0.00400  2.620E-02    0   0.9220   age061_m42            0.0000     1.6909E+01     7.8562   4.0000    77.9513
  5      0.8950     1.5618E-03    2.7684E-03    1.000000E+07  0.00400  1.322E-02    0   0.8862   age070_m42            0.0000     6.3312E+00     7.6801   3.8958    72.7881
  6      1.1243     3.2905E-03    5.6411E-03    1.445000E+07  0.00400  7.883E-03    0   0.8571   age078_m42            0.0000     1.1155E+01     6.8591   4.0000    79.3479
  7      1.0336     4.5412E-03    7.4247E-03    2.512000E+07  0.00400  5.251E-03    0   0.8174   age090_m42            0.0000     5.8081E+00     7.1428   3.7236    74.7576
  8      1.0300     6.5119E-03    1.0226E-02    4.000000E+07  0.00400  3.649E-03    0   0.7851   age104_m42            0.0000     5.6616E+00     7.1993   3.5062    75.0212
  9      0.0000     0.0000E+00    0.0000E+00    5.500000E+07  0.00400  3.098E-03    0   0.7629   age110_m42            0.0000     6.5068E+00     8.2374   3.7392    72.1408
 10      0.0000     0.0000E+00    0.0000E+00    1.015200E+08  0.00400  2.228E-03    0   0.7207   age116_m42            0.0000     6.8750E+00     8.8509   3.8049    70.6836
 11      0.0000     0.0000E+00    0.0000E+00    2.861200E+08  0.00400  1.093E-03    0   0.6648   age125_m42            0.0000     7.0350E+00     7.8100   3.1285    76.9920
 12      0.0000     0.0000E+00    0.0000E+00    5.088000E+08  0.00400  6.597E-04    0   0.6365   age130_m42            0.0000     6.8785E+00     8.7707   3.2012    74.4830
 13      0.0000     0.0000E+00    0.0000E+00    1.434000E+09  0.00400  2.132E-04    0   0.5798   age139_m42            0.0000     4.1115E+00     8.4409   2.2519    75.1334
 14      0.0000     0.0000E+00    0.0000E+00    4.250000E+09  0.00400  5.895E-05    0   0.5377   age158_m42            0.0000     4.9039E+00     9.9074   1.9600    67.1186
 15      0.0000     0.0000E+00    0.0000E+00    7.500000E+09  0.00400  3.510E-05    0   0.5212   age171_m42            0.0000     5.0222E+00    10.3427   1.8161    65.2948
 16      0.0000     0.0000E+00    0.0000E+00    1.300000E+10  0.00400  2.005E-05    0   0.5034   age193_m42            0.0000     5.2404E+00    10.7506   1.6890    63.7924
 17      0.0000     0.0000E+00    0.0000E+00    1.800000E+10  0.00400  1.525E-05    0   0.4967   age213_m42            0.0000     5.2404E+00    10.6750   1.6580    63.7552
 18      3.0572     5.6971E-03    1.1395E-02    1.000000E+06  0.00800  1.238E-02    0   1.0000   age020_m52            0.0000     1.0558E+02    15.8422   4.0000   106.8717
 19      1.4147     1.0617E-03    2.1164E-03    3.160000E+06  0.00800  3.074E-02    0   0.9966   age045_m52            0.0000     9.3848E+01    14.0524   4.0000   103.9797
 20      0.0000     0.0000E+00    0.0000E+00    5.010000E+06  0.00800  2.668E-02    0   0.9443   age055_m52            0.0000     5.6320E+01     9.3096   4.0000    94.7590
 21      0.0000     0.0000E+00    0.0000E+00    6.610000E+06  0.00800  2.136E-02    0   0.9177   age061_m52            0.0000     5.5954E+00     7.8264   3.4295    72.3356
 22      2.5413     4.8254E-03    8.5196E-03    1.000000E+07  0.00800  1.215E-02    0   0.8827   age070_m52            0.0000     5.8721E+00     6.9348   4.0000    75.4180
 23      0.9437     2.4975E-03    4.2721E-03    1.445000E+07  0.00800  8.717E-03    0   0.8552   age078_m52            0.0000     8.9370E+00     6.7092   4.0000    79.0633
 24      0.0000     0.0000E+00    0.0000E+00    2.512000E+07  0.00800  5.592E-03    0   0.8162   age090_m52            0.0000     4.9610E+00     6.7366   3.7620    76.6383
 25      1.3276     7.8613E-03    1.2329E-02    4.000000E+07  0.00800  3.896E-03    0   0.7841   age104_m52            0.0000     5.3135E+00     7.0506   3.6985    76.3582
 26      0.0000     0.0000E+00    0.0000E+00    1.015200E+08  0.00800  2.148E-03    0   0.7226   age116_m52            0.0000     6.1261E+00     8.1299   3.7191    73.1823
 27      0.0000     0.0000E+00    0.0000E+00    2.861200E+08  0.00800  9.925E-04    0   0.6683   age125_m52            0.0000     5.8811E+00     8.4679   3.2491    75.7798
 28      0.0000     0.0000E+00    0.0000E+00    9.047900E+08  0.00800  3.141E-04    0   0.6138   age135_m52            0.0000     5.2138E+00     9.1447   2.5278    76.0921
 29      0.0000     0.0000E+00    0.0000E+00    1.434000E+09  0.00800  1.719E-04    0   0.5853   age139_m52            0.0000     5.0627E+00     9.2709   1.9668    73.8825
 30      0.0000     0.0000E+00    0.0000E+00    2.500000E+09  0.00800  7.872E-05    0   0.5600   age150_m52            0.0000     5.0003E+00    10.5371   1.8417    66.9661
 31      0.0000     0.0000E+00    0.0000E+00    4.250000E+09  0.00800  4.336E-05    0   0.5426   age158_m52            0.0000     5.1412E+00    10.6375   1.8389    65.9489
 32      0.0000     0.0000E+00    0.0000E+00    6.250000E+09  0.00800  3.159E-05    0   0.5319   age166_m52            0.0000     5.5143E+00    11.2850   1.6941    64.1760
 33     16.8199     2.8512E+01    2.8931E+01    1.300000E+10  0.00800  1.361E-05    0   0.5073   age193_m52            0.0000     6.0037E+00    12.0134   1.2926    61.7599
 34      8.1026     1.8909E+01    1.8873E+01    1.800000E+10  0.00800  9.886E-06    0   0.4990   age213_m52            0.0000     6.7066E+00    12.7402   1.2469    59.6760
 35      1.9222     2.8721E-03    5.7448E-03    1.000000E+06  0.02000  1.544E-02    0   1.0000   age020_m62            0.0000     1.0528E+02    15.7535   4.0000   106.9077
 36      2.2139     1.3577E-03    2.6770E-03    3.160000E+06  0.02000  3.762E-02    0   0.9858   age045_m62            0.0000     9.6800E+01    14.3674   4.0000   104.7746
 37      0.8928     6.2490E-04    1.1677E-03    5.010000E+06  0.02000  3.296E-02    0   0.9342   age055_m62            0.0000     4.5178E+01     8.1683   4.0000    91.2818
 38      5.8614     1.1718E-02    2.0769E-02    8.710000E+06  0.02000  1.154E-02    0   0.8861   age067_m62            0.0000     5.1085E+00     5.3670   3.1036    92.4009
 39      1.1236     3.3827E-03    5.7322E-03    1.445000E+07  0.02000  7.663E-03    0   0.8472   age078_m62            0.0000     5.7146E+00     6.1486   3.5432    81.3088
 40      1.5369     7.8239E-03    1.2674E-02    2.512000E+07  0.02000  4.532E-03    0   0.8099   age090_m62            0.0000     5.9933E+00     5.8739   3.5003    82.5790
 41      2.4445     2.0635E-02    3.1348E-02    5.500000E+07  0.02000  2.733E-03    0   0.7595   age110_m62            0.0000     5.1460E+00     7.1177   3.6872    75.5671
 42      0.0000     0.0000E+00    0.0000E+00    1.609000E+08  0.02000  1.369E-03    0   0.6985   age120_m62            0.0000     5.7687E+00     8.2392   3.5994    74.9144
 43      0.0000     0.0000E+00    0.0000E+00    2.861200E+08  0.02000  9.013E-04    0   0.6714   age125_m62            0.0000     5.5264E+00     8.6420   3.3783    75.9644
 44      0.0000     0.0000E+00    0.0000E+00    5.088000E+08  0.02000  5.028E-04    0   0.6449   age130_m62            0.0000     6.1361E+00     9.8364   3.1084    73.9835
 45      0.0000     0.0000E+00    0.0000E+00    9.047900E+08  0.02000  2.428E-04    0   0.6179   age135_m62            0.0000     5.1841E+00    10.0178   2.5721    71.8271
 46      0.0000     0.0000E+00    0.0000E+00    1.434000E+09  0.02000  1.263E-04    0   0.5908   age139_m62            0.0000     4.8320E+00    10.2342   2.1655    69.4987
 47      0.0000     0.0000E+00    0.0000E+00    2.500000E+09  0.02000  5.985E-05    0   0.5673   age150_m62            0.0000     5.5821E+00    11.2875   1.9002    65.2856
 48      0.0000     0.0000E+00    0.0000E+00    4.250000E+09  0.02000  3.271E-05    0   0.5468   age158_m62            0.0000     6.5274E+00    12.3095   1.6864    61.9534
 49      0.0000     0.0000E+00    0.0000E+00    1.000000E+10  0.02000  1.360E-05    0   0.5167   age181_m62            0.0000     7.6502E+00    13.3524   1.4160    59.5136
 50      0.0000     0.0000E+00    0.0000E+00    1.800000E+10  0.02000  7.124E-06    0   0.5013   age213_m62            0.0000     8.6074E+00    14.2157   1.2766    57.1448
 51      2.2994     2.0467E-03    4.0929E-03    1.000000E+06  0.05000  2.592E-02    0   0.9998   age020_m72            0.0000     1.0333E+02    15.5374   4.0000   106.4941
 52      3.2786     1.5612E-03    2.9905E-03    3.160000E+06  0.05000  4.845E-02    0   0.9577   age045_m72            0.0000     7.9821E+01    11.7846   4.0000   100.4906
 53      0.8137     6.1107E-04    1.1180E-03    5.010000E+06  0.05000  3.072E-02    0   0.9147   age055_m72            0.0000     1.4493E+01     7.0211   4.0000    83.5637
 54      4.2250     6.6992E-03    1.1895E-02    6.610000E+06  0.05000  1.455E-02    0   0.8877   age061_m72            0.0000     3.1638E+01     7.8170   2.9837   102.2320
 55      0.6084     1.5468E-03    2.6373E-03    1.000000E+07  0.05000  9.074E-03    0   0.8524   age070_m72            0.0000     3.2914E+01     7.9240   4.0000    91.6160
 56      0.0000     0.0000E+00    0.0000E+00    2.512000E+07  0.05000  4.250E-03    0   0.7902   age090_m72            0.0000     1.2925E+01     6.9168   4.0000    80.2271
 57      0.5065     3.7856E-03    5.7684E-03    4.000000E+07  0.05000  3.087E-03    0   0.7618   age104_m72            0.0000     1.1923E+01     7.0477   3.8351    79.0237
 58      0.0000     0.0000E+00    0.0000E+00    1.015200E+08  0.05000  1.700E-03    0   0.7096   age116_m72            0.0000     5.8188E+00     7.5710   3.6795    77.0080
 59      0.0000     0.0000E+00    0.0000E+00    2.861200E+08  0.05000  7.384E-04    0   0.6633   age125_m72            0.0000     5.2828E+00     9.0754   3.2897    75.4225
 60      0.0000     0.0000E+00    0.0000E+00    5.088000E+08  0.05000  3.819E-04    0   0.6372   age130_m72            0.0000     5.2166E+00     9.9599   2.9046    72.6565
 61      0.0000     0.0000E+00    0.0000E+00    9.047900E+08  0.05000  1.676E-04    0   0.6110   age135_m72            0.0000     6.2221E+00    11.3440   2.3533    66.5652
 62      0.0000     0.0000E+00    0.0000E+00    1.434000E+09  0.05000  8.837E-05    0   0.5874   age139_m72            0.0000     5.5302E+00    11.3346   1.8988    66.2707
 63      0.0000     0.0000E+00    0.0000E+00    2.500000E+09  0.05000  4.233E-05    0   0.5598   age150_m72            0.0000     6.8985E+00    12.6844   1.7133    61.6704
 64      0.0000     0.0000E+00    0.0000E+00    6.250000E+09  0.05000  1.435E-05    0   0.5249   age166_m72            0.0000     8.3090E+00    13.7797   1.3502    58.3905
 65      1.7579     6.2270E+00    6.2725E+00    1.300000E+10  0.05000  6.513E-06    0   0.5036   age193_m72            0.0000     9.8275E+00    14.8734   1.1560    56.6485
 66      9.0745     4.6245E+01    4.5741E+01    1.800000E+10  0.05000  4.527E-06    0   0.4945   age213_m72            0.0000     1.0963E+01    15.5400   1.0456    55.2411


## Synthesis Results - Average & Chains ##

# j      x_j: min, <> & last-chain-values for 1 ...  7 chains
  1      2.0195      1.1348      1.1656      1.1353      1.1373      1.0453      1.2257      1.1131      1.0880
  2      0.0000      0.1228      0.0000      0.1453      0.0365      0.1181      0.1747      0.1271      0.0000
  3      0.7337      0.5558      0.6388      0.0346      0.6157      0.6289      0.5534      0.7119      0.5527
  4      0.0000      0.0656      0.0000      0.0000      0.0216      0.1093      0.0511      0.0000      0.0968
  5      0.8950      0.5227      0.5523      0.6207      0.4812      0.5422      0.6223      0.6700      0.6212
  6      1.1243      0.5949      0.7413      0.6380      0.6272      0.6157      0.5168      0.6292      0.7209
  7      1.0336      0.5553      0.5935      0.5400      0.5814      0.5060      0.6171      0.3920      0.7082
  8      1.0300      0.6849      0.6885      0.8843      0.6062      0.7091      0.6343      0.6818      0.7090
  9      0.0000      0.1455      0.1592      0.0018      0.1126      0.2964      0.2172      0.1111      0.3653
 10      0.0000      0.0518      0.2272      0.0786      0.0000      0.0000      0.0000      0.0000      0.0117
 11      0.0000      0.0214      0.0000      0.0186      0.0053      0.0000      0.0100      0.0000      0.0137
 12      0.0000      0.0346      0.0000      0.0000      0.0000      0.0637      0.0000      0.0892      0.0000
 13      0.0000      0.0405      0.0000      0.0498      0.0000      0.0000      0.0000      0.0000      0.0000
 14      0.0000      0.0352      0.0000      0.0130      0.0355      0.0000      0.0000      0.0148      0.0000
 15      0.0000      0.0307      0.0000      0.1182      0.0000      0.1469      0.0000      0.0029      0.0000
 16      0.0000      0.0244      0.0000      0.0000      0.0000      0.0000      0.0000      0.0000      0.0000
 17      0.0000      0.0296      0.0000      0.0000      0.0000      0.0000      0.0000      0.0000      0.1961
 18      3.0572      2.5412      2.5152      2.5924      2.6411      2.7026      2.6147      2.6264      2.3755
 19      1.4147      0.7131      0.7533      0.7094      0.7962      0.7345      0.7680      0.6570      0.8913
 20      0.0000      0.2033      0.2150      0.2296      0.1862      0.2304      0.1685      0.1677      0.3058
 21      0.0000      0.0401      0.1564      0.0188      0.0000      0.0000      0.0640      0.0000      0.0000
 22      2.5413      2.0324      2.0530      2.1203      2.2187      1.9303      2.1821      2.0606      2.0161
 23      0.9437      0.5905      0.5941      0.6787      0.6393      0.6124      0.5755      0.5998      0.6953
 24      0.0000      0.4935      0.4908      0.5496      0.3041      0.7492      0.4943      0.3406      0.5859
 25      1.3276      1.3107      1.3555      1.1948      1.2708      1.2676      1.3258      1.3343      1.3784
 26      0.0000      0.0728      0.1145      0.1057      0.0000      0.1572      0.0249      0.0978      0.0000
 27      0.0000      0.0206      0.0000      0.0000      0.0000      0.0000      0.0330      0.0000      0.0387
 28      0.0000      0.0172      0.0000      0.0000      0.0000      0.0000      0.0000      0.0000      0.0000
 29      0.0000      0.0161      0.0525      0.0000      0.0000      0.0000      0.0000      0.0106      0.0000
 30      0.0000      0.0131      0.0000      0.0000      0.0000      0.0000      0.0000      0.0000      0.0000
 31      0.0000      0.0209      0.0000      0.0000      0.0000      0.0000      0.0132      0.0000      0.0495
 32      0.0000      0.0205      0.0000      0.0000      0.0000      0.0000      0.0138      0.0040      0.0000
 33     16.8199     17.0876     16.8358     16.9424     17.1771     16.9746     17.0368     17.2118     16.8937
 34      8.1026      8.5351      8.5926      8.5438      8.5707      8.5813      8.3940      8.3838      8.5274
 35      1.9222      1.1226      1.0051      1.2258      1.2952      1.2619      1.1312      1.0748      1.7754
 36      2.2139      1.8047      2.0083      1.9434      1.9216      1.7772      1.8650      1.8289      1.7179
 37      0.8928      0.6757      0.6081      0.6997      0.7254      0.6111      0.6683      0.8024      0.6718
 38      5.8614      3.4068      3.7565      3.6580      3.7752      3.4969      3.7129      3.5966      3.5515
 39      1.1236      0.8856      0.9164      0.8690      0.8334      1.0640      0.7503      1.0095      0.8631
 40      1.5369      1.3443      1.4137      1.6206      1.1642      1.2946      1.3885      1.4189      1.3589
 41      2.4445      2.4611      2.2996      2.7983      2.7209      2.4665      2.5034      2.4077      2.0296
 42      0.0000      0.0578      0.2878      0.0000      0.0000      0.3309      0.0000      0.0000      0.0000
 43      0.0000      0.0347      0.0105      0.0180      0.0000      0.0739      0.0000      0.0000      0.0000
 44      0.0000      0.0156      0.0233      0.0000      0.0253      0.0000      0.0000      0.0000      0.0000
 45      0.0000      0.0151      0.0000      0.0000      0.0000      0.0000      0.0000      0.0000      0.0081
 46      0.0000      0.0176      0.0000      0.0640      0.0000      0.0000      0.0000      0.0000      0.0000
