###################################################################
## OUTPUT of StarlightChains_v04.for    [Cid@UFSC - 01/Apr/2007] ##
###################################################################

## Some input info
2008ec.txt                               [arq_obs]
Base.CB07.vall.4m                        [arq_base]
Masks.EmLines.NEW.gm                     [arq_masks]
StCv04.C11.config                        [arq_config]
   66                                    [N_base]
    0                                    [N_YAV_components = # of components with extra extinction!]
    0                                    [i_FitPowerLaw (1/0 = Yes/No)]
-9.99                                    [alpha_PowerLaw]
CCM                                      [red_law_option]
 1.458241                                [q_norm = A(l_norm)/A(V)]

## (Re)Sampling Parameters
 3741.00                                 [l_ini (A)]
 7218.00                                 [l_fin (A)]
    1.00                                 [dl    (A)]     (OBS: dl_cushion =    50.00 A)

## Normalization info
 4020.00                                 [l_norm (A) - for base]
 4010.00                                 [llow_norm (A) - window for f_obs]
 4060.00                                 [lupp_norm (A) - window for f_obs]
1.643581E-16                             [fobs_norm (in input units)]

## S/N
 3691.00                                 [llow_SN (A) - window for S/N]
 7268.00                                 [lupp_SN (A) - window for S/N]
   9.742                                 [S/N in S/N window]
  10.232                                 [S/N in norm. window]
  17.749                                 [S/N_err in S/N window]
  18.641                                 [S/N_err in norm. window]
  1.0000                                 [fscale_chi2]

## etc...
    -2007345                             [idum_orig]
  2384                                   [NOl_eff]
  2379                                   [Nl_eff]
     5    NSIGMA                         [Ntot_cliped & clip_method]
  1424850                                [Nglobal_steps]
   7                                     [N_chains]
  20                                     [NEX0s_base = N_base in EX0s-fits]
 0   0   1        4   2.0   3.197E+01    [Clip-Bug, RC-Crash & Burn-In warning-flags, n_censored_weights, wei_nsig_threshold & wei_limit]
    14     13.984     13.472      0.512  [idt_all, wdt_TotTime, wdt_UsrTime & wdt_SysTime (sec)]

## Synthesis Results - Best model ##

 4.27483E-01                             [chi2/Nl_eff]
     2.85444                             [adev (%)]

   104.34892                             [sum-of-x (%)]
 2.52517E-16                             [Flux_tot (units of input spectrum!)]
 2.23412E-12                             [Mini_tot (???)]
 1.23336E-12                             [Mcor_tot (???)]

 -70.81                                  [v0_min  (km/s)]
 163.50                                  [vd_min  (km/s)]
 0.2880                                  [AV_min  (mag)]
 0.0000                                  [YAV_min (mag)]

# j     x_j(%)      Mini_j(%)     Mcor_j(%)     age_j(yr)     Z_j      (L/M)_j    YAV?  Mstars   component_j        a/Fe...       SSP_chi2r SSP_adev(%)   SSP_AV   SSP_x(%)
  1      4.1945     4.1530E-02    7.5227E-02    1.000000E+06  0.00400  1.094E-02    0   1.0000   age020_m42            0.0000     1.6016E+00     5.3362   2.9571    92.1605
  2      0.0000     0.0000E+00    0.0000E+00    3.160000E+06  0.00400  4.007E-02    0   0.9999   age045_m42            0.0000     1.2525E+00     4.4319   2.2624    96.7995
  3      0.0000     0.0000E+00    0.0000E+00    5.010000E+06  0.00400  2.539E-02    0   0.9488   age055_m42            0.0000     1.3918E+00     4.6922   2.5675    95.1810
  4      0.0000     0.0000E+00    0.0000E+00    6.610000E+06  0.00400  2.620E-02    0   0.9220   age061_m42            0.0000     1.2526E+00     4.4265   2.1870    97.0170
  5      0.0000     0.0000E+00    0.0000E+00    1.000000E+07  0.00400  1.322E-02    0   0.8862   age070_m42            0.0000     1.3947E+00     4.5823   1.8824    99.6405
  6      0.0000     0.0000E+00    0.0000E+00    1.445000E+07  0.00400  7.883E-03    0   0.8571   age078_m42            0.0000     1.4728E+00     4.7327   2.2048    97.4620
  7      0.0000     0.0000E+00    0.0000E+00    2.512000E+07  0.00400  5.251E-03    0   0.8174   age090_m42            0.0000     1.4500E+00     4.7123   1.7517   100.1018
  8      0.0000     0.0000E+00    0.0000E+00    4.000000E+07  0.00400  3.649E-03    0   0.7851   age104_m42            0.0000     1.3261E+00     4.5353   1.5298   100.6807
  9      0.0000     0.0000E+00    0.0000E+00    5.500000E+07  0.00400  3.098E-03    0   0.7629   age110_m42            0.0000     1.2684E+00     4.4691   1.6992   100.1194
 10      0.0000     0.0000E+00    0.0000E+00    1.015200E+08  0.00400  2.228E-03    0   0.7207   age116_m42            0.0000     1.2546E+00     4.5710   1.7302    99.9095
 11      0.0000     0.0000E+00    0.0000E+00    2.861200E+08  0.00400  1.093E-03    0   0.6648   age125_m42            0.0000     1.3768E+00     4.9599   1.1560   102.8545
 12      0.0000     0.0000E+00    0.0000E+00    5.088000E+08  0.00400  6.597E-04    0   0.6365   age130_m42            0.0000     1.2087E+00     4.8264   1.1625   103.1374
 13      0.0038     1.9311E-03    2.0282E-03    1.434000E+09  0.00400  2.132E-04    0   0.5798   age139_m42            0.0000     7.1428E-01     3.8577   0.2027   104.6585
 14     16.6527     3.0598E+01    2.9803E+01    4.250000E+09  0.00400  5.895E-05    0   0.5377   age158_m42            0.0000     5.3363E-01     3.2930  -0.2371   101.0841
 15      4.8102     1.4844E+01    1.4014E+01    7.500000E+09  0.00400  3.510E-05    0   0.5212   age171_m42            0.0000     6.6209E-01     3.6850  -0.4198   100.3179
 16      1.2093     6.5332E+00    5.9574E+00    1.300000E+10  0.00400  2.005E-05    0   0.5034   age193_m42            0.0000     8.5125E-01     4.1621  -0.5814    99.7532
 17      1.9125     1.3584E+01    1.2222E+01    1.800000E+10  0.00400  1.525E-05    0   0.4967   age213_m42            0.0000     8.1656E-01     4.0675  -0.6063    99.3704
 18      0.4651     4.0691E-03    7.3708E-03    1.000000E+06  0.00800  1.238E-02    0   1.0000   age020_m52            0.0000     1.5996E+00     5.3361   2.9535    92.3454
 19      1.5205     5.3576E-03    9.6718E-03    3.160000E+06  0.00800  3.074E-02    0   0.9966   age045_m52            0.0000     1.5725E+00     5.2205   2.8795    93.0465
 20      0.0000     0.0000E+00    0.0000E+00    5.010000E+06  0.00800  2.668E-02    0   0.9443   age055_m52            0.0000     1.4219E+00     4.7737   2.6452    94.5617
 21     13.7969     6.9964E-02    1.1630E-01    6.610000E+06  0.00800  2.136E-02    0   0.9177   age061_m52            0.0000     9.5817E-01     3.9989   1.3748   101.2521
 22      0.0000     0.0000E+00    0.0000E+00    1.000000E+07  0.00800  1.215E-02    0   0.8827   age070_m52            0.0000     1.5507E+00     4.8873   2.0504    99.8246
 23      0.0000     0.0000E+00    0.0000E+00    1.445000E+07  0.00800  8.717E-03    0   0.8552   age078_m52            0.0000     1.4202E+00     4.6094   2.1715    98.7006
 24      0.0000     0.0000E+00    0.0000E+00    2.512000E+07  0.00800  5.592E-03    0   0.8162   age090_m52            0.0000     1.4538E+00     4.7455   1.8161   101.1856
 25      0.0000     0.0000E+00    0.0000E+00    4.000000E+07  0.00800  3.896E-03    0   0.7841   age104_m52            0.0000     1.3696E+00     4.6277   1.7384   101.5320
 26      0.0000     0.0000E+00    0.0000E+00    1.015200E+08  0.00800  2.148E-03    0   0.7226   age116_m52            0.0000     1.2058E+00     4.4697   1.6910   100.9010
 27      0.0000     0.0000E+00    0.0000E+00    2.861200E+08  0.00800  9.925E-04    0   0.6683   age125_m52            0.0000     1.1686E+00     4.7264   1.2269   104.0577
 28      0.0000     0.0000E+00    0.0000E+00    9.047900E+08  0.00800  3.141E-04    0   0.6138   age135_m52            0.0000     8.3336E-01     4.1811   0.4534   107.2945
 29      0.0000     0.0000E+00    0.0000E+00    1.434000E+09  0.00800  1.719E-04    0   0.5853   age139_m52            0.0000     6.7868E-01     3.7225  -0.1341   105.6178
 30      0.0000     0.0000E+00    0.0000E+00    2.500000E+09  0.00800  7.872E-05    0   0.5600   age150_m52            0.0000     7.2762E-01     3.9772  -0.3913   102.7065
 31      0.0000     0.0000E+00    0.0000E+00    4.250000E+09  0.00800  4.336E-05    0   0.5426   age158_m52            0.0000     7.6246E-01     4.0133  -0.4074   101.8250
 32      0.0000     0.0000E+00    0.0000E+00    6.250000E+09  0.00800  3.159E-05    0   0.5319   age166_m52            0.0000     1.0495E+00     4.6733  -0.5994   101.5294
 33      0.0000     0.0000E+00    0.0000E+00    1.300000E+10  0.00800  1.361E-05    0   0.5073   age193_m52            0.0000     1.6543E+00     5.7262  -1.0000    98.3259
 34      0.0000     0.0000E+00    0.0000E+00    1.800000E+10  0.00800  9.886E-06    0   0.4990   age213_m52            0.0000     2.4329E+00     6.8514  -1.0000    93.8354
 35      1.5565     1.0919E-02    1.9779E-02    1.000000E+06  0.02000  1.544E-02    0   1.0000   age020_m62            0.0000     1.6128E+00     5.3678   2.9476    92.6513
 36      3.4130     9.8269E-03    1.7548E-02    3.160000E+06  0.02000  3.762E-02    0   0.9858   age045_m62            0.0000     1.6242E+00     5.3417   2.8868    93.4742
 37      0.0000     0.0000E+00    0.0000E+00    5.010000E+06  0.02000  3.296E-02    0   0.9342   age055_m62            0.0000     1.3337E+00     4.5609   2.5337    96.0892
 38      0.0021     1.9837E-05    3.1839E-05    8.710000E+06  0.02000  1.154E-02    0   0.8861   age067_m62            0.0000     2.9249E+00     7.8442   1.4488   104.2208
 39      0.0000     0.0000E+00    0.0000E+00    1.445000E+07  0.02000  7.663E-03    0   0.8472   age078_m62            0.0000     1.7939E+00     5.5605   1.6814   102.5110
 40      0.0000     0.0000E+00    0.0000E+00    2.512000E+07  0.02000  4.532E-03    0   0.8099   age090_m62            0.0000     1.9926E+00     5.8183   1.6749   102.0680
 41      0.0000     0.0000E+00    0.0000E+00    5.500000E+07  0.02000  2.733E-03    0   0.7595   age110_m62            0.0000     1.3379E+00     4.5637   1.7170   101.0419
 42      0.0000     0.0000E+00    0.0000E+00    1.609000E+08  0.02000  1.369E-03    0   0.6985   age120_m62            0.0000     1.2613E+00     4.6889   1.5803   102.7701
 43      0.0000     0.0000E+00    0.0000E+00    2.861200E+08  0.02000  9.013E-04    0   0.6714   age125_m62            0.0000     1.2317E+00     4.8622   1.3446   105.0198
 44      0.0000     0.0000E+00    0.0000E+00    5.088000E+08  0.02000  5.028E-04    0   0.6449   age130_m62            0.0000     1.0557E+00     4.7439   0.9903   106.9090
 45      0.0000     0.0000E+00    0.0000E+00    9.047900E+08  0.02000  2.428E-04    0   0.6179   age135_m62            0.0000     7.0309E-01     3.8992   0.4075   106.3185
 46      0.0000     0.0000E+00    0.0000E+00    1.434000E+09  0.02000  1.263E-04    0   0.5908   age139_m62            0.0000     6.8304E-01     3.8468  -0.0381   104.9866
 47      0.0204     3.6900E-02    3.7919E-02    2.500000E+09  0.02000  5.985E-05    0   0.5673   age150_m62            0.0000     9.7763E-01     4.5596  -0.3960   103.4983
 48      0.0000     0.0000E+00    0.0000E+00    4.250000E+09  0.02000  3.271E-05    0   0.5468   age158_m62            0.0000     1.5728E+00     5.6917  -0.6845   102.1101
 49      0.0000     0.0000E+00    0.0000E+00    1.000000E+10  0.02000  1.360E-05    0   0.5167   age181_m62            0.0000     2.5357E+00     7.1152  -1.0000   100.4717
 50      0.0000     0.0000E+00    0.0000E+00    1.800000E+10  0.02000  7.124E-06    0   0.5013   age213_m62            0.0000     4.0111E+00     8.7283  -1.0000    91.7694
 51      4.0908     1.7095E-02    3.0960E-02    1.000000E+06  0.05000  2.592E-02    0   0.9998   age020_m72            0.0000     1.6595E+00     5.4671   2.9357    92.8283
 52      0.3726     8.3310E-04    1.4453E-03    3.160000E+06  0.05000  4.845E-02    0   0.9577   age045_m72            0.0000     1.5309E+00     5.0103   2.7813    94.1794
 53      0.0000     0.0000E+00    0.0000E+00    5.010000E+06  0.05000  3.072E-02    0   0.9147   age055_m72            0.0000     1.7719E+00     5.3356   2.2742    98.8222
 54      0.0000     0.0000E+00    0.0000E+00    6.610000E+06  0.05000  1.455E-02    0   0.8877   age061_m72            0.0000     5.5076E+00    10.5581   1.4708   106.0077
 55      0.0000     0.0000E+00    0.0000E+00    1.000000E+07  0.05000  9.074E-03    0   0.8524   age070_m72            0.0000     2.4755E+00     6.1597   2.4583    98.5706
 56      0.0000     0.0000E+00    0.0000E+00    2.512000E+07  0.05000  4.250E-03    0   0.7902   age090_m72            0.0000     2.0527E+00     5.5626   2.1701    99.5960
 57      0.0000     0.0000E+00    0.0000E+00    4.000000E+07  0.05000  3.087E-03    0   0.7618   age104_m72            0.0000     2.1338E+00     5.7289   1.9440   100.9899
 58      0.0000     0.0000E+00    0.0000E+00    1.015200E+08  0.05000  1.700E-03    0   0.7096   age116_m72            0.0000     1.4664E+00     4.9750   1.7142   102.5932
 59      0.0000     0.0000E+00    0.0000E+00    2.861200E+08  0.05000  7.384E-04    0   0.6633   age125_m72            0.0000     1.1154E+00     4.7801   1.2255   105.9097
 60      0.0000     0.0000E+00    0.0000E+00    5.088000E+08  0.05000  3.819E-04    0   0.6372   age130_m72            0.0000     7.8378E-01     4.0957   0.7486   107.1549
 61     49.4308     3.1946E+01    3.5357E+01    9.047900E+08  0.05000  1.676E-04    0   0.6110   age135_m72            0.0000     8.8326E-01     4.4203   0.0637   105.2780
 62      0.0000     0.0000E+00    0.0000E+00    1.434000E+09  0.05000  8.837E-05    0   0.5874   age139_m72            0.0000     1.1207E+00     4.8501  -0.3908   104.7101
 63      0.8971     2.2956E+00    2.3278E+00    2.500000E+09  0.05000  4.233E-05    0   0.5598   age150_m72            0.0000     1.7986E+00     6.1024  -0.6800   102.8097
 64      0.0000     0.0000E+00    0.0000E+00    6.250000E+09  0.05000  1.435E-05    0   0.5249   age166_m72            0.0000     2.9692E+00     7.6670  -1.0000    96.3626
 65      0.0000     0.0000E+00    0.0000E+00    1.300000E+10  0.05000  6.513E-06    0   0.5036   age193_m72            0.0000     5.9354E+00    10.4051  -1.0000    86.7728
 66      0.0000     0.0000E+00    0.0000E+00    1.800000E+10  0.05000  4.527E-06    0   0.4945   age213_m72            0.0000     8.5020E+00    12.2881  -1.0000    80.8155


## Synthesis Results - Average & Chains ##

# j      x_j: min, <> & last-chain-values for 1 ...  7 chains
  1      4.1945      3.3770      3.6617      3.4564      3.9944      2.5671      3.9138      4.2675      5.1243
  2      0.0000      0.3418      0.0000      1.0293      0.1111      0.0000      0.0000      0.0000      0.5067
  3      0.0000      0.2453      0.4198      0.0000      0.0000      0.0000      1.3859      0.0000      0.9807
  4      0.0000      0.3778      0.5917      0.2666      0.0000      0.1040      0.0000      0.4559      0.0000
  5      0.0000      0.8121      2.2664      0.0000      1.8853      0.7914      0.0000      1.1932      0.6816
  6      0.0000      0.2142      0.0000      0.0000      0.0000      0.1030      0.7469      0.8994      0.0000
  7      0.0000      0.2335      0.0000      0.1852      0.9258      0.0000      0.0000      0.0000      0.0759
  8      0.0000      0.2919      0.0000      0.1718      0.0000      0.1498      0.0000      0.3642      0.0000
  9      0.0000      0.2829      0.2571      0.2538      1.2007      0.0000      0.0000      0.0000      0.0000
 10      0.0000      0.3483      0.0000      0.0000      0.0000      0.0000      0.6529      0.0127      0.0000
 11      0.0000      0.1969      0.0000      0.0000      0.0000      0.0000      0.0000      0.0000      0.0000
 12      0.0000      0.1529      0.0000      0.0000      0.3633      0.1367      0.0000      0.0000      0.0000
 13      0.0038      0.9313      0.9021      0.0000      0.0000      0.0219      0.0000      0.9831      0.8816
 14     16.6527      7.6042      7.7856      9.1463      8.7462      7.6172     10.3938      9.7546     11.5848
 15      4.8102      2.6105      2.7187      4.2123      3.0888      3.6994      2.2126      4.4612      2.3079
 16      1.2093      1.1898      2.0596      0.2292      0.7698      1.7094      2.6869      1.1871      0.0000
 17      1.9125      0.7792      0.9532      0.8367      1.2993      0.5416      1.2855      1.7602      0.8820
 18      0.4651      0.2040      0.0000      1.0219      0.0000      0.0000      0.2127      0.6711      0.0000
 19      1.5205      2.2045      1.8747      2.3327      1.3914      2.0533      3.3215      2.0064      2.2272
 20      0.0000      0.2303      0.0000      0.0000      1.0522      0.0000      0.0000      0.2497      0.0421
 21     13.7969     10.4057     11.0901     11.5696     10.7540     11.6929      9.8324     11.1886     10.0332
 22      0.0000      0.1926      0.0000      0.0000      0.2792      0.7526      0.7146      0.0000      0.0000
 23      0.0000      0.2171      0.0000      0.0000      0.0000      0.0000      0.0000      0.0000      0.7819
 24      0.0000      0.2273      0.0000      0.9514      0.2030      0.0000      0.0000      0.1114      0.0000
 25      0.0000      0.1140      0.0000      0.0000      0.0000      0.0000      0.0000      0.0000      0.0000
 26      0.0000      0.1911      0.1801      0.3151      0.0000      0.0000      0.0000      0.0000      0.1508
 27      0.0000      0.1133      0.0592      0.0000      0.0000      0.0000      0.0000      0.2790      0.2102
 28      0.0000      0.5263      0.1479      0.0000      0.3221      0.0000      0.2835      0.0000      0.0000
 29      0.0000      0.2658      0.3415      0.0000      0.0000      0.0000      0.0000      0.1780      0.0000
 30      0.0000      0.3714      0.0927      0.0000      1.0764      0.0000      1.0247      0.0000      0.0393
 31      0.0000      0.3588      0.0000      0.7071      0.0000      0.0000      0.0000      0.1826      0.0000
 32      0.0000      0.2190      0.0000      0.0549      1.3511      0.0000      0.0000      0.0000      0.1679
 33      0.0000      0.0691      0.0000      0.0000      0.0000      0.0000      0.0000      0.0000      0.0000
 34      0.0000      0.0943      0.0000      0.1829      0.0000      0.0000      0.0000      0.0000      0.0000
 35      1.5565      0.5231      0.0000      0.5636      0.9795      0.0000      1.1218      0.7091      1.0357
 36      3.4130      3.2181      3.3106      4.1870      4.1503      3.5105      3.0639      4.0484      3.2718
 37      0.0000      0.3838      0.7340      0.5120      0.2567      0.0000      1.4083      0.0000      0.0000
 38      0.0021      1.2723      0.8502      0.1299      0.4569      4.2690      0.0000      0.8879      0.0000
 39      0.0000      0.2104      0.0774      0.0000      0.0000      0.0000      0.0000      0.0000      0.9560
 40      0.0000      0.3643      0.5742      0.7634      0.0000      0.4796      0.0000      0.0000      0.0000
 41      0.0000      0.1969      0.0000      0.7703      0.0000      0.9648      0.3584      0.0000      0.0000
 42      0.0000      0.1341      0.2157      0.0000      0.0000      0.0000      0.0000      0.0000      0.0000
 43      0.0000      0.1689      0.0000      0.0000      0.0000      0.0000      0.7766      0.0000      0.1527
 44      0.0000      0.1876      0.1430      1.0466      0.0000      0.0000      0.0000      0.8571      0.0000
 45      0.0000      0.6683      0.6810      0.0000      0.0000      0.0000      0.0000      0.0000      0.5485
 46      0.0000      5.4228      4.5678      3.7493      5.4185      5.7202      3.2223      0.0000      5.3649
