###################################################################
## OUTPUT of StarlightChains_v04.for    [Cid@UFSC - 01/Apr/2007] ##
###################################################################

## Some input info
2008B.txt                                [arq_obs]
Base.CB07.vall.4m                        [arq_base]
Masks.EmLines.NEW.gm                     [arq_masks]
StCv04.C11.config                        [arq_config]
   66                                    [N_base]
    0                                    [N_YAV_components = # of components with extra extinction!]
    0                                    [i_FitPowerLaw (1/0 = Yes/No)]
-9.99                                    [alpha_PowerLaw]
CCM                                      [red_law_option]
 1.458241                                [q_norm = A(l_norm)/A(V)]

## (Re)Sampling Parameters
 3741.00                                 [l_ini (A)]
 7218.00                                 [l_fin (A)]
    1.00                                 [dl    (A)]     (OBS: dl_cushion =    50.00 A)

## Normalization info
 4020.00                                 [l_norm (A) - for base]
 4010.00                                 [llow_norm (A) - window for f_obs]
 4060.00                                 [lupp_norm (A) - window for f_obs]
1.011317E-16                             [fobs_norm (in input units)]

## S/N
 3691.00                                 [llow_SN (A) - window for S/N]
 7268.00                                 [lupp_SN (A) - window for S/N]
   3.233                                 [S/N in S/N window]
   4.843                                 [S/N in norm. window]
  10.000                                 [S/N_err in S/N window]
  14.979                                 [S/N_err in norm. window]
  1.0000                                 [fscale_chi2]

## etc...
    -2007342                             [idum_orig]
  2383                                   [NOl_eff]
  1835                                   [Nl_eff]
   548    NSIGMA                         [Ntot_cliped & clip_method]
   641760                                [Nglobal_steps]
   7                                     [N_chains]
  12                                     [NEX0s_base = N_base in EX0s-fits]
 0   0   1        2   2.0   8.374E+01    [Clip-Bug, RC-Crash & Burn-In warning-flags, n_censored_weights, wei_nsig_threshold & wei_limit]
    10      9.858      9.352      0.506  [idt_all, wdt_TotTime, wdt_UsrTime & wdt_SysTime (sec)]

## Synthesis Results - Best model ##

 2.39782E+00                             [chi2/Nl_eff]
    13.10187                             [adev (%)]

    87.13190                             [sum-of-x (%)]
 1.25743E-16                             [Flux_tot (units of input spectrum!)]
 2.53113E-13                             [Mini_tot (???)]
 1.63134E-13                             [Mcor_tot (???)]

-142.61                                  [v0_min  (km/s)]
 101.78                                  [vd_min  (km/s)]
 0.2647                                  [AV_min  (mag)]
 0.0000                                  [YAV_min (mag)]

# j     x_j(%)      Mini_j(%)     Mcor_j(%)     age_j(yr)     Z_j      (L/M)_j    YAV?  Mstars   component_j        a/Fe...       SSP_chi2r SSP_adev(%)   SSP_AV   SSP_x(%)
  1      0.0000     0.0000E+00    0.0000E+00    1.000000E+06  0.00400  1.094E-02    0   1.0000   age020_m42            0.0000     3.1229E+00    14.3195   2.4117    69.6054
  2      0.0000     0.0000E+00    0.0000E+00    3.160000E+06  0.00400  4.007E-02    0   0.9999   age045_m42            0.0000     2.7402E+00    13.7070   1.6512    75.6091
  3      0.0000     0.0000E+00    0.0000E+00    5.010000E+06  0.00400  2.539E-02    0   0.9488   age055_m42            0.0000     2.8905E+00    13.9892   1.9860    73.2344
  4      0.0000     0.0000E+00    0.0000E+00    6.610000E+06  0.00400  2.620E-02    0   0.9220   age061_m42            0.0000     2.7152E+00    13.6788   1.5727    75.9250
  5      0.0000     0.0000E+00    0.0000E+00    1.000000E+07  0.00400  1.322E-02    0   0.8862   age070_m42            0.0000     2.8183E+00    13.8289   1.2844    77.6915
  6      0.0000     0.0000E+00    0.0000E+00    1.445000E+07  0.00400  7.883E-03    0   0.8571   age078_m42            0.0000     2.9057E+00    13.9747   1.6233    75.3072
  7      0.0000     0.0000E+00    0.0000E+00    2.512000E+07  0.00400  5.251E-03    0   0.8174   age090_m42            0.0000     2.8236E+00    13.8395   1.1515    78.2331
  8      0.0000     0.0000E+00    0.0000E+00    4.000000E+07  0.00400  3.649E-03    0   0.7851   age104_m42            0.0000     2.7475E+00    13.7180   0.9180    79.1227
  9      0.0000     0.0000E+00    0.0000E+00    5.500000E+07  0.00400  3.098E-03    0   0.7629   age110_m42            0.0000     2.6418E+00    13.5229   1.0688    79.2666
 10      0.0000     0.0000E+00    0.0000E+00    1.015200E+08  0.00400  2.228E-03    0   0.7207   age116_m42            0.0000     2.5770E+00    13.3902   1.0848    79.5938
 11      0.0000     0.0000E+00    0.0000E+00    2.861200E+08  0.00400  1.093E-03    0   0.6648   age125_m42            0.0000     2.5797E+00    13.4466   0.4960    82.6130
 12      0.0000     0.0000E+00    0.0000E+00    5.088000E+08  0.00400  6.597E-04    0   0.6365   age130_m42            0.0000     2.4928E+00    13.2904   0.4841    83.4497
 13      0.0000     0.0000E+00    0.0000E+00    1.434000E+09  0.00400  2.132E-04    0   0.5798   age139_m42            0.0000     2.4314E+00    13.1896  -0.4850    85.1121
 14      0.0000     0.0000E+00    0.0000E+00    4.250000E+09  0.00400  5.895E-05    0   0.5377   age158_m42            0.0000     2.6198E+00    13.5671  -0.8974    80.8120
 15      0.0000     0.0000E+00    0.0000E+00    7.500000E+09  0.00400  3.510E-05    0   0.5212   age171_m42            0.0000     2.7446E+00    13.7774  -1.0000    77.6386
 16      0.0000     0.0000E+00    0.0000E+00    1.300000E+10  0.00400  2.005E-05    0   0.5034   age193_m42            0.0000     3.0275E+00    14.2558  -1.0000    72.2750
 17      0.0000     0.0000E+00    0.0000E+00    1.800000E+10  0.00400  1.525E-05    0   0.4967   age213_m42            0.0000     3.0612E+00    14.3127  -1.0000    71.2820
 18      0.0000     0.0000E+00    0.0000E+00    1.000000E+06  0.00800  1.238E-02    0   1.0000   age020_m52            0.0000     3.1257E+00    14.3299   2.4095    69.7013
 19      0.0000     0.0000E+00    0.0000E+00    3.160000E+06  0.00800  3.074E-02    0   0.9966   age045_m52            0.0000     3.0848E+00    14.2965   2.3296    70.4287
 20      0.0000     0.0000E+00    0.0000E+00    5.010000E+06  0.00800  2.668E-02    0   0.9443   age055_m52            0.0000     2.9347E+00    14.0671   2.0724    72.4451
 21      0.0000     0.0000E+00    0.0000E+00    6.610000E+06  0.00800  2.136E-02    0   0.9177   age061_m52            0.0000     2.8433E+00    13.8572   0.7924    78.3212
 22      0.0000     0.0000E+00    0.0000E+00    1.000000E+07  0.00800  1.215E-02    0   0.8827   age070_m52            0.0000     2.9305E+00    14.0296   1.4662    77.3685
 23      0.0000     0.0000E+00    0.0000E+00    1.445000E+07  0.00800  8.717E-03    0   0.8552   age078_m52            0.0000     2.8735E+00    13.9285   1.5845    76.4983
 24      0.0000     0.0000E+00    0.0000E+00    2.512000E+07  0.00800  5.592E-03    0   0.8162   age090_m52            0.0000     2.8142E+00    13.8412   1.2113    79.2813
 25      0.0000     0.0000E+00    0.0000E+00    4.000000E+07  0.00800  3.896E-03    0   0.7841   age104_m52            0.0000     2.7210E+00    13.6926   1.1168    80.1612
 26      0.0000     0.0000E+00    0.0000E+00    1.015200E+08  0.00800  2.148E-03    0   0.7226   age116_m52            0.0000     2.5971E+00    13.4574   1.0504    80.2649
 27      0.0000     0.0000E+00    0.0000E+00    2.861200E+08  0.00800  9.925E-04    0   0.6683   age125_m52            0.0000     2.4713E+00    13.2337   0.5462    84.3221
 28      0.0000     0.0000E+00    0.0000E+00    9.047900E+08  0.00800  3.141E-04    0   0.6138   age135_m52            0.0000     2.4581E+00    13.2347  -0.2554    87.9943
 29      0.0000     0.0000E+00    0.0000E+00    1.434000E+09  0.00800  1.719E-04    0   0.5853   age139_m52            0.0000     2.5492E+00    13.4531  -0.8197    85.5522
 30      0.0000     0.0000E+00    0.0000E+00    2.500000E+09  0.00800  7.872E-05    0   0.5600   age150_m52            0.0000     2.6942E+00    13.7286  -1.0000    80.4638
 31      0.0000     0.0000E+00    0.0000E+00    4.250000E+09  0.00800  4.336E-05    0   0.5426   age158_m52            0.0000     2.7610E+00    13.8316  -1.0000    79.2051
 32      0.0000     0.0000E+00    0.0000E+00    6.250000E+09  0.00800  3.159E-05    0   0.5319   age166_m52            0.0000     3.1084E+00    14.3971  -1.0000    73.0634
 33      0.0000     0.0000E+00    0.0000E+00    1.300000E+10  0.00800  1.361E-05    0   0.5073   age193_m52            0.0000     4.6798E+00    17.0681  -1.0000    59.3528
 34      0.0000     0.0000E+00    0.0000E+00    1.800000E+10  0.00800  9.886E-06    0   0.4990   age213_m52            0.0000     5.2130E+00    17.8614  -1.0000    56.2699
 35      0.0000     0.0000E+00    0.0000E+00    1.000000E+06  0.02000  1.544E-02    0   1.0000   age020_m62            0.0000     3.1361E+00    14.3540   2.4058    69.8502
 36      0.0000     0.0000E+00    0.0000E+00    3.160000E+06  0.02000  3.762E-02    0   0.9858   age045_m62            0.0000     3.1179E+00    14.3558   2.3437    70.4933
 37      0.0000     0.0000E+00    0.0000E+00    5.010000E+06  0.02000  3.296E-02    0   0.9342   age055_m62            0.0000     2.8036E+00    13.8645   1.9380    74.4180
 38      0.0000     0.0000E+00    0.0000E+00    8.710000E+06  0.02000  1.154E-02    0   0.8861   age067_m62            0.0000     3.6666E+00    15.3146   0.9138    79.3801
 39      0.0000     0.0000E+00    0.0000E+00    1.445000E+07  0.02000  7.663E-03    0   0.8472   age078_m62            0.0000     3.0872E+00    14.3102   1.1058    79.2708
 40      0.0000     0.0000E+00    0.0000E+00    2.512000E+07  0.02000  4.532E-03    0   0.8099   age090_m62            0.0000     3.1014E+00    14.3630   1.0944    79.1654
 41      0.0000     0.0000E+00    0.0000E+00    5.500000E+07  0.02000  2.733E-03    0   0.7595   age110_m62            0.0000     2.7426E+00    13.7274   1.1032    79.4472
 42      0.0000     0.0000E+00    0.0000E+00    1.609000E+08  0.02000  1.369E-03    0   0.6985   age120_m62            0.0000     2.5353E+00    13.3242   0.9226    82.4301
 43     33.9199     2.1457E+01    2.2353E+01    2.861200E+08  0.02000  9.013E-04    0   0.6714   age125_m62            0.0000     2.4536E+00    13.1811   0.6577    85.3993
 44      0.0000     0.0000E+00    0.0000E+00    5.088000E+08  0.02000  5.028E-04    0   0.6449   age130_m62            0.0000     2.4172E+00    13.1326   0.2756    87.8982
 45      0.0000     0.0000E+00    0.0000E+00    9.047900E+08  0.02000  2.428E-04    0   0.6179   age135_m62            0.0000     2.4904E+00    13.3080  -0.2973    86.8548
 46      0.0000     0.0000E+00    0.0000E+00    1.434000E+09  0.02000  1.263E-04    0   0.5908   age139_m62            0.0000     2.6247E+00    13.5845  -0.7249    84.9437
 47      0.0623     5.9328E-01    5.2220E-01    2.500000E+09  0.02000  5.985E-05    0   0.5673   age150_m62            0.0000     2.8283E+00    13.9567  -1.0000    80.8290
 48      0.0000     0.0000E+00    0.0000E+00    4.250000E+09  0.02000  3.271E-05    0   0.5468   age158_m62            0.0000     3.4320E+00    14.9198  -1.0000    70.8637
 49      0.0000     0.0000E+00    0.0000E+00    1.000000E+10  0.02000  1.360E-05    0   0.5167   age181_m62            0.0000     4.7300E+00    16.9883  -1.0000    60.7189
 50      0.0000     0.0000E+00    0.0000E+00    1.800000E+10  0.02000  7.124E-06    0   0.5013   age213_m62            0.0000     5.7447E+00    18.4955  -1.0000    54.7954
 51      0.0000     0.0000E+00    0.0000E+00    1.000000E+06  0.05000  2.592E-02    0   0.9998   age020_m72            0.0000     3.1819E+00    14.4254   2.3999    69.7809
 52      0.0000     0.0000E+00    0.0000E+00    3.160000E+06  0.05000  4.845E-02    0   0.9577   age045_m72            0.0000     2.9893E+00    14.1897   2.2172    71.7533
 53      0.0000     0.0000E+00    0.0000E+00    5.010000E+06  0.05000  3.072E-02    0   0.9147   age055_m72            0.0000     3.1035E+00    14.3431   1.7088    75.6707
 54      0.0000     0.0000E+00    0.0000E+00    6.610000E+06  0.05000  1.455E-02    0   0.8877   age061_m72            0.0000     4.4619E+00    16.7327   0.9426    80.2853
 55      0.0000     0.0000E+00    0.0000E+00    1.000000E+07  0.05000  9.074E-03    0   0.8524   age070_m72            0.0000     3.2754E+00    14.6774   1.8824    75.6086
 56      0.0000     0.0000E+00    0.0000E+00    2.512000E+07  0.05000  4.250E-03    0   0.7902   age090_m72            0.0000     3.0060E+00    14.2283   1.5690    77.6236
 57      0.0000     0.0000E+00    0.0000E+00    4.000000E+07  0.05000  3.087E-03    0   0.7618   age104_m72            0.0000     2.9659E+00    14.1632   1.3305    79.3057
 58      0.0000     0.0000E+00    0.0000E+00    1.015200E+08  0.05000  1.700E-03    0   0.7096   age116_m72            0.0000     2.6063E+00    13.4639   1.0620    82.1328
 59      1.9658     1.5179E+00    1.5621E+00    2.861200E+08  0.05000  7.384E-04    0   0.6633   age125_m72            0.0000     2.4180E+00    13.1239   0.5220    86.7417
 60     51.1750     7.6401E+01    7.5534E+01    5.088000E+08  0.05000  3.819E-04    0   0.6372   age130_m72            0.0000     2.4271E+00    13.1641   0.0382    87.8764
 61      0.0089     3.0354E-02    2.8776E-02    9.047900E+08  0.05000  1.676E-04    0   0.6110   age135_m72            0.0000     2.6957E+00    13.7137  -0.6269    85.1803
 62      0.0000     0.0000E+00    0.0000E+00    1.434000E+09  0.05000  8.837E-05    0   0.5874   age139_m72            0.0000     2.8763E+00    14.0250  -1.0000    82.0031
 63      0.0000     0.0000E+00    0.0000E+00    2.500000E+09  0.05000  4.233E-05    0   0.5598   age150_m72            0.0000     3.5016E+00    15.0237  -1.0000    71.4462
 64      0.0000     0.0000E+00    0.0000E+00    6.250000E+09  0.05000  1.435E-05    0   0.5249   age166_m72            0.0000     5.1615E+00    17.6863  -1.0000    57.9027
 65      0.0000     0.0000E+00    0.0000E+00    1.300000E+10  0.05000  6.513E-06    0   0.5036   age193_m72            0.0000     6.6176E+00    19.7803  -1.0000    51.3839
 66      0.0000     0.0000E+00    0.0000E+00    1.800000E+10  0.05000  4.527E-06    0   0.4945   age213_m72            0.0000     7.5424E+00    21.0187  -1.0000    47.5241


## Synthesis Results - Average & Chains ##

# j      x_j: min, <> & last-chain-values for 1 ...  7 chains
  1      0.0000      0.0740      0.0000      0.0000      0.0000      0.0000      0.0000      0.0000      0.0000
  2      0.0000      0.2333      0.0000      0.0000      0.0000      0.0000      0.0000      0.0000      1.9103
  3      0.0000      0.1471      0.1734      0.0000      0.0000      0.0000      0.0000      0.0000      0.0000
  4      0.0000      0.1233      0.0000      0.0000      0.5431      0.0000      0.0000      0.0000      0.0000
  5      0.0000      0.1545      0.0000      0.0000      0.0000      0.0000      0.0290      0.0000      0.0000
  6      0.0000      0.1629      0.0272      1.2933      0.7946      0.0000      0.0000      0.0000      0.2247
  7      0.0000      0.2617      0.0000      0.0000      0.1929      0.0000      0.5183      0.0000      0.0000
  8      0.0000      0.4154      0.0000      0.0000      0.0000      2.3129      1.8731      0.0000      0.0000
  9      0.0000      0.3029      0.0000      0.0000      0.0752      0.0674      0.0000      0.0000      0.0000
 10      0.0000      0.4387      0.0000      2.0666      0.0000      0.3309      0.0000      0.0000      0.0976
 11      0.0000      0.7485      0.0000      0.0000      2.2262      0.0000      0.5191      0.0000      0.0000
 12      0.0000      1.7314      0.0000      0.0000      0.0000      0.0000      0.0000      0.9169      1.0872
 13      0.0000      0.2856      0.0000      0.2478      0.0000      0.0000      0.0000      0.5705      1.1943
 14      0.0000      0.1210      0.0000      0.0000      0.0000      0.0000      0.0000      0.0000      0.0000
 15      0.0000      0.0817      0.0000      0.0000      0.0000      0.0000      0.0000      0.0000      0.0000
 16      0.0000      0.0054      0.0000      0.0000      0.0000      0.0000      0.0000      0.0000      0.0000
 17      0.0000      0.0194      0.0000      0.0000      0.0000      0.0000      0.0000      0.0817      0.0000
 18      0.0000      0.0637      0.0000      0.0000      0.0000      0.0000      0.0543      0.0000      0.0000
 19      0.0000      0.1385      0.0000      0.0000      0.0000      0.0000      0.0000      0.0000      0.0000
 20      0.0000      0.1012      0.0000      0.0000      0.2755      0.0000      0.0000      0.0000      0.0000
 21      0.0000      0.3738      0.4026      0.0000      0.0737      0.0000      0.0000      0.0000      0.2782
 22      0.0000      0.1201      0.0000      0.0000      0.0000      0.4546      0.0000      0.0000      0.0000
 23      0.0000      0.1553      0.3493      0.0000      0.0000      0.0000      0.0000      0.0000      0.0000
 24      0.0000      0.2391      0.5806      0.0000      0.0000      0.7385      0.0000      0.0000      0.0000
 25      0.0000      0.4947      3.5274      0.0000      0.3555      0.1127      0.0000      3.7150      0.0000
 26      0.0000      0.3870      0.0000      0.0000      0.0000      0.0000      1.3034      0.0000      1.9991
 27      0.0000      2.3991      4.0730      3.8280      0.2615      0.0000      0.0260      0.0000      0.0866
 28      0.0000      0.7472      0.0000      0.0000      0.2544      1.8828      3.3890      0.0000      0.0000
 29      0.0000      0.0921      0.0000      0.0000      0.0000      0.0000      0.0000      0.0000      0.0000
 30      0.0000      0.2250      0.0000      0.0000      0.0000      0.2234      0.0000      0.0000      0.0000
 31      0.0000      0.0572      0.0000      0.2382      0.0000      0.0000      0.0000      0.0000      0.0000
 32      0.0000      0.1492      0.0000      0.0000      0.4664      0.5392      0.4148      0.0000      0.0000
 33      0.0000      0.1138      0.0000      0.0000      0.0000      0.0000      0.0000      0.1676      0.9156
 34      0.0000      0.0090      0.0000      0.0000      0.0000      0.0000      0.0000      0.0000      0.2057
 35      0.0000      0.1170      0.1752      0.0000      0.0729      0.0000      0.0000      0.0000      0.0000
 36      0.0000      0.0745      0.0000      0.0000      0.0000      0.0000      0.0000      0.0000      0.0000
 37      0.0000      0.2555      0.0000      0.0889      1.0536      0.0000      0.0000      0.0000      0.0000
 38      0.0000      0.1036      0.0000      0.0000      0.0000      0.0000      0.0000      0.0000      0.0000
 39      0.0000      0.1144      0.0000      0.0000      0.0000      0.0000      0.0000      0.0000      0.0000
 40      0.0000      0.2066      0.0000      0.0000      0.0000      0.0000      0.0000      0.0000      0.0000
 41      0.0000      0.2158      0.0000      0.0000      0.0000      0.0000      0.0000      1.5546      0.0000
 42      0.0000      2.1302      0.0000      2.7880      0.0000      3.1078      1.7913      3.3883      2.1329
 43     33.9199      6.1401      5.9127      6.5522      7.9266     12.3198      8.3020      6.7222     10.2878
 44      0.0000     19.1651     16.2511     20.0692     15.0821     16.1355     11.6308     27.6456     19.4181
 45      0.0000      1.6382      1.3308      1.6559      0.0000      0.0000      1.4937      0.0746      0.0000
 46      0.0000      0.4675      0.0000      0.0046      0.0000      1.1149      0.0000      0.0000      0.0000
