###################################################################
## OUTPUT of StarlightChains_v04.for    [Cid@UFSC - 01/Apr/2007] ##
###################################################################

## Some input info
2008gj.txt                               [arq_obs]
Base.CB07.vall.4m                        [arq_base]
Masks.EmLines.NEW.gm                     [arq_masks]
StCv04.C11.config                        [arq_config]
   66                                    [N_base]
    0                                    [N_YAV_components = # of components with extra extinction!]
    0                                    [i_FitPowerLaw (1/0 = Yes/No)]
-9.99                                    [alpha_PowerLaw]
CCM                                      [red_law_option]
 1.458241                                [q_norm = A(l_norm)/A(V)]

## (Re)Sampling Parameters
 3741.00                                 [l_ini (A)]
 7218.00                                 [l_fin (A)]
    1.00                                 [dl    (A)]     (OBS: dl_cushion =    50.00 A)

## Normalization info
 4020.00                                 [l_norm (A) - for base]
 4010.00                                 [llow_norm (A) - window for f_obs]
 4060.00                                 [lupp_norm (A) - window for f_obs]
1.304625E-17                             [fobs_norm (in input units)]

## S/N
 3691.00                                 [llow_SN (A) - window for S/N]
 7268.00                                 [lupp_SN (A) - window for S/N]
   5.550                                 [S/N in S/N window]
   7.012                                 [S/N in norm. window]
   4.772                                 [S/N_err in S/N window]
   6.030                                 [S/N_err in norm. window]
  1.0000                                 [fscale_chi2]

## etc...
    -2007346                             [idum_orig]
  2380                                   [NOl_eff]
  2380                                   [Nl_eff]
     0    NSIGMA                         [Ntot_cliped & clip_method]
  1093260                                [Nglobal_steps]
   7                                     [N_chains]
  21                                     [NEX0s_base = N_base in EX0s-fits]
 0   0   1        0   2.0   9.251E+00    [Clip-Bug, RC-Crash & Burn-In warning-flags, n_censored_weights, wei_nsig_threshold & wei_limit]
    10     10.720     10.209      0.511  [idt_all, wdt_TotTime, wdt_UsrTime & wdt_SysTime (sec)]

## Synthesis Results - Best model ##

 3.43432E-01                             [chi2/Nl_eff]
    10.35208                             [adev (%)]

   100.91502                             [sum-of-x (%)]
 1.14003E-17                             [Flux_tot (units of input spectrum!)]
 1.15610E-13                             [Mini_tot (???)]
 6.51528E-14                             [Mcor_tot (???)]

  54.92                                  [v0_min  (km/s)]
 368.80                                  [vd_min  (km/s)]
-0.1072                                  [AV_min  (mag)]
 0.0000                                  [YAV_min (mag)]

# j     x_j(%)      Mini_j(%)     Mcor_j(%)     age_j(yr)     Z_j      (L/M)_j    YAV?  Mstars   component_j        a/Fe...       SSP_chi2r SSP_adev(%)   SSP_AV   SSP_x(%)
  1      2.5379     2.2669E-02    4.0225E-02    1.000000E+06  0.00400  1.094E-02    0   1.0000   age020_m42            0.0000     3.6831E-01    10.7923   2.5351    87.5605
  2      0.0000     0.0000E+00    0.0000E+00    3.160000E+06  0.00400  4.007E-02    0   0.9999   age045_m42            0.0000     3.7541E-01    10.8585   1.8321    92.5972
  3      0.0000     0.0000E+00    0.0000E+00    5.010000E+06  0.00400  2.539E-02    0   0.9488   age055_m42            0.0000     3.6704E-01    10.7777   2.1404    90.8192
  4      0.0000     0.0000E+00    0.0000E+00    6.610000E+06  0.00400  2.620E-02    0   0.9220   age061_m42            0.0000     3.7485E-01    10.8695   1.7548    92.9563
  5      0.0000     0.0000E+00    0.0000E+00    1.000000E+07  0.00400  1.322E-02    0   0.8862   age070_m42            0.0000     3.7847E-01    11.0229   1.4471    96.0281
  6      0.0000     0.0000E+00    0.0000E+00    1.445000E+07  0.00400  7.883E-03    0   0.8571   age078_m42            0.0000     3.7295E-01    10.9654   1.7717    93.7016
  7      0.0000     0.0000E+00    0.0000E+00    2.512000E+07  0.00400  5.251E-03    0   0.8174   age090_m42            0.0000     3.8543E-01    11.1230   1.3141    96.6922
  8      0.0000     0.0000E+00    0.0000E+00    4.000000E+07  0.00400  3.649E-03    0   0.7851   age104_m42            0.0000     3.8547E-01    11.0876   1.0920    97.2750
  9      0.0000     0.0000E+00    0.0000E+00    5.500000E+07  0.00400  3.098E-03    0   0.7629   age110_m42            0.0000     3.8762E-01    11.0769   1.2610    96.5985
 10      0.0000     0.0000E+00    0.0000E+00    1.015200E+08  0.00400  2.228E-03    0   0.7207   age116_m42            0.0000     3.9226E-01    11.1335   1.2926    96.2995
 11      0.0000     0.0000E+00    0.0000E+00    2.861200E+08  0.00400  1.093E-03    0   0.6648   age125_m42            0.0000     4.0268E-01    11.2887   0.7190    99.3795
 12      0.0000     0.0000E+00    0.0000E+00    5.088000E+08  0.00400  6.597E-04    0   0.6365   age130_m42            0.0000     4.0296E-01    11.2700   0.7252    99.5087
 13      0.0000     0.0000E+00    0.0000E+00    1.434000E+09  0.00400  2.132E-04    0   0.5798   age139_m42            0.0000     3.9200E-01    11.0106  -0.2343   101.0449
 14      0.0000     0.0000E+00    0.0000E+00    4.250000E+09  0.00400  5.895E-05    0   0.5377   age158_m42            0.0000     3.6984E-01    10.6588  -0.6664    96.8930
 15      0.0000     0.0000E+00    0.0000E+00    7.500000E+09  0.00400  3.510E-05    0   0.5212   age171_m42            0.0000     3.7595E-01    10.7056  -0.8474    95.9902
 16      0.0000     0.0000E+00    0.0000E+00    1.300000E+10  0.00400  2.005E-05    0   0.5034   age193_m42            0.0000     3.8434E-01    10.7732  -1.0000    95.0092
 17      0.0000     0.0000E+00    0.0000E+00    1.800000E+10  0.00400  1.525E-05    0   0.4967   age213_m42            0.0000     3.8238E-01    10.7529  -1.0000    93.7386
 18      3.6761     2.9015E-02    5.1486E-02    1.000000E+06  0.00800  1.238E-02    0   1.0000   age020_m52            0.0000     3.6747E-01    10.7824   2.5314    87.7329
 19      0.0000     0.0000E+00    0.0000E+00    3.160000E+06  0.00800  3.074E-02    0   0.9966   age045_m52            0.0000     3.6631E-01    10.7691   2.4574    88.4107
 20      0.0039     1.4245E-05    2.3868E-05    5.010000E+06  0.00800  2.668E-02    0   0.9443   age055_m52            0.0000     3.6469E-01    10.7617   2.2181    90.2065
 21     15.5761     7.1257E-02    1.1603E-01    6.610000E+06  0.00800  2.136E-02    0   0.9177   age061_m52            0.0000     3.5767E-01    10.6723   0.9449    97.2724
 22      0.0000     0.0000E+00    0.0000E+00    1.000000E+07  0.00800  1.215E-02    0   0.8827   age070_m52            0.0000     3.7950E-01    11.0820   1.6165    96.2431
 23      0.0000     0.0000E+00    0.0000E+00    1.445000E+07  0.00800  8.717E-03    0   0.8552   age078_m52            0.0000     3.7258E-01    10.9583   1.7376    94.9854
 24      0.0000     0.0000E+00    0.0000E+00    2.512000E+07  0.00800  5.592E-03    0   0.8162   age090_m52            0.0000     3.8670E-01    11.1453   1.3785    97.8197
 25      0.0000     0.0000E+00    0.0000E+00    4.000000E+07  0.00800  3.896E-03    0   0.7841   age104_m52            0.0000     3.8841E-01    11.1358   1.2994    98.1854
 26      0.0000     0.0000E+00    0.0000E+00    1.015200E+08  0.00800  2.148E-03    0   0.7226   age116_m52            0.0000     3.8765E-01    11.0732   1.2537    97.3473
 27      0.0000     0.0000E+00    0.0000E+00    2.861200E+08  0.00800  9.925E-04    0   0.6683   age125_m52            0.0000     4.0563E-01    11.3063   0.7893   100.4556
 28      0.0000     0.0000E+00    0.0000E+00    9.047900E+08  0.00800  3.141E-04    0   0.6138   age135_m52            0.0000     4.0603E-01    11.2528   0.0171   103.4863
 29      0.0000     0.0000E+00    0.0000E+00    1.434000E+09  0.00800  1.719E-04    0   0.5853   age139_m52            0.0000     3.8219E-01    10.8900  -0.5666   101.6453
 30      0.0000     0.0000E+00    0.0000E+00    2.500000E+09  0.00800  7.872E-05    0   0.5600   age150_m52            0.0000     3.8497E-01    10.8547  -0.8185    98.2874
 31      0.0139     3.1316E-02    3.0152E-02    4.250000E+09  0.00800  4.336E-05    0   0.5426   age158_m52            0.0000     3.8430E-01    10.8277  -0.8352    97.4265
 32      0.0000     0.0000E+00    0.0000E+00    6.250000E+09  0.00800  3.159E-05    0   0.5319   age166_m52            0.0000     4.0281E-01    11.0543  -1.0000    95.9861
 33      0.0000     0.0000E+00    0.0000E+00    1.300000E+10  0.00800  1.361E-05    0   0.5073   age193_m52            0.0000     6.0843E-01    13.6767  -1.0000    78.4017
 34      0.0000     0.0000E+00    0.0000E+00    1.800000E+10  0.00800  9.886E-06    0   0.4990   age213_m52            0.0000     7.0204E-01    14.7261  -1.0000    74.4146
 35      4.4188     2.7966E-02    4.9623E-02    1.000000E+06  0.02000  1.544E-02    0   1.0000   age020_m62            0.0000     3.6690E-01    10.7782   2.5269    87.9617
 36     15.3229     3.9801E-02    6.9621E-02    3.160000E+06  0.02000  3.762E-02    0   0.9858   age045_m62            0.0000     3.6480E-01    10.7522   2.4670    88.6989
 37      0.0000     0.0000E+00    0.0000E+00    5.010000E+06  0.02000  3.296E-02    0   0.9342   age055_m62            0.0000     3.6911E-01    10.7934   2.1057    91.7226
 38      0.0000     0.0000E+00    0.0000E+00    8.710000E+06  0.02000  1.154E-02    0   0.8861   age067_m62            0.0000     4.6051E-01    12.2305   1.0126   101.4273
 39      0.0000     0.0000E+00    0.0000E+00    1.445000E+07  0.02000  7.663E-03    0   0.8472   age078_m62            0.0000     3.9196E-01    11.2925   1.2461    99.1912
 40      0.0000     0.0000E+00    0.0000E+00    2.512000E+07  0.02000  4.532E-03    0   0.8099   age090_m62            0.0000     4.0340E-01    11.4545   1.2373    98.9565
 41      0.0000     0.0000E+00    0.0000E+00    5.500000E+07  0.02000  2.733E-03    0   0.7595   age110_m62            0.0000     3.8140E-01    11.0497   1.2794    97.6167
 42      0.0000     0.0000E+00    0.0000E+00    1.609000E+08  0.02000  1.369E-03    0   0.6985   age120_m62            0.0000     3.9898E-01    11.2478   1.1428    99.1984
 43      0.0000     0.0000E+00    0.0000E+00    2.861200E+08  0.02000  9.013E-04    0   0.6714   age125_m62            0.0000     4.1658E-01    11.4612   0.9062   101.4158
 44      0.0000     0.0000E+00    0.0000E+00    5.088000E+08  0.02000  5.028E-04    0   0.6449   age130_m62            0.0000     4.2324E-01    11.4890   0.5541   102.9799
 45      0.0000     0.0000E+00    0.0000E+00    9.047900E+08  0.02000  2.428E-04    0   0.6179   age135_m62            0.0000     3.9944E-01    11.1470  -0.0258   102.1950
 46      0.0000     0.0000E+00    0.0000E+00    1.434000E+09  0.02000  1.263E-04    0   0.5908   age139_m62            0.0000     3.8943E-01    10.9538  -0.4700   100.7675
 47      4.8563     7.9288E+00    7.9815E+00    2.500000E+09  0.02000  5.985E-05    0   0.5673   age150_m62            0.0000     4.0053E-01    11.0380  -0.8220    98.8614
 48      0.0000     0.0000E+00    0.0000E+00    4.250000E+09  0.02000  3.271E-05    0   0.5468   age158_m62            0.0000     4.4212E-01    11.5720  -1.0000    93.1605
 49      0.0000     0.0000E+00    0.0000E+00    1.000000E+10  0.02000  1.360E-05    0   0.5167   age181_m62            0.0000     6.2520E-01    13.8164  -1.0000    80.1536
 50      0.0000     0.0000E+00    0.0000E+00    1.800000E+10  0.02000  7.124E-06    0   0.5013   age213_m62            0.0000     8.0302E-01    15.7334  -1.0000    72.5190
 51      9.2448     3.4852E-02    6.1831E-02    1.000000E+06  0.05000  2.592E-02    0   0.9998   age020_m72            0.0000     3.6698E-01    10.7850   2.5159    88.0869
 52      0.0000     0.0000E+00    0.0000E+00    3.160000E+06  0.05000  4.845E-02    0   0.9577   age045_m72            0.0000     3.6585E-01    10.7616   2.3578    89.5612
 53      0.0000     0.0000E+00    0.0000E+00    5.010000E+06  0.05000  3.072E-02    0   0.9147   age055_m72            0.0000     3.6964E-01    10.9839   1.8463    94.8739
 54      0.0016     1.1060E-05    1.7422E-05    6.610000E+06  0.05000  1.455E-02    0   0.8877   age061_m72            0.0000     5.7440E-01    13.5914   1.0414   103.2607
 55      0.0000     0.0000E+00    0.0000E+00    1.000000E+07  0.05000  9.074E-03    0   0.8524   age070_m72            0.0000     3.9210E-01    11.2654   2.0326    94.5490
 56      0.0000     0.0000E+00    0.0000E+00    2.512000E+07  0.05000  4.250E-03    0   0.7902   age090_m72            0.0000     3.9255E-01    11.2761   1.7367    96.0451
 57      0.0000     0.0000E+00    0.0000E+00    4.000000E+07  0.05000  3.087E-03    0   0.7618   age104_m72            0.0000     4.0579E-01    11.4495   1.5083    97.6561
 58      0.0000     0.0000E+00    0.0000E+00    1.015200E+08  0.05000  1.700E-03    0   0.7096   age116_m72            0.0000     4.0190E-01    11.3098   1.2757    99.1928
 59      0.0000     0.0000E+00    0.0000E+00    2.861200E+08  0.05000  7.384E-04    0   0.6633   age125_m72            0.0000     4.1953E-01    11.4735   0.7879   102.1963
 60      0.0000     0.0000E+00    0.0000E+00    5.088000E+08  0.05000  3.819E-04    0   0.6372   age130_m72            0.0000     4.0925E-01    11.2885   0.3130   103.1452
 61      6.9964     4.0791E+00    4.4225E+00    9.047900E+08  0.05000  1.676E-04    0   0.6110   age135_m72            0.0000     4.0737E-01    11.1959  -0.3638   100.6440
 62      0.4996     5.5242E-01    5.7579E-01    1.434000E+09  0.05000  8.837E-05    0   0.5874   age139_m72            0.0000     4.1161E-01    11.1828  -0.8185   100.1403
 63     37.7668     8.7183E+01    8.6601E+01    2.500000E+09  0.05000  4.233E-05    0   0.5598   age150_m72            0.0000     4.5343E-01    11.7210  -1.0000    93.9447
 64      0.0000     0.0000E+00    0.0000E+00    6.250000E+09  0.05000  1.435E-05    0   0.5249   age166_m72            0.0000     6.9767E-01    14.6133  -1.0000    76.5407
 65      0.0000     0.0000E+00    0.0000E+00    1.300000E+10  0.05000  6.513E-06    0   0.5036   age193_m72            0.0000     9.6701E-01    17.3719  -1.0000    68.1621
 66      0.0000     0.0000E+00    0.0000E+00    1.800000E+10  0.05000  4.527E-06    0   0.4945   age213_m72            0.0000     1.1508E+00    19.0896  -1.0000    63.1711


## Synthesis Results - Average & Chains ##

# j      x_j: min, <> & last-chain-values for 1 ...  7 chains
  1      2.5379      1.1606      1.6329      0.1594      4.4798      0.0000      2.9854      0.0000      1.2703
  2      0.0000      0.8604      0.0000      4.5655      0.0000      0.0000      0.0000      2.8987      2.0381
  3      0.0000      1.0904      0.0000      0.0000      2.9671      0.0000      0.0000      0.0000      0.0000
  4      0.0000      0.5533      0.0000      0.0000      0.0000      0.0000      0.0890      2.6735      2.7852
  5      0.0000      0.6424      0.0000      0.0000      0.0000      0.0000      0.0000      0.0000      0.0000
  6      0.0000      0.9090      0.0000      6.7268      0.0000      0.0000      0.0000      0.0000      0.0000
  7      0.0000      0.8450      0.0000      0.0000      0.0000      1.4233      0.0000      0.0000      0.0000
  8      0.0000      0.5597      0.4159      0.0000      0.0000      0.0000      0.0000      0.0000      0.0000
  9      0.0000      0.8013      0.0000      0.0000      0.0000      0.0000      1.2855      0.0038      0.6974
 10      0.0000      0.3669      0.0000      0.0000      0.0000      0.0000      0.0000      0.0000      0.0000
 11      0.0000      0.8326      0.0000      0.7491      0.0000      0.0000      0.0000      0.0000      1.4553
 12      0.0000      0.6946      0.8562      0.0000      0.0000      0.0000      0.0000      0.0000      0.0000
 13      0.0000      0.8269      0.0000      0.0000      0.0000      0.0000      0.0000      0.0000      0.3620
 14      0.0000      5.1121      2.6276      6.2284      9.2700      6.6904      2.0442      0.0000      9.9443
 15      0.0000      1.1748      0.1395      0.0000      0.0000      3.7829      2.1298      0.9514      0.8122
 16      0.0000      0.5034      0.0000      0.0000      0.0000      0.0000      0.0000      2.1740      0.0000
 17      0.0000      0.4990      0.8286      0.0000      0.0000      0.0000      0.2636      2.0060      0.0000
 18      3.6761      0.8892      0.0000      4.2179      0.0000      0.3020      0.8221      3.6021      0.0000
 19      0.0000      1.0094      0.0000      3.4176      0.0000      0.0000      0.0000      0.0000      4.1676
 20      0.0039      2.1517      0.0000      2.9707      3.7721      1.9971      5.3257      1.6413      3.1427
 21     15.5761     17.3220     25.1678     19.3186     21.2832     20.1634     28.1439     18.1041     23.7864
 22      0.0000      1.3908      6.4201      0.0000      3.6121      0.0000      0.3539      0.6386      0.0000
 23      0.0000      0.8450      0.0000      0.0000      0.0000      5.8553      0.0000      0.0000      0.0000
 24      0.0000      1.2431      0.0000      0.0000      7.9384      0.0000      0.0000      0.0000      0.0000
 25      0.0000      0.4345      0.0000      0.0000      0.3113      0.0000      0.0000      0.0000      0.0000
 26      0.0000      0.9134      0.0000      0.0000      1.4983      0.0000      0.0000      0.0000      0.0000
 27      0.0000      0.6355      0.0000      0.0000      0.0000      0.5943      0.0000      0.0000      0.0000
 28      0.0000      1.1624      0.0000      0.0000      0.0000      0.0000      0.0000      0.0000      0.0000
 29      0.0000      1.2034      0.0453      0.0000      0.0000      2.2489      0.0000      0.0000      0.9411
 30      0.0000      3.2561      4.5180      4.9308      5.7501      0.0000      5.1551      0.0000      5.4454
 31      0.0139      1.0022      0.0000      0.4486      0.0000      0.5624      3.5495      0.0000      1.6509
 32      0.0000      0.9270      0.0000      0.0000      0.0000      0.0000      0.0000      1.6245      0.0000
 33      0.0000      0.1218      0.0000      0.0000      0.0000      0.0000      0.0000      0.0000      0.0000
 34      0.0000      0.1452      0.0000      0.0349      0.0000      0.0000      1.0325      0.6112      0.0000
 35      4.4188      1.4000      1.8129      2.2481      0.0000      0.0000      2.4855      4.6446      2.0614
 36     15.3229      0.8696      0.0000      0.0000      0.0000      1.6470      2.2268      2.9855      4.0470
 37      0.0000      0.8228      0.0000      0.0000      0.0000      0.0000      0.0000      0.0000      0.0000
 38      0.0000      1.1502      0.0000      2.9459      1.6649      2.5322      0.0000      0.0000      0.0000
 39      0.0000      0.9115      0.7297      0.0000      0.0000      0.3301      0.7388      1.0405      2.5957
 40      0.0000      0.8460      6.3799      0.0000      0.0000      4.8764      0.0000      0.0000      0.0000
 41      0.0000      0.8649      1.4843      0.0000      0.0000      0.0000      0.0000      0.0000      0.0000
 42      0.0000      0.5699      0.0000      0.1485      0.0000      0.0000      0.1567      0.0000      0.0000
 43      0.0000      0.5573      0.0000      0.3495      0.0000      0.0000      0.4736      0.3899      0.0000
 44      0.0000      0.6605      1.3737      0.0000      0.0000      0.0000      0.0000      0.0000      0.0000
 45      0.0000      2.6471      0.0000      0.0000      0.0000      0.0000      0.0000      1.4033      2.4071
 46      0.0000      3.1537      0.0000      5.1648      3.9488      2.6848      0.0000      6.4853      0.0000
