###################################################################
## OUTPUT of StarlightChains_v04.for    [Cid@UFSC - 01/Apr/2007] ##
###################################################################

## Some input info
2008dt.txt                               [arq_obs]
Base.CB07.vall.4m                        [arq_base]
Masks.EmLines.NEW.gm                     [arq_masks]
StCv04.C11.config                        [arq_config]
   66                                    [N_base]
    0                                    [N_YAV_components = # of components with extra extinction!]
    0                                    [i_FitPowerLaw (1/0 = Yes/No)]
-9.99                                    [alpha_PowerLaw]
CCM                                      [red_law_option]
 1.458241                                [q_norm = A(l_norm)/A(V)]

## (Re)Sampling Parameters
 3741.00                                 [l_ini (A)]
 7218.00                                 [l_fin (A)]
    1.00                                 [dl    (A)]     (OBS: dl_cushion =    50.00 A)

## Normalization info
 4020.00                                 [l_norm (A) - for base]
 4010.00                                 [llow_norm (A) - window for f_obs]
 4060.00                                 [lupp_norm (A) - window for f_obs]
2.816786E-17                             [fobs_norm (in input units)]

## S/N
 3691.00                                 [llow_SN (A) - window for S/N]
 7268.00                                 [lupp_SN (A) - window for S/N]
   4.049                                 [S/N in S/N window]
   3.236                                 [S/N in norm. window]
   0.000                                 [S/N_err in S/N window]
   0.000                                 [S/N_err in norm. window]
  1.0000                                 [fscale_chi2]

## etc...
    -2007344                             [idum_orig]
  2054                                   [NOl_eff]
  1982                                   [Nl_eff]
    72    NSIGMA                         [Ntot_cliped & clip_method]
  1285620                                [Nglobal_steps]
   7                                     [N_chains]
  23                                     [NEX0s_base = N_base in EX0s-fits]
 0   0   1        6   2.0   1.674E+01    [Clip-Bug, RC-Crash & Burn-In warning-flags, n_censored_weights, wei_nsig_threshold & wei_limit]
    14     13.573     13.066      0.507  [idt_all, wdt_TotTime, wdt_UsrTime & wdt_SysTime (sec)]

## Synthesis Results - Best model ##

 1.33829E+00                             [chi2/Nl_eff]
    32.24105                             [adev (%)]

   104.95336                             [sum-of-x (%)]
 5.43994E-17                             [Flux_tot (units of input spectrum!)]
 1.14229E-12                             [Mini_tot (???)]
 6.11607E-13                             [Mcor_tot (???)]

 -12.43                                  [v0_min  (km/s)]
 258.82                                  [vd_min  (km/s)]
 0.4540                                  [AV_min  (mag)]
 0.0000                                  [YAV_min (mag)]

# j     x_j(%)      Mini_j(%)     Mcor_j(%)     age_j(yr)     Z_j      (L/M)_j    YAV?  Mstars   component_j        a/Fe...       SSP_chi2r SSP_adev(%)   SSP_AV   SSP_x(%)
  1      0.0000     0.0000E+00    0.0000E+00    1.000000E+06  0.00400  1.094E-02    0   1.0000   age020_m42            0.0000     1.6169E+00    36.1210   3.6583    91.5378
  2      0.0000     0.0000E+00    0.0000E+00    3.160000E+06  0.00400  4.007E-02    0   0.9999   age045_m42            0.0000     1.5801E+00    33.8284   2.9416    97.3895
  3      0.0000     0.0000E+00    0.0000E+00    5.010000E+06  0.00400  2.539E-02    0   0.9488   age055_m42            0.0000     1.5858E+00    34.8300   3.2513    95.5265
  4      0.0000     0.0000E+00    0.0000E+00    6.610000E+06  0.00400  2.620E-02    0   0.9220   age061_m42            0.0000     1.5631E+00    33.6832   2.8552    98.2682
  5      0.0000     0.0000E+00    0.0000E+00    1.000000E+07  0.00400  1.322E-02    0   0.8862   age070_m42            0.0000     1.5055E+00    35.9677   2.4752   105.2654
  6      0.0000     0.0000E+00    0.0000E+00    1.445000E+07  0.00400  7.883E-03    0   0.8571   age078_m42            0.0000     1.5248E+00    36.4134   2.8146   102.0215
  7      0.0000     0.0000E+00    0.0000E+00    2.512000E+07  0.00400  5.251E-03    0   0.8174   age090_m42            0.0000     1.5006E+00    36.2721   2.3259   106.8506
  8      0.0000     0.0000E+00    0.0000E+00    4.000000E+07  0.00400  3.649E-03    0   0.7851   age104_m42            0.0000     1.4925E+00    35.6359   2.1094   107.1481
  9      0.0000     0.0000E+00    0.0000E+00    5.500000E+07  0.00400  3.098E-03    0   0.7629   age110_m42            0.0000     1.5126E+00    33.9830   2.3112   104.7270
 10      0.0000     0.0000E+00    0.0000E+00    1.015200E+08  0.00400  2.228E-03    0   0.7207   age116_m42            0.0000     1.5176E+00    32.8129   2.3592   103.5574
 11      0.0000     0.0000E+00    0.0000E+00    2.861200E+08  0.00400  1.093E-03    0   0.6648   age125_m42            0.0000     1.4785E+00    32.7101   1.7717   107.8059
 12      0.0000     0.0000E+00    0.0000E+00    5.088000E+08  0.00400  6.597E-04    0   0.6365   age130_m42            0.0000     1.4686E+00    31.1576   1.8065   106.3386
 13      0.0000     0.0000E+00    0.0000E+00    1.434000E+09  0.00400  2.132E-04    0   0.5798   age139_m42            0.0000     1.3810E+00    30.9647   0.8545   107.3145
 14      0.0002     1.3497E-04    1.3555E-04    4.250000E+09  0.00400  5.895E-05    0   0.5377   age158_m42            0.0000     1.3642E+00    31.4973   0.4858    99.6379
 15      0.0000     0.0000E+00    0.0000E+00    7.500000E+09  0.00400  3.510E-05    0   0.5212   age171_m42            0.0000     1.3609E+00    31.1879   0.3358    97.3051
 16      0.0000     0.0000E+00    0.0000E+00    1.300000E+10  0.00400  2.005E-05    0   0.5034   age193_m42            0.0000     1.3655E+00    30.9176   0.2049    95.3383
 17      0.0000     0.0000E+00    0.0000E+00    1.800000E+10  0.00400  1.525E-05    0   0.4967   age213_m42            0.0000     1.3608E+00    31.1034   0.1718    95.3283
 18      0.0000     0.0000E+00    0.0000E+00    1.000000E+06  0.00800  1.238E-02    0   1.0000   age020_m52            0.0000     1.6158E+00    36.1020   3.6565    91.6324
 19      5.2469     7.7450E-03    1.4416E-02    3.160000E+06  0.00800  3.074E-02    0   0.9966   age045_m52            0.0000     1.6064E+00    35.9663   3.5802    92.4130
 20      0.0000     0.0000E+00    0.0000E+00    5.010000E+06  0.00800  2.668E-02    0   0.9443   age055_m52            0.0000     1.5759E+00    35.3047   3.3267    94.9672
 21      0.0000     0.0000E+00    0.0000E+00    6.610000E+06  0.00800  2.136E-02    0   0.9177   age061_m52            0.0000     1.4591E+00    36.4258   1.9874   105.6470
 22      0.0000     0.0000E+00    0.0000E+00    1.000000E+07  0.00800  1.215E-02    0   0.8827   age070_m52            0.0000     1.4873E+00    37.0951   2.6319   106.2852
 23      0.0000     0.0000E+00    0.0000E+00    1.445000E+07  0.00800  8.717E-03    0   0.8552   age078_m52            0.0000     1.4993E+00    36.2828   2.7753   103.6494
 24      0.0000     0.0000E+00    0.0000E+00    2.512000E+07  0.00800  5.592E-03    0   0.8162   age090_m52            0.0000     1.4757E+00    36.2117   2.3880   108.2997
 25      0.0000     0.0000E+00    0.0000E+00    4.000000E+07  0.00800  3.896E-03    0   0.7841   age104_m52            0.0000     1.4795E+00    35.1460   2.3282   107.7251
 26      0.0000     0.0000E+00    0.0000E+00    1.015200E+08  0.00800  2.148E-03    0   0.7226   age116_m52            0.0000     1.4889E+00    33.4837   2.3112   105.1930
 27      0.0093     4.2613E-04    5.3188E-04    2.861200E+08  0.00800  9.925E-04    0   0.6683   age125_m52            0.0000     1.4542E+00    31.1117   1.8714   107.4030
 28      0.0000     0.0000E+00    0.0000E+00    9.047900E+08  0.00800  3.141E-04    0   0.6138   age135_m52            0.0000     1.3934E+00    29.8736   1.1487   107.8162
 29     33.2243     8.7701E+00    9.5870E+00    1.434000E+09  0.00800  1.719E-04    0   0.5853   age139_m52            0.0000     1.3520E+00    30.7906   0.5753   105.3172
 30     15.3581     8.8527E+00    9.2590E+00    2.500000E+09  0.00800  7.872E-05    0   0.5600   age150_m52            0.0000     1.3478E+00    30.2113   0.3787    99.0098
 31      0.0000     0.0000E+00    0.0000E+00    4.250000E+09  0.00800  4.336E-05    0   0.5426   age158_m52            0.0000     1.3536E+00    30.4475   0.3686    97.7986
 32      0.2557     3.6733E-01    3.6492E-01    6.250000E+09  0.00800  3.159E-05    0   0.5319   age166_m52            0.0000     1.3585E+00    29.7078   0.2088    95.9159
 33      0.0000     0.0000E+00    0.0000E+00    1.300000E+10  0.00800  1.361E-05    0   0.5073   age193_m52            0.0000     1.3747E+00    28.9855  -0.2078    93.1030
 34      0.0000     0.0000E+00    0.0000E+00    1.800000E+10  0.00800  9.886E-06    0   0.4990   age213_m52            0.0000     1.3926E+00    28.3129  -0.2698    90.7242
 35      0.0000     0.0000E+00    0.0000E+00    1.000000E+06  0.02000  1.544E-02    0   1.0000   age020_m62            0.0000     1.6160E+00    36.1861   3.6517    91.8727
 36      0.0000     0.0000E+00    0.0000E+00    3.160000E+06  0.02000  3.762E-02    0   0.9858   age045_m62            0.0000     1.6133E+00    36.1445   3.5921    92.6526
 37      0.0000     0.0000E+00    0.0000E+00    5.010000E+06  0.02000  3.296E-02    0   0.9342   age055_m62            0.0000     1.5753E+00    34.0464   3.2225    96.2083
 38      1.8041     7.0937E-03    1.1740E-02    8.710000E+06  0.02000  1.154E-02    0   0.8861   age067_m62            0.0000     1.5221E+00    44.1071   1.8892   120.3730
 39      0.0000     0.0000E+00    0.0000E+00    1.445000E+07  0.02000  7.663E-03    0   0.8472   age078_m62            0.0000     1.4618E+00    38.7832   2.2277   111.5469
 40      0.0000     0.0000E+00    0.0000E+00    2.512000E+07  0.02000  4.532E-03    0   0.8099   age090_m62            0.0000     1.4676E+00    38.7255   2.2107   111.8350
 41      0.0000     0.0000E+00    0.0000E+00    5.500000E+07  0.02000  2.733E-03    0   0.7595   age110_m62            0.0000     1.4646E+00    35.2562   2.3067   107.1224
 42      0.0000     0.0000E+00    0.0000E+00    1.609000E+08  0.02000  1.369E-03    0   0.6985   age120_m62            0.0000     1.4755E+00    32.2276   2.2025   107.1198
 43      0.0000     0.0000E+00    0.0000E+00    2.861200E+08  0.02000  9.013E-04    0   0.6714   age125_m62            0.0000     1.4649E+00    30.5867   1.9778   108.8091
 44      0.0063     5.6540E-04    6.8100E-04    5.088000E+08  0.02000  5.028E-04    0   0.6449   age130_m62            0.0000     1.4550E+00    29.1222   1.6768   107.6741
 45      0.0000     0.0000E+00    0.0000E+00    9.047900E+08  0.02000  2.428E-04    0   0.6179   age135_m62            0.0000     1.3876E+00    29.6641   1.1368   104.7369
 46      0.0347     1.2452E-02    1.3740E-02    1.434000E+09  0.02000  1.263E-04    0   0.5908   age139_m62            0.0000     1.3594E+00    30.0904   0.7130   102.2060
 47      0.0000     0.0000E+00    0.0000E+00    2.500000E+09  0.02000  5.985E-05    0   0.5673   age150_m62            0.0000     1.3643E+00    29.6223   0.4073    97.9977
 48      3.0946     4.2928E+00    4.3840E+00    4.250000E+09  0.02000  3.271E-05    0   0.5468   age158_m62            0.0000     1.3806E+00    28.6993   0.1623    94.5110
 49      0.0000     0.0000E+00    0.0000E+00    1.000000E+10  0.02000  1.360E-05    0   0.5167   age181_m62            0.0000     1.4112E+00    27.6911  -0.1151    91.1568
 50      0.0000     0.0000E+00    0.0000E+00    1.800000E+10  0.02000  7.124E-06    0   0.5013   age213_m62            0.0000     1.4438E+00    27.0280  -0.2659    88.0820
 51      1.7649     3.0896E-03    5.7693E-03    1.000000E+06  0.05000  2.592E-02    0   0.9998   age020_m72            0.0000     1.6143E+00    36.5891   3.6375    92.1245
 52      1.9725     1.8473E-03    3.3042E-03    3.160000E+06  0.05000  4.845E-02    0   0.9577   age045_m72            0.0000     1.6033E+00    35.1751   3.4856    93.4369
 53      0.0000     0.0000E+00    0.0000E+00    5.010000E+06  0.05000  3.072E-02    0   0.9147   age055_m72            0.0000     1.4895E+00    37.3962   2.9069   102.8181
 54     10.1059     3.1516E-02    5.2252E-02    6.610000E+06  0.05000  1.455E-02    0   0.8877   age061_m72            0.0000     1.7166E+00    46.7372   1.9262   123.4235
 55      1.4361     7.1813E-03    1.1433E-02    1.000000E+07  0.05000  9.074E-03    0   0.8524   age070_m72            0.0000     1.5413E+00    36.9732   3.1391   100.8270
 56      0.0000     0.0000E+00    0.0000E+00    2.512000E+07  0.05000  4.250E-03    0   0.7902   age090_m72            0.0000     1.5010E+00    36.1629   2.7982   104.3175
 57      0.2220     3.2635E-03    4.6433E-03    4.000000E+07  0.05000  3.087E-03    0   0.7618   age104_m72            0.0000     1.4948E+00    35.9749   2.5461   107.2631
 58      0.0000     0.0000E+00    0.0000E+00    1.015200E+08  0.05000  1.700E-03    0   0.7096   age116_m72            0.0000     1.4693E+00    33.1298   2.3186   108.1719
 59      0.0000     0.0000E+00    0.0000E+00    2.861200E+08  0.05000  7.384E-04    0   0.6633   age125_m72            0.0000     1.4487E+00    29.6076   1.8869   108.1631
 60      0.0000     0.0000E+00    0.0000E+00    5.088000E+08  0.05000  3.819E-04    0   0.6372   age130_m72            0.0000     1.4160E+00    29.1380   1.4575   106.5984
 61      0.0000     0.0000E+00    0.0000E+00    9.047900E+08  0.05000  1.676E-04    0   0.6110   age135_m72            0.0000     1.3883E+00    29.2119   0.8531   100.3062
 62      0.0000     0.0000E+00    0.0000E+00    1.434000E+09  0.05000  8.837E-05    0   0.5874   age139_m72            0.0000     1.3617E+00    29.3936   0.4152    99.0987
 63     14.3234     1.5354E+01    1.6053E+01    2.500000E+09  0.05000  4.233E-05    0   0.5598   age150_m72            0.0000     1.3835E+00    28.3838   0.1828    94.4590
 64     13.0994     4.1421E+01    4.0607E+01    6.250000E+09  0.05000  1.435E-05    0   0.5249   age166_m72            0.0000     1.4199E+00    27.5041  -0.1948    90.1049
 65      2.9951     2.0867E+01    1.9626E+01    1.300000E+10  0.05000  6.513E-06    0   0.5036   age193_m72            0.0000     1.4746E+00    26.7671  -0.4018    88.0315
 66      0.0000     0.0000E+00    0.0000E+00    1.800000E+10  0.05000  4.527E-06    0   0.4945   age213_m72            0.0000     1.5181E+00    26.3062  -0.5176    86.1442


## Synthesis Results - Average & Chains ##

# j      x_j: min, <> & last-chain-values for 1 ...  7 chains
  1      0.0000      0.1664      0.0000      0.0000      0.4263      1.2251      0.0000      0.0000      0.8226
  2      0.0000      0.3599      0.0000      0.0000      0.0000      0.6319      1.7951      0.0222      1.0137
  3      0.0000      0.3392      0.1948      0.0000      1.9613      1.3005      0.4302      0.0413      0.7533
  4      0.0000      0.3691      1.2389      0.0000      0.1808      0.0000      0.0000      0.0000      1.6985
  5      0.0000      0.4027      1.1085      0.0000      0.0000      0.2375      0.0000      0.8547      0.0000
  6      0.0000      0.3675      0.0000      0.0000      0.0000      0.0000      0.6038      0.0000      0.0924
  7      0.0000      0.2860      0.0000      2.1522      0.0000      0.0000      0.0000      0.0000      0.0000
  8      0.0000      0.2376      0.0000      0.0000      0.0000      0.0000      0.0000      0.0000      0.0000
  9      0.0000      0.2631      0.5264      0.0000      0.5652      0.0493      0.2231      0.0000      2.1024
 10      0.0000      0.2211      0.0000      0.0000      0.0000      0.1238      0.0000      0.0000      0.0000
 11      0.0000      0.3786      0.2658      0.9635      0.7277      0.0000      0.0000      0.0000      1.0851
 12      0.0000      0.5288      0.0000      0.0000      0.0000      0.9304      0.0000      0.0000      1.3463
 13      0.0000      2.1041      0.0000      2.3847      0.0000      0.1201      0.9685      4.1775      0.0000
 14      0.0002      2.3083      0.0000      0.8116      0.8548      0.0000      0.0000      2.5750      0.4855
 15      0.0000      1.0704      0.2929      0.0000      0.0000      0.0000      0.3704      3.2502      0.0000
 16      0.0000      0.8935      0.6962      0.6864      0.0000      0.0000      0.0000      0.3528      0.0000
 17      0.0000      1.0241      4.7637      0.0000      0.0000      0.2304      0.0000      0.2503      0.0000
 18      0.0000      0.6813      1.9445      0.0000      0.5078      0.0000      0.4639      3.2402      0.0000
 19      5.2469      0.7797      0.0000      2.8305      0.0000      0.7888      0.0000      3.4530      0.3406
 20      0.0000      0.2054      0.0000      0.0000      0.0000      0.0000      0.0000      0.0000      0.0000
 21      0.0000      0.9895      4.8396      2.6413      0.2752      2.8611      1.3836      0.4483      0.0000
 22      0.0000      0.1874      1.0462      0.0000      0.0000      0.0000      0.0000      0.0000      0.0000
 23      0.0000      0.2714      0.0000      0.0000      1.7554      0.0000      0.0000      0.0000      0.0000
 24      0.0000      0.4822      0.0000      0.0000      1.0509      0.0000      0.0000      2.8254      1.0114
 25      0.0000      0.2488      3.1384      0.0000      0.0000      0.0000      0.0000      0.0000      0.0000
 26      0.0000      0.2065      0.0000      0.0000      0.0793      0.0000      0.0000      0.0000      0.0000
 27      0.0093      0.3932      1.0584      1.5580      0.0000      0.0000      0.4258      1.6712      3.0650
 28      0.0000      1.1711      0.3983      0.0000      0.0000      0.7285      0.6257      0.3773      1.4604
 29     33.2243     26.8459     27.3612     27.0225     32.2327     34.0858     43.1270     26.2011     26.2008
 30     15.3581     16.7594     12.3680     19.1350     19.1007     16.6886     17.9928     12.2561     14.5659
 31      0.0000      1.6782      2.8867      0.0000      2.8525      0.0000      0.0000      0.0000      1.1303
 32      0.2557      0.8162      0.0000      2.9927      0.0000      1.3367      0.1330      0.0000      0.0000
 33      0.0000      0.4765      1.9890      0.0000      0.0000      0.3402      0.0000      0.0000      0.0000
 34      0.0000      0.2222      0.0000      0.0000      0.0050      0.0000      0.0000      0.0000      0.0000
 35      0.0000      0.5983      0.4933      0.4354      2.7324      0.0000      0.0000      0.1485      0.0000
 36      0.0000      0.3917      0.7419      0.0000      0.0000      0.0000      0.1472      0.4862      0.0000
 37      0.0000      0.3330      0.0000      0.0000      1.3745      0.1234      0.0000      0.0000      1.4188
 38      1.8041      0.4981      1.4413      1.2682      2.3734      0.0000      0.0000      1.1993      1.3904
 39      0.0000      0.6842      0.6643      0.0000      0.0000      0.0000      0.0000      0.0000      0.0000
 40      0.0000      0.4710      0.0000      0.0000      0.0000      0.0000      0.0000      1.6117      1.1528
 41      0.0000      0.3616      0.0000      0.0000      0.0000      1.3646      0.0000      0.0000      0.0000
 42      0.0000      0.2216      0.0000      0.0000      0.0000      0.0000      1.1876      0.4426      0.0000
 43      0.0000      0.2463      0.0000      0.0000      0.0000      0.0000      0.9728      0.0000      0.0000
 44      0.0063      0.4306      0.0000      0.6884      0.0000      0.5808      0.0000      0.0000      0.0000
 45      0.0000      0.7504      0.0000      0.0000      0.0000      0.0000      0.3224      0.0000      0.0000
 46      0.0347      5.6863      4.7696      0.6935      3.5494     11.1105      4.9657      7.5022      7.9982
