###################################################################
## OUTPUT of StarlightChains_v04.for    [Cid@UFSC - 01/Apr/2007] ##
###################################################################

## Some input info
2008ie.txt                               [arq_obs]
Base.CB07.vall.4m                        [arq_base]
Masks.EmLines.NEW.gm                     [arq_masks]
StCv04.C11.config                        [arq_config]
   66                                    [N_base]
    0                                    [N_YAV_components = # of components with extra extinction!]
    0                                    [i_FitPowerLaw (1/0 = Yes/No)]
-9.99                                    [alpha_PowerLaw]
CCM                                      [red_law_option]
 1.458241                                [q_norm = A(l_norm)/A(V)]

## (Re)Sampling Parameters
 3741.00                                 [l_ini (A)]
 7218.00                                 [l_fin (A)]
    1.00                                 [dl    (A)]     (OBS: dl_cushion =    50.00 A)

## Normalization info
 4020.00                                 [l_norm (A) - for base]
 4010.00                                 [llow_norm (A) - window for f_obs]
 4060.00                                 [lupp_norm (A) - window for f_obs]
7.345685E-17                             [fobs_norm (in input units)]

## S/N
 3691.00                                 [llow_SN (A) - window for S/N]
 7268.00                                 [lupp_SN (A) - window for S/N]
   7.873                                 [S/N in S/N window]
   7.601                                 [S/N in norm. window]
  10.403                                 [S/N_err in S/N window]
  10.044                                 [S/N_err in norm. window]
  1.0000                                 [fscale_chi2]

## etc...
    -2007348                             [idum_orig]
  2384                                   [NOl_eff]
  2384                                   [Nl_eff]
     0    NSIGMA                         [Ntot_cliped & clip_method]
  1310400                                [Nglobal_steps]
   7                                     [N_chains]
  21                                     [NEX0s_base = N_base in EX0s-fits]
 0   0   1        0   2.0   1.408E+01    [Clip-Bug, RC-Crash & Burn-In warning-flags, n_censored_weights, wei_nsig_threshold & wei_limit]
    12     12.002     11.460      0.542  [idt_all, wdt_TotTime, wdt_UsrTime & wdt_SysTime (sec)]

## Synthesis Results - Best model ##

 3.29600E-01                             [chi2/Nl_eff]
     4.71875                             [adev (%)]

   107.82251                             [sum-of-x (%)]
 8.52375E-17                             [Flux_tot (units of input spectrum!)]
 1.50114E-12                             [Mini_tot (???)]
 8.23180E-13                             [Mcor_tot (???)]

 -65.52                                  [v0_min  (km/s)]
 182.04                                  [vd_min  (km/s)]
 0.0547                                  [AV_min  (mag)]
 0.0000                                  [YAV_min (mag)]

# j     x_j(%)      Mini_j(%)     Mcor_j(%)     age_j(yr)     Z_j      (L/M)_j    YAV?  Mstars   component_j        a/Fe...       SSP_chi2r SSP_adev(%)   SSP_AV   SSP_x(%)
  1      1.8441     8.8772E-03    1.6188E-02    1.000000E+06  0.00400  1.094E-02    0   1.0000   age020_m42            0.0000     7.0134E-01     6.9808   3.1190    94.2558
  2      0.0750     9.8592E-05    1.7977E-04    3.160000E+06  0.00400  4.007E-02    0   0.9999   age045_m42            0.0000     6.2373E-01     6.3394   2.4205    99.4127
  3      0.0000     0.0000E+00    0.0000E+00    5.010000E+06  0.00400  2.539E-02    0   0.9488   age055_m42            0.0000     6.4530E-01     6.5055   2.7265    97.6307
  4      0.5966     1.1991E-03    2.0161E-03    6.610000E+06  0.00400  2.620E-02    0   0.9220   age061_m42            0.0000     6.1506E-01     6.2802   2.3437    99.7730
  5      2.1008     8.3686E-03    1.3524E-02    1.000000E+07  0.00400  1.322E-02    0   0.8862   age070_m42            0.0000     6.6411E-01     6.7686   2.0326   103.1919
  6      1.1481     7.6700E-03    1.1988E-02    1.445000E+07  0.00400  7.883E-03    0   0.8571   age078_m42            0.0000     6.7521E-01     6.8552   2.3569   100.7394
  7      2.3961     2.4030E-02    3.5820E-02    2.512000E+07  0.00400  5.251E-03    0   0.8174   age090_m42            0.0000     6.8609E-01     6.9021   1.9002   103.8649
  8      0.0000     0.0000E+00    0.0000E+00    4.000000E+07  0.00400  3.649E-03    0   0.7851   age104_m42            0.0000     6.5411E-01     6.7168   1.6786   104.4438
  9      0.0000     0.0000E+00    0.0000E+00    5.500000E+07  0.00400  3.098E-03    0   0.7629   age110_m42            0.0000     6.2597E-01     6.4756   1.8499   103.6279
 10      0.0000     0.0000E+00    0.0000E+00    1.015200E+08  0.00400  2.228E-03    0   0.7207   age116_m42            0.0000     6.1324E-01     6.3822   1.8824   103.2652
 11      0.0000     0.0000E+00    0.0000E+00    2.861200E+08  0.00400  1.093E-03    0   0.6648   age125_m42            0.0000     6.7330E-01     6.8232   1.3082   106.5695
 12      0.0000     0.0000E+00    0.0000E+00    5.088000E+08  0.00400  6.597E-04    0   0.6365   age130_m42            0.0000     6.0900E-01     6.5482   1.3169   106.5855
 13      0.0000     0.0000E+00    0.0000E+00    1.434000E+09  0.00400  2.132E-04    0   0.5798   age139_m42            0.0000     4.3784E-01     5.4860   0.3560   108.1949
 14      6.6215     5.9152E+00    5.8001E+00    4.250000E+09  0.00400  5.895E-05    0   0.5377   age158_m42            0.0000     3.5689E-01     4.8740  -0.0763   103.7844
 15      0.0000     0.0000E+00    0.0000E+00    7.500000E+09  0.00400  3.510E-05    0   0.5212   age171_m42            0.0000     3.6370E-01     4.9560  -0.2552   102.7367
 16      0.0000     0.0000E+00    0.0000E+00    1.300000E+10  0.00400  2.005E-05    0   0.5034   age193_m42            0.0000     3.8714E-01     5.1467  -0.4124   101.8844
 17      0.0000     0.0000E+00    0.0000E+00    1.800000E+10  0.00400  1.525E-05    0   0.4967   age213_m42            0.0000     3.8232E-01     5.0967  -0.4389   101.5696
 18      0.0000     0.0000E+00    0.0000E+00    1.000000E+06  0.00800  1.238E-02    0   1.0000   age020_m52            0.0000     6.9901E-01     6.9675   3.1149    94.4563
 19      0.0000     0.0000E+00    0.0000E+00    3.160000E+06  0.00800  3.074E-02    0   0.9966   age045_m52            0.0000     6.8555E-01     6.8553   3.0415    95.1562
 20      6.0852     1.2011E-02    2.0683E-02    5.010000E+06  0.00800  2.668E-02    0   0.9443   age055_m52            0.0000     6.4073E-01     6.5379   2.8041    96.9846
 21      0.0000     0.0000E+00    0.0000E+00    6.610000E+06  0.00800  2.136E-02    0   0.9177   age061_m52            0.0000     5.4922E-01     6.3281   1.5298   104.5413
 22      0.0000     0.0000E+00    0.0000E+00    1.000000E+07  0.00800  1.215E-02    0   0.8827   age070_m52            0.0000     7.0272E-01     7.0795   2.2003   103.5069
 23      0.0000     0.0000E+00    0.0000E+00    1.445000E+07  0.00800  8.717E-03    0   0.8552   age078_m52            0.0000     6.5778E-01     6.7586   2.3222   102.1240
 24      2.1148     1.9916E-02    2.9644E-02    2.512000E+07  0.00800  5.592E-03    0   0.8162   age090_m52            0.0000     6.8000E-01     6.8871   1.9631   105.1197
 25      0.0054     7.2658E-05    1.0389E-04    4.000000E+07  0.00800  3.896E-03    0   0.7841   age104_m52            0.0000     6.5833E-01     6.7265   1.8869   105.3918
 26      0.0000     0.0000E+00    0.0000E+00    1.015200E+08  0.00800  2.148E-03    0   0.7226   age116_m52            0.0000     6.0748E-01     6.4060   1.8426   104.4321
 27      0.0000     0.0000E+00    0.0000E+00    2.861200E+08  0.00800  9.925E-04    0   0.6683   age125_m52            0.0000     5.8355E-01     6.4430   1.3813   107.5920
 28      0.0000     0.0000E+00    0.0000E+00    9.047900E+08  0.00800  3.141E-04    0   0.6138   age135_m52            0.0000     4.7803E-01     5.7580   0.6120   110.6351
 29      0.0000     0.0000E+00    0.0000E+00    1.434000E+09  0.00800  1.719E-04    0   0.5853   age139_m52            0.0000     4.0617E-01     5.2183   0.0247   108.7926
 30      0.0000     0.0000E+00    0.0000E+00    2.500000E+09  0.00800  7.872E-05    0   0.5600   age150_m52            0.0000     3.7131E-01     5.0255  -0.2253   105.1432
 31      0.0000     0.0000E+00    0.0000E+00    4.250000E+09  0.00800  4.336E-05    0   0.5426   age158_m52            0.0000     3.8209E-01     5.1187  -0.2411   104.1903
 32      0.0000     0.0000E+00    0.0000E+00    6.250000E+09  0.00800  3.159E-05    0   0.5319   age166_m52            0.0000     4.1992E-01     5.4099  -0.4288   103.5844
 33      0.0000     0.0000E+00    0.0000E+00    1.300000E+10  0.00800  1.361E-05    0   0.5073   age193_m52            0.0000     4.9659E-01     5.9502  -0.8789   102.1449
 34      0.0000     0.0000E+00    0.0000E+00    1.800000E+10  0.00800  9.886E-06    0   0.4990   age213_m52            0.0000     5.8410E-01     6.5002  -0.9706   100.9744
 35      0.0000     0.0000E+00    0.0000E+00    1.000000E+06  0.02000  1.544E-02    0   1.0000   age020_m62            0.0000     7.0174E-01     6.9821   3.1102    94.7131
 36      0.0000     0.0000E+00    0.0000E+00    3.160000E+06  0.02000  3.762E-02    0   0.9858   age045_m62            0.0000     6.9565E-01     6.9140   3.0499    95.5239
 37      0.7857     1.2553E-03    2.1385E-03    5.010000E+06  0.02000  3.296E-02    0   0.9342   age055_m62            0.0000     6.2008E-01     6.2867   2.6932    98.5376
 38      0.0000     0.0000E+00    0.0000E+00    8.710000E+06  0.02000  1.154E-02    0   0.8861   age067_m62            0.0000     1.1514E+00     9.7912   1.5877   109.4439
 39      0.0000     0.0000E+00    0.0000E+00    1.445000E+07  0.02000  7.663E-03    0   0.8472   age078_m62            0.0000     7.9739E-01     7.7815   1.8279   106.7348
 40      0.0000     0.0000E+00    0.0000E+00    2.512000E+07  0.02000  4.532E-03    0   0.8099   age090_m62            0.0000     8.4724E-01     7.9509   1.8197   106.4527
 41      0.0000     0.0000E+00    0.0000E+00    5.500000E+07  0.02000  2.733E-03    0   0.7595   age110_m62            0.0000     6.4071E-01     6.6092   1.8654   104.8424
 42      0.0000     0.0000E+00    0.0000E+00    1.609000E+08  0.02000  1.369E-03    0   0.6985   age120_m62            0.0000     6.0721E-01     6.4569   1.7330   106.3412
 43      0.0000     0.0000E+00    0.0000E+00    2.861200E+08  0.02000  9.013E-04    0   0.6714   age125_m62            0.0000     5.8993E-01     6.5271   1.4973   108.6433
 44      0.0000     0.0000E+00    0.0000E+00    5.088000E+08  0.02000  5.028E-04    0   0.6449   age130_m62            0.0000     5.3444E-01     6.2072   1.1487   110.1308
 45      0.0000     0.0000E+00    0.0000E+00    9.047900E+08  0.02000  2.428E-04    0   0.6179   age135_m62            0.0000     4.1415E-01     5.3455   0.5685   109.2934
 46      0.0000     0.0000E+00    0.0000E+00    1.434000E+09  0.02000  1.263E-04    0   0.5908   age139_m62            0.0000     3.7732E-01     5.0992   0.1247   107.7344
 47      0.0000     0.0000E+00    0.0000E+00    2.500000E+09  0.02000  5.985E-05    0   0.5673   age150_m62            0.0000     4.0865E-01     5.3376  -0.2268   105.6619
 48     23.2563     3.7442E+01    3.7335E+01    4.250000E+09  0.02000  3.271E-05    0   0.5468   age158_m62            0.0000     4.8949E-01     5.9364  -0.5104   103.8619
 49      0.0000     0.0000E+00    0.0000E+00    1.000000E+10  0.02000  1.360E-05    0   0.5167   age181_m62            0.0000     6.6479E-01     6.9665  -0.8316   102.2918
 50      0.0000     0.0000E+00    0.0000E+00    1.800000E+10  0.02000  7.124E-06    0   0.5013   age213_m62            0.0000     8.3531E-01     7.8438  -1.0000    99.7859
 51      0.0000     0.0000E+00    0.0000E+00    1.000000E+06  0.05000  2.592E-02    0   0.9998   age020_m72            0.0000     7.1319E-01     7.0595   3.0989    94.8651
 52     11.8946     1.2929E-02    2.2579E-02    3.160000E+06  0.05000  4.845E-02    0   0.9577   age045_m72            0.0000     6.6576E-01     6.6248   2.9430    96.3387
 53      0.0102     1.7523E-05    2.9229E-05    5.010000E+06  0.05000  3.072E-02    0   0.9147   age055_m72            0.0000     7.5692E-01     7.4208   2.4295   102.1194
 54      0.0000     0.0000E+00    0.0000E+00    6.610000E+06  0.05000  1.455E-02    0   0.8877   age061_m72            0.0000     1.8994E+00    12.3431   1.6142   111.6084
 55      0.0000     0.0000E+00    0.0000E+00    1.000000E+07  0.05000  9.074E-03    0   0.8524   age070_m72            0.0000     9.3766E-01     8.0547   2.6187   101.7258
 56      0.0000     0.0000E+00    0.0000E+00    2.512000E+07  0.05000  4.250E-03    0   0.7902   age090_m72            0.0000     8.3434E-01     7.5596   2.3231   103.2264
 57      0.0000     0.0000E+00    0.0000E+00    4.000000E+07  0.05000  3.087E-03    0   0.7618   age104_m72            0.0000     8.6713E-01     7.6680   2.0938   104.9443
 58      0.0000     0.0000E+00    0.0000E+00    1.015200E+08  0.05000  1.700E-03    0   0.7096   age116_m72            0.0000     6.7239E-01     6.7704   1.8640   106.4166
 59      0.0000     0.0000E+00    0.0000E+00    2.861200E+08  0.05000  7.384E-04    0   0.6633   age125_m72            0.0000     5.5085E-01     6.3492   1.3799   109.4156
 60      0.0000     0.0000E+00    0.0000E+00    5.088000E+08  0.05000  3.819E-04    0   0.6372   age130_m72            0.0000     4.3302E-01     5.5200   0.9076   110.2781
 61     19.5987     6.1582E+00    6.8615E+00    9.047900E+08  0.05000  1.676E-04    0   0.6110   age135_m72            0.0000     4.0490E-01     5.3895   0.2301   107.6454
 62      4.4444     2.6486E+00    2.8371E+00    1.434000E+09  0.05000  8.837E-05    0   0.5874   age139_m72            0.0000     4.2268E-01     5.4435  -0.2232   107.0149
 63     19.0037     2.3642E+01    2.4135E+01    2.500000E+09  0.05000  4.233E-05    0   0.5598   age150_m72            0.0000     5.3486E-01     6.2035  -0.5039   104.4427
 64      5.2390     1.9226E+01    1.8404E+01    6.250000E+09  0.05000  1.435E-05    0   0.5249   age166_m72            0.0000     7.1946E-01     7.2310  -0.9223   101.6096
 65      0.6024     4.8706E+00    4.4729E+00    1.300000E+10  0.05000  6.513E-06    0   0.5036   age193_m72            0.0000     1.0646E+00     8.7905  -1.0000    94.3719
 66      0.0000     0.0000E+00    0.0000E+00    1.800000E+10  0.05000  4.527E-06    0   0.4945   age213_m72            0.0000     1.4674E+00    10.2893  -1.0000    87.9539


## Synthesis Results - Average & Chains ##

# j      x_j: min, <> & last-chain-values for 1 ...  7 chains
  1      1.8441      0.7650      0.1544      0.0000      0.0000      0.0000      1.4492      2.5438      2.3425
  2      0.0750      1.3569      2.6444      1.8586      1.2653      0.0000      1.7008      0.7774      2.6740
  3      0.0000      0.4183      0.0000      1.3421      0.6511      0.0000      1.1100      0.0000      0.0000
  4      0.5966      0.6962      0.0000      0.0000      0.0000      1.2130      0.7331      3.0929      2.4606
  5      2.1008      0.5897      1.0892      0.0000      0.0000      0.0000      0.2262      0.0000      0.7285
  6      1.1481      0.4664      0.0000      2.1358      0.6523      1.2041      0.9399      0.0000      1.9050
  7      2.3961      1.8077      0.0000      2.7797      5.2994      1.5405      2.5494      2.1617      0.7434
  8      0.0000      0.6016      2.8834      0.0000      0.0000      0.0000      0.1062      0.0000      0.0000
  9      0.0000      0.5455      0.0000      0.0000      0.0000      2.5292      0.3677      0.0000      0.0000
 10      0.0000      0.8824      1.0607      0.0000      3.0563      1.6697      0.2984      0.1549      0.1622
 11      0.0000      0.3272      2.0989      1.9042      0.9774      0.0000      0.0000      0.0000      0.2291
 12      0.0000      0.4955      2.2910      1.6063      0.0000      0.0000      0.5524      0.0000      0.0000
 13      0.0000      1.5611      0.0000      0.9064      4.3820      0.0000      0.0000      0.0000      0.0000
 14      6.6215      2.5722      2.3014      2.6814      0.0000      2.8090      0.0000      4.0526      3.3567
 15      0.0000      3.3972      4.3792      4.1970      5.7157      3.1278      5.8012      3.4558      0.0000
 16      0.0000      0.9794      0.0000      1.5047      0.0000      0.0000      0.0000      0.2862      0.0000
 17      0.0000      1.7133      1.2234      1.4698      1.1323      1.5744      2.0424      2.0301      0.0000
 18      0.0000      0.5866      0.0000      1.3989      0.7347      0.0000      1.6541      1.6196      0.0000
 19      0.0000      0.3863      0.0000      0.0000      0.0000      0.4720      0.0000      0.4386      0.0000
 20      6.0852      0.8829      2.4092      1.2124      1.9740      1.3701      1.3285      0.0000      2.2340
 21      0.0000      0.7121      2.3214      1.9567      1.8684      0.0000      0.0000      0.7124      0.0000
 22      0.0000      0.1774      0.0000      0.1628      0.0808      0.4016      0.0000      0.0000      0.0000
 23      0.0000      0.5806      0.6596      1.3296      0.4851      3.7070      0.9812      0.0000      0.0000
 24      2.1148      0.4825      0.0000      1.6911      0.0000      0.0000      0.0000      0.0000      1.9805
 25      0.0054      0.7819      0.7351      0.5298      0.8865      0.0000      0.4496      1.4383      0.6887
 26      0.0000      0.2589      0.0000      0.5345      0.0000      0.0000      0.0000      0.0000      0.0000
 27      0.0000      0.3444      0.0000      0.0000      0.0000      0.0000      0.0000      0.0000      0.0000
 28      0.0000      0.5429      0.0000      0.0000      0.0000      0.0000      0.3755      0.0000      0.0000
 29      0.0000      1.0566      0.0000      0.0000      0.1092      0.0000      0.0000      0.0000      0.0000
 30      0.0000      1.1959      0.0000      0.0000      0.0000      1.3614      2.5924      0.0000      0.0000
 31      0.0000      0.9283      1.8952      0.0000      0.0000      2.0163      0.0000      0.0000      0.0000
 32      0.0000      0.5034      0.0386      0.0000      0.0000      0.9730      0.0000      0.0000      0.2406
 33      0.0000      0.2551      0.0000      1.5464      0.0000      0.0000      0.0000      0.0000      0.0000
 34      0.0000      0.0868      0.0000      0.0000      0.0878      0.0000      0.0000      0.0000      0.0000
 35      0.0000      0.6721      1.9326      0.2454      1.8756      0.7389      0.0000      0.8219      0.0000
 36      0.0000      0.5568      1.7611      0.0000      1.1733      1.9642      0.6164      1.7213      0.0000
 37      0.7857      0.7220      1.2695      0.5122      0.0000      1.3799      1.3935      0.0000      1.7831
 38      0.0000      0.3731      0.4475      0.0000      0.0000      0.0000      2.1804      0.0000      0.0000
 39      0.0000      0.7413      0.0000      0.0000      1.0679      0.0000      1.2374      0.7670      0.0000
 40      0.0000      0.9397      0.5700      0.0000      1.6367      0.7086      1.8279      0.0000      3.0156
 41      0.0000      0.9040      0.0000      0.0000      0.0000      3.4277      2.9453      0.0000      0.0000
 42      0.0000      0.2372      0.4899      0.0000      0.4102      0.0000      0.0000      1.5983      0.0000
 43      0.0000      0.5265      0.0000      0.0000      0.0000      0.8950      0.6084      1.8281      0.5887
 44      0.0000      0.4029      0.0000      0.0000      0.0000      0.0000      0.1163      0.0779      0.0000
 45      0.0000      1.0156      0.0000      0.0000      0.5256      0.0000      0.0000      0.0000      0.0000
 46      0.0000      2.2486      0.0000      0.0000      0.0866      0.0000      0.0000      0.0659      0.0000
