###################################################################
## OUTPUT of StarlightChains_v04.for    [Cid@UFSC - 01/Apr/2007] ##
###################################################################

## Some input info
2008bo.txt                               [arq_obs]
Base.CB07.vall.4m                        [arq_base]
Masks.EmLines.NEW.gm                     [arq_masks]
StCv04.C11.config                        [arq_config]
   66                                    [N_base]
    0                                    [N_YAV_components = # of components with extra extinction!]
    0                                    [i_FitPowerLaw (1/0 = Yes/No)]
-9.99                                    [alpha_PowerLaw]
CCM                                      [red_law_option]
 1.458241                                [q_norm = A(l_norm)/A(V)]

## (Re)Sampling Parameters
 3741.00                                 [l_ini (A)]
 7218.00                                 [l_fin (A)]
    1.00                                 [dl    (A)]     (OBS: dl_cushion =    50.00 A)

## Normalization info
 4020.00                                 [l_norm (A) - for base]
 4010.00                                 [llow_norm (A) - window for f_obs]
 4060.00                                 [lupp_norm (A) - window for f_obs]
1.564363E-16                             [fobs_norm (in input units)]

## S/N
 3691.00                                 [llow_SN (A) - window for S/N]
 7268.00                                 [lupp_SN (A) - window for S/N]
  15.090                                 [S/N in S/N window]
  15.745                                 [S/N in norm. window]
  10.000                                 [S/N_err in S/N window]
  10.434                                 [S/N_err in norm. window]
  1.0000                                 [fscale_chi2]

## etc...
    -2007343                             [idum_orig]
  2254                                   [NOl_eff]
  2252                                   [Nl_eff]
     2    NSIGMA                         [Ntot_cliped & clip_method]
  1485120                                [Nglobal_steps]
   7                                     [N_chains]
  23                                     [NEX0s_base = N_base in EX0s-fits]
 0   0   1       71   2.0   1.191E+01    [Clip-Bug, RC-Crash & Burn-In warning-flags, n_censored_weights, wei_nsig_threshold & wei_limit]
    16     15.424     14.919      0.505  [idt_all, wdt_TotTime, wdt_UsrTime & wdt_SysTime (sec)]

## Synthesis Results - Best model ##

 2.48586E-01                             [chi2/Nl_eff]
     3.53132                             [adev (%)]

   100.12753                             [sum-of-x (%)]
 4.80772E-16                             [Flux_tot (units of input spectrum!)]
 6.98435E-12                             [Mini_tot (???)]
 3.64301E-12                             [Mcor_tot (???)]

-303.05                                  [v0_min  (km/s)]
 390.75                                  [vd_min  (km/s)]
 0.8350                                  [AV_min  (mag)]
 0.0000                                  [YAV_min (mag)]

# j     x_j(%)      Mini_j(%)     Mcor_j(%)     age_j(yr)     Z_j      (L/M)_j    YAV?  Mstars   component_j        a/Fe...       SSP_chi2r SSP_adev(%)   SSP_AV   SSP_x(%)
  1      3.6798     2.3124E-02    4.4334E-02    1.000000E+06  0.00400  1.094E-02    0   1.0000   age020_m42            0.0000     5.5073E-01     6.0118   3.0510    87.9340
  2      0.0000     0.0000E+00    0.0000E+00    3.160000E+06  0.00400  4.007E-02    0   0.9999   age045_m42            0.0000     4.9571E-01     5.5199   2.3651    92.2089
  3      0.0000     0.0000E+00    0.0000E+00    5.010000E+06  0.00400  2.539E-02    0   0.9488   age055_m42            0.0000     4.9834E-01     5.6112   2.6675    90.7083
  4      0.0000     0.0000E+00    0.0000E+00    6.610000E+06  0.00400  2.620E-02    0   0.9220   age061_m42            0.0000     4.7302E-01     5.3575   2.2920    92.3960
  5      0.0000     0.0000E+00    0.0000E+00    1.000000E+07  0.00400  1.322E-02    0   0.8862   age070_m42            0.0000     3.5807E-01     4.4754   1.9911    95.2004
  6      0.0000     0.0000E+00    0.0000E+00    1.445000E+07  0.00400  7.883E-03    0   0.8571   age078_m42            0.0000     3.8264E-01     4.6945   2.3104    93.1388
  7      0.0000     0.0000E+00    0.0000E+00    2.512000E+07  0.00400  5.251E-03    0   0.8174   age090_m42            0.0000     3.4649E-01     4.3351   1.8618    95.7057
  8      0.0000     0.0000E+00    0.0000E+00    4.000000E+07  0.00400  3.649E-03    0   0.7851   age104_m42            0.0000     3.4661E-01     4.3344   1.6402    96.2219
  9      0.0000     0.0000E+00    0.0000E+00    5.500000E+07  0.00400  3.098E-03    0   0.7629   age110_m42            0.0000     4.0090E-01     4.7184   1.8093    95.5327
 10      0.0000     0.0000E+00    0.0000E+00    1.015200E+08  0.00400  2.228E-03    0   0.7207   age116_m42            0.0000     4.3702E-01     4.9209   1.8412    95.2093
 11      0.0000     0.0000E+00    0.0000E+00    2.861200E+08  0.00400  1.093E-03    0   0.6648   age125_m42            0.0000     4.3252E-01     4.7741   1.2734    97.9723
 12      0.0000     0.0000E+00    0.0000E+00    5.088000E+08  0.00400  6.597E-04    0   0.6365   age130_m42            0.0000     4.7133E-01     4.9799   1.2780    98.1495
 13      0.0000     0.0000E+00    0.0000E+00    1.434000E+09  0.00400  2.132E-04    0   0.5798   age139_m42            0.0000     4.5354E-01     4.8149   0.3147    99.7353
 14     13.0199     1.5184E+01    1.5653E+01    4.250000E+09  0.00400  5.895E-05    0   0.5377   age158_m42            0.0000     6.2334E-01     5.8662  -0.1339    96.2204
 15      0.0000     0.0000E+00    0.0000E+00    7.500000E+09  0.00400  3.510E-05    0   0.5212   age171_m42            0.0000     7.4414E-01     6.3825  -0.3172    95.3689
 16      0.0000     0.0000E+00    0.0000E+00    1.300000E+10  0.00400  2.005E-05    0   0.5034   age193_m42            0.0000     8.7318E-01     6.8808  -0.4783    94.6740
 17      0.0000     0.0000E+00    0.0000E+00    1.800000E+10  0.00400  1.525E-05    0   0.4967   age213_m42            0.0000     8.5269E-01     6.8051  -0.5035    94.3552
 18      6.9049     3.8344E-02    7.3512E-02    1.000000E+06  0.00800  1.238E-02    0   1.0000   age020_m52            0.0000     5.5012E-01     6.0157   3.0462    88.1440
 19      4.1176     9.2088E-03    1.7595E-02    3.160000E+06  0.00800  3.074E-02    0   0.9966   age045_m52            0.0000     5.4218E-01     5.9668   2.9741    88.7442
 20      0.0060     1.5479E-05    2.8023E-05    5.010000E+06  0.00800  2.668E-02    0   0.9443   age055_m52            0.0000     4.9202E-01     5.5950   2.7434    90.1813
 21      8.6264     2.7764E-02    4.8849E-02    6.610000E+06  0.00800  2.136E-02    0   0.9177   age061_m52            0.0000     3.0786E-01     4.2082   1.4804    96.7622
 22      0.0000     0.0000E+00    0.0000E+00    1.000000E+07  0.00800  1.215E-02    0   0.8827   age070_m52            0.0000     3.4844E-01     4.3790   2.1596    95.4983
 23      0.0000     0.0000E+00    0.0000E+00    1.445000E+07  0.00800  8.717E-03    0   0.8552   age078_m52            0.0000     3.6549E-01     4.5629   2.2779    94.3464
 24      0.0000     6.9274E-08    1.0840E-07    2.512000E+07  0.00800  5.592E-03    0   0.8162   age090_m52            0.0000     3.4394E-01     4.2888   1.9262    96.8365
 25      0.0000     0.0000E+00    0.0000E+00    4.000000E+07  0.00800  3.896E-03    0   0.7841   age104_m52            0.0000     3.6594E-01     4.4638   1.8499    97.0596
 26      0.0000     0.0000E+00    0.0000E+00    1.015200E+08  0.00800  2.148E-03    0   0.7226   age116_m52            0.0000     3.9334E-01     4.6692   1.8025    96.2689
 27      0.0000     0.0000E+00    0.0000E+00    2.861200E+08  0.00800  9.925E-04    0   0.6683   age125_m52            0.0000     4.5501E-01     4.8772   1.3438    99.0517
 28      0.0000     0.0000E+00    0.0000E+00    9.047900E+08  0.00800  3.141E-04    0   0.6138   age135_m52            0.0000     5.8556E-01     5.4964   0.5663   102.1927
 29      0.0000     0.0000E+00    0.0000E+00    1.434000E+09  0.00800  1.719E-04    0   0.5853   age139_m52            0.0000     5.8556E-01     5.5476  -0.0231   100.5279
 30      0.0000     0.0000E+00    0.0000E+00    2.500000E+09  0.00800  7.872E-05    0   0.5600   age150_m52            0.0000     7.6973E-01     6.4549  -0.2866    97.5797
 31      0.0000     0.0000E+00    0.0000E+00    4.250000E+09  0.00800  4.336E-05    0   0.5426   age158_m52            0.0000     8.1413E-01     6.6107  -0.3038    96.7412
 32      0.0000     0.0000E+00    0.0000E+00    6.250000E+09  0.00800  3.159E-05    0   0.5319   age166_m52            0.0000     9.7998E-01     7.2026  -0.4951    96.2721
 33      0.0000     0.0000E+00    0.0000E+00    1.300000E+10  0.00800  1.361E-05    0   0.5073   age193_m52            0.0000     1.2138E+00     8.0171  -0.9488    95.0163
 34      0.0000     0.0000E+00    0.0000E+00    1.800000E+10  0.00800  9.886E-06    0   0.4990   age213_m52            0.0000     1.4112E+00     8.5297  -1.0000    92.4919
 35      7.7810     3.4646E-02    6.6422E-02    1.000000E+06  0.02000  1.544E-02    0   1.0000   age020_m62            0.0000     5.5065E-01     6.0275   3.0415    88.3855
 36      5.8011     1.0601E-02    2.0036E-02    3.160000E+06  0.02000  3.762E-02    0   0.9858   age045_m62            0.0000     5.5087E-01     6.0350   2.9823    89.0881
 37      0.0000     0.0000E+00    0.0000E+00    5.010000E+06  0.02000  3.296E-02    0   0.9342   age055_m62            0.0000     5.0274E-01     5.6319   2.6356    91.4905
 38     14.7787     8.8042E-02    1.4957E-01    8.710000E+06  0.02000  1.154E-02    0   0.8861   age067_m62            0.0000     3.9865E-01     4.3659   1.5625   100.4808
 39      0.0000     0.0000E+00    0.0000E+00    1.445000E+07  0.02000  7.663E-03    0   0.8472   age078_m62            0.0000     3.3179E-01     4.1487   1.7946    98.2297
 40      0.0000     0.0000E+00    0.0000E+00    2.512000E+07  0.02000  4.532E-03    0   0.8099   age090_m62            0.0000     3.5527E-01     4.2163   1.7901    97.8182
 41      0.0000     0.0000E+00    0.0000E+00    5.500000E+07  0.02000  2.733E-03    0   0.7595   age110_m62            0.0000     3.4880E-01     4.3477   1.8285    96.5570
 42      0.0000     0.0000E+00    0.0000E+00    1.609000E+08  0.02000  1.369E-03    0   0.6985   age120_m62            0.0000     4.1930E-01     4.7057   1.6955    97.9091
 43      0.0000     0.0000E+00    0.0000E+00    2.861200E+08  0.02000  9.013E-04    0   0.6714   age125_m62            0.0000     4.6297E-01     4.8132   1.4612    99.9626
 44      0.0000     0.0000E+00    0.0000E+00    5.088000E+08  0.02000  5.028E-04    0   0.6449   age130_m62            0.0000     5.7520E-01     5.5157   1.1032   101.6933
 45      0.0000     0.0000E+00    0.0000E+00    9.047900E+08  0.02000  2.428E-04    0   0.6179   age135_m62            0.0000     6.5281E-01     5.8695   0.5143   101.2367
 46      0.0000     0.0000E+00    0.0000E+00    1.434000E+09  0.02000  1.263E-04    0   0.5908   age139_m62            0.0000     7.3775E-01     6.1966   0.0648    99.9805
 47      0.0000     0.0000E+00    0.0000E+00    2.500000E+09  0.02000  5.985E-05    0   0.5673   age150_m62            0.0000     9.4389E-01     7.1009  -0.2944    98.3042
 48      6.4234     1.3500E+01    1.4153E+01    4.250000E+09  0.02000  3.271E-05    0   0.5468   age158_m62            0.0000     1.1894E+00     8.0496  -0.5843    96.8125
 49      2.7093     1.3695E+01    1.3567E+01    1.000000E+10  0.02000  1.360E-05    0   0.5167   age181_m62            0.0000     1.5355E+00     9.1175  -0.9106    95.4716
 50      0.0000     0.0000E+00    0.0000E+00    1.800000E+10  0.02000  7.124E-06    0   0.5013   age213_m62            0.0000     1.8405E+00     9.6863  -1.0000    90.4352
 51     17.1819     4.5572E-02    8.7352E-02    1.000000E+06  0.05000  2.592E-02    0   0.9998   age020_m72            0.0000     5.4945E-01     6.0375   3.0280    88.6123
 52      0.0112     1.5858E-05    2.9117E-05    3.160000E+06  0.05000  4.845E-02    0   0.9577   age045_m72            0.0000     5.4546E-01     5.9682   2.8781    89.7257
 53      0.0000     0.0000E+00    0.0000E+00    5.010000E+06  0.05000  3.072E-02    0   0.9147   age055_m72            0.0000     4.0750E-01     4.8790   2.3857    94.3624
 54      0.0000     0.0000E+00    0.0000E+00    6.610000E+06  0.05000  1.455E-02    0   0.8877   age061_m72            0.0000     7.7429E-01     6.2060   1.6046   101.9516
 55      0.0000     0.0000E+00    0.0000E+00    1.000000E+07  0.05000  9.074E-03    0   0.8524   age070_m72            0.0000     5.1546E-01     5.5412   2.5831    93.7421
 56      0.0000     0.0000E+00    0.0000E+00    2.512000E+07  0.05000  4.250E-03    0   0.7902   age090_m72            0.0000     4.5389E-01     5.0758   2.2889    94.9995
 57      0.0000     0.0000E+00    0.0000E+00    4.000000E+07  0.05000  3.087E-03    0   0.7618   age104_m72            0.0000     4.5531E-01     4.9673   2.0650    96.3811
 58      0.0000     0.0000E+00    0.0000E+00    1.015200E+08  0.05000  1.700E-03    0   0.7096   age116_m72            0.0000     4.0973E-01     4.6546   1.8316    97.8201
 59      0.0000     0.0000E+00    0.0000E+00    2.861200E+08  0.05000  7.384E-04    0   0.6633   age125_m72            0.0000     5.1571E-01     5.1289   1.3392   100.8513
 60      0.0000     0.0000E+00    0.0000E+00    5.088000E+08  0.05000  3.819E-04    0   0.6372   age130_m72            0.0000     6.0500E-01     5.7235   0.8542   102.1534
 61      0.0000     0.0000E+00    0.0000E+00    9.047900E+08  0.05000  1.676E-04    0   0.6110   age135_m72            0.0000     8.8363E-01     6.8866   0.1636   100.1297
 62      0.0000     0.0000E+00    0.0000E+00    1.434000E+09  0.05000  8.837E-05    0   0.5874   age139_m72            0.0000     1.0136E+00     7.2388  -0.2902    99.5443
 63      4.3181     7.0130E+00    7.5267E+00    2.500000E+09  0.05000  4.233E-05    0   0.5598   age150_m72            0.0000     1.2831E+00     8.3551  -0.5795    97.4180
 64      0.0000     0.0000E+00    0.0000E+00    6.250000E+09  0.05000  1.435E-05    0   0.5249   age166_m72            0.0000     1.6081E+00     9.4212  -1.0000    94.8091
 65      4.7681     5.0330E+01    4.8594E+01    1.300000E+10  0.05000  6.513E-06    0   0.5036   age193_m72            0.0000     2.1717E+00    10.1272  -1.0000    85.8459
 66      0.0000     0.0000E+00    0.0000E+00    1.800000E+10  0.05000  4.527E-06    0   0.4945   age213_m72            0.0000     2.6994E+00    10.9149  -1.0000    80.2374


## Synthesis Results - Average & Chains ##

# j      x_j: min, <> & last-chain-values for 1 ...  7 chains
  1      3.6798      2.6878      2.4161      0.0000      2.4116      1.4952      4.9547      3.2686      3.1008
  2      0.0000      0.7913      0.3155      0.0000      0.0000      0.0000      0.0000      0.0000      1.9297
  3      0.0000      0.4473      0.0000      2.8967      0.0000      0.9659      0.0000      1.5243      0.0000
  4      0.0000      0.3823      0.1277      0.0000      0.0000      0.0000      0.0000      1.5084      0.0000
  5      0.0000      0.4603      0.0000      0.0000      0.0310      0.0000      0.0000      0.0000      0.6517
  6      0.0000      0.6745      0.0000      0.0000      0.0000      1.9056      1.9203      0.0000      1.0778
  7      0.0000      0.7269      2.5411      0.0000      0.0000      0.0000      1.2960      0.0000      1.2716
  8      0.0000      0.7187      1.4302      0.0000      1.5243      0.0000      1.4335      0.7068      0.0000
  9      0.0000      0.4490      0.0000      0.0000      0.0000      0.0000      0.0000      0.0000      0.0000
 10      0.0000      0.5065      0.0000      0.0000      0.0000      0.0000      0.1883      0.1425      0.0000
 11      0.0000      0.2916      0.0000      0.0000      0.0000      0.2629      0.0000      0.0000      0.0000
 12      0.0000      0.2619      0.0000      0.0000      0.0000      0.0000      0.0000      0.0000      0.0000
 13      0.0000      0.7024      0.0000      0.0000      0.0000      0.0000      0.0000      0.6192      0.0000
 14     13.0199      8.0622      9.6225      9.5849      8.7601      6.6723     12.4637      9.0928      6.8590
 15      0.0000      0.3633      0.6555      0.0000      0.0000      0.0000      0.1362      0.0000      0.0000
 16      0.0000      0.6302      0.0000      0.0000      0.0000      0.0000      1.4021      2.3413      0.0000
 17      0.0000      0.8318      3.1440      0.3859      0.1657      1.0442      0.0000      1.0409      1.5817
 18      6.9049      4.7613      5.1866      3.2532      4.9069      9.8218      4.8790      6.1284      4.8353
 19      4.1176      1.6457      2.5016      0.0000      0.0000      2.6899      2.4196      0.1463      2.2647
 20      0.0060      1.1318      0.0000      2.0973      3.0017      1.0089      2.8704      1.1918      0.9199
 21      8.6264     10.0904      8.1754     11.3955     12.9020     10.5809     10.2734      9.7931     11.8105
 22      0.0000      0.5187      0.2151      0.0000      0.0000      1.5357      0.0000      1.9442      0.0000
 23      0.0000      0.4269      1.7373      0.3242      0.0000      0.0000      0.5790      2.3228      0.0000
 24      0.0000      0.4525      0.0000      0.0000      3.3014      1.6044      0.8526      0.3263      0.0000
 25      0.0000      0.3260      0.0000      0.0000      0.0000      0.0000      0.2845      0.0000      0.0000
 26      0.0000      0.4285      0.0000      0.0000      0.0000      1.2856      0.0000      0.0000      0.0000
 27      0.0000      0.4021      0.0000      0.0000      0.0000      0.0000      0.0000      0.0000      0.0000
 28      0.0000      0.4162      0.3519      0.2173      0.1376      0.0000      0.0000      0.0000      0.0000
 29      0.0000      0.4307      0.0000      0.0000      0.0000      0.0000      0.0000      0.0000      2.0084
 30      0.0000      0.2140      1.0355      1.2410      0.2713      0.0000      0.0000      0.0000      1.1246
 31      0.0000      2.2949      1.5535      3.0741      1.1097      2.5542      0.0000      3.6470      3.0704
 32      0.0000      0.1984      0.0000      0.4103      0.8317      0.6500      0.0000      0.0000      0.0000
 33      0.0000      0.1754      0.5011      0.3355      0.0000      0.0000      0.0000      0.0000      0.6769
 34      0.0000      0.1595      0.0000      0.0000      0.0000      0.8775      0.0000      0.0000      0.0000
 35      7.7810      3.3138      3.9055      4.4340      3.8358      3.6161      3.3959      3.7880      4.8196
 36      5.8011      3.6846      4.9647      3.7211      3.8968      3.5465      4.8045      4.9700      3.3349
 37      0.0000      0.2477      0.0000      0.0000      0.2192      0.0000      0.0000      0.0000      0.5271
 38     14.7787     22.7575     20.5538     24.1430     23.0102     25.3891     22.8332     21.2560     20.3886
 39      0.0000      0.6584      0.0000      2.2616      2.9517      0.2870      0.0000      0.0000      1.9979
 40      0.0000      0.4157      0.0342      0.0000      0.0000      0.0000      0.0000      0.0000      0.0000
 41      0.0000      0.6385      0.0000      0.0000      0.2042      0.0000      0.0000      0.1676      0.0000
 42      0.0000      0.5058      0.0000      0.0000      0.6739      0.0000      0.0000      0.0000      0.0000
 43      0.0000      0.3712      0.1926      0.0000      0.0000      0.0000      0.0000      0.0000      0.0000
 44      0.0000      0.3151      0.7266      0.0000      0.6597      0.3358      0.0000      0.0000      0.2977
 45      0.0000      0.5981      0.0000      0.7277      0.0000      0.0000      1.0011      0.0000      0.0000
 46      0.0000      0.8285      0.2064      2.5464      0.6999      0.0000      0.7406      0.0000      0.0000
