###################################################################
## OUTPUT of StarlightChains_v04.for    [Cid@UFSC - 01/Apr/2007] ##
###################################################################

## Some input info
2009gf.txt                               [arq_obs]
Base.CB07.vall.4m                        [arq_base]
Masks.EmLines.NEW.gm                     [arq_masks]
StCv04.C11.config                        [arq_config]
   66                                    [N_base]
    0                                    [N_YAV_components = # of components with extra extinction!]
    0                                    [i_FitPowerLaw (1/0 = Yes/No)]
-9.99                                    [alpha_PowerLaw]
CCM                                      [red_law_option]
 1.458241                                [q_norm = A(l_norm)/A(V)]

## (Re)Sampling Parameters
 3741.00                                 [l_ini (A)]
 7218.00                                 [l_fin (A)]
    1.00                                 [dl    (A)]     (OBS: dl_cushion =    50.00 A)

## Normalization info
 4020.00                                 [l_norm (A) - for base]
 4010.00                                 [llow_norm (A) - window for f_obs]
 4060.00                                 [lupp_norm (A) - window for f_obs]
1.214434E-15                             [fobs_norm (in input units)]

## S/N
 3691.00                                 [llow_SN (A) - window for S/N]
 7268.00                                 [lupp_SN (A) - window for S/N]
   8.773                                 [S/N in S/N window]
  10.337                                 [S/N in norm. window]
  21.662                                 [S/N_err in S/N window]
  25.522                                 [S/N_err in norm. window]
  1.0000                                 [fscale_chi2]

## etc...
    -2007358                             [idum_orig]
  2393                                   [NOl_eff]
  2393                                   [Nl_eff]
     0    NSIGMA                         [Ntot_cliped & clip_method]
  1917720                                [Nglobal_steps]
   7                                     [N_chains]
  30                                     [NEX0s_base = N_base in EX0s-fits]
 0   0   1       10   2.0   4.381E+01    [Clip-Bug, RC-Crash & Burn-In warning-flags, n_censored_weights, wei_nsig_threshold & wei_limit]
    16     16.223     15.714      0.509  [idt_all, wdt_TotTime, wdt_UsrTime & wdt_SysTime (sec)]

## Synthesis Results - Best model ##

 2.07860E-01                             [chi2/Nl_eff]
     1.51515                             [adev (%)]

   106.79491                             [sum-of-x (%)]
 2.27014E-15                             [Flux_tot (units of input spectrum!)]
 1.12283E-11                             [Mini_tot (???)]
 6.30396E-12                             [Mcor_tot (???)]

  84.20                                  [v0_min  (km/s)]
 187.28                                  [vd_min  (km/s)]
 0.4168                                  [AV_min  (mag)]
 0.0000                                  [YAV_min (mag)]

# j     x_j(%)      Mini_j(%)     Mcor_j(%)     age_j(yr)     Z_j      (L/M)_j    YAV?  Mstars   component_j        a/Fe...       SSP_chi2r SSP_adev(%)   SSP_AV   SSP_x(%)
  1      0.0000     0.0000E+00    0.0000E+00    1.000000E+06  0.00400  1.094E-02    0   1.0000   age020_m42            0.0000     2.0233E+00     5.3187   2.6215    92.2509
  2      0.0000     0.0000E+00    0.0000E+00    3.160000E+06  0.00400  4.007E-02    0   0.9999   age045_m42            0.0000     1.1302E+00     3.5587   1.9284    97.0430
  3      0.0000     0.0000E+00    0.0000E+00    5.010000E+06  0.00400  2.539E-02    0   0.9488   age055_m42            0.0000     1.4428E+00     4.2456   2.2336    95.3402
  4      0.0556     4.0189E-04    6.5999E-04    6.610000E+06  0.00400  2.620E-02    0   0.9220   age061_m42            0.0000     1.0303E+00     3.3125   1.8544    97.2600
  5      0.0000     0.0000E+00    0.0000E+00    1.000000E+07  0.00400  1.322E-02    0   0.8862   age070_m42            0.0000     8.9649E-01     3.0611   1.5580    99.8941
  6      0.0000     0.0000E+00    0.0000E+00    1.445000E+07  0.00400  7.883E-03    0   0.8571   age078_m42            0.0000     1.0963E+00     3.4756   1.8796    97.6524
  7      0.0000     0.0000E+00    0.0000E+00    2.512000E+07  0.00400  5.251E-03    0   0.8174   age090_m42            0.0000     8.9669E-01     3.0479   1.4287   100.3876
  8      0.2989     1.5507E-02    2.1685E-02    4.000000E+07  0.00400  3.649E-03    0   0.7851   age104_m42            0.0000     7.4351E-01     2.7605   1.2063   100.9935
  9      0.0000     0.0000E+00    0.0000E+00    5.500000E+07  0.00400  3.098E-03    0   0.7629   age110_m42            0.0000     6.9904E-01     2.5340   1.3725   100.4412
 10      0.2537     2.1557E-02    2.7672E-02    1.015200E+08  0.00400  2.228E-03    0   0.7207   age116_m42            0.0000     7.2292E-01     2.6148   1.4019   100.2326
 11      0.0000     0.0000E+00    0.0000E+00    2.861200E+08  0.00400  1.093E-03    0   0.6648   age125_m42            0.0000     6.4349E-01     2.7053   0.8353   103.1448
 12      0.0000     0.0000E+00    0.0000E+00    5.088000E+08  0.00400  6.597E-04    0   0.6365   age130_m42            0.0000     6.1816E-01     2.8236   0.8367   103.4918
 13      0.0044     3.8983E-03    4.0258E-03    1.434000E+09  0.00400  2.132E-04    0   0.5798   age139_m42            0.0000     4.2942E-01     2.4188  -0.1291   105.2327
 14      0.0000     0.0000E+00    0.0000E+00    4.250000E+09  0.00400  5.895E-05    0   0.5377   age158_m42            0.0000     9.3465E-01     3.2295  -0.5769   101.6911
 15      0.0000     0.0000E+00    0.0000E+00    7.500000E+09  0.00400  3.510E-05    0   0.5212   age171_m42            0.0000     1.3563E+00     3.8261  -0.7604   100.8901
 16      0.6426     6.0674E+00    5.4403E+00    1.300000E+10  0.00400  2.005E-05    0   0.5034   age193_m42            0.0000     1.8437E+00     4.4016  -0.9218   100.2653
 17      0.0000     0.0000E+00    0.0000E+00    1.800000E+10  0.00400  1.525E-05    0   0.4967   age213_m42            0.0000     1.7844E+00     4.3377  -0.9469    99.8946
 18      0.0000     0.0000E+00    0.0000E+00    1.000000E+06  0.00800  1.238E-02    0   1.0000   age020_m52            0.0000     2.0269E+00     5.3345   2.6173    92.4507
 19      0.0000     0.0000E+00    0.0000E+00    3.160000E+06  0.00800  3.074E-02    0   0.9966   age045_m52            0.0000     1.9624E+00     5.2390   2.5433    93.1504
 20      0.0000     0.0000E+00    0.0000E+00    5.010000E+06  0.00800  2.668E-02    0   0.9443   age055_m52            0.0000     1.5259E+00     4.4515   2.3104    94.7360
 21      0.0043     3.8201E-05    6.2443E-05    6.610000E+06  0.00800  2.136E-02    0   0.9177   age061_m52            0.0000     6.6308E-01     2.9467   1.0493   101.4934
 22      0.0000     0.0000E+00    0.0000E+00    1.000000E+07  0.00800  1.215E-02    0   0.8827   age070_m52            0.0000     1.0226E+00     3.3626   1.7311    99.9725
 23      2.3474     5.0980E-02    7.7655E-02    1.445000E+07  0.00800  8.717E-03    0   0.8552   age078_m52            0.0000     9.9360E-01     3.2695   1.8471    98.8971
 24      1.9834     6.7148E-02    9.7618E-02    2.512000E+07  0.00800  5.592E-03    0   0.8162   age090_m52            0.0000     8.3666E-01     2.9424   1.4950   101.4527
 25      4.9304     2.3958E-01    3.3460E-01    4.000000E+07  0.00800  3.896E-03    0   0.7841   age104_m52            0.0000     6.9697E-01     2.6229   1.4169   101.8156
 26      0.2722     2.3994E-02    3.0882E-02    1.015200E+08  0.00800  2.148E-03    0   0.7226   age116_m52            0.0000     5.9590E-01     2.4043   1.3657   101.2174
 27      0.0518     9.8784E-03    1.1759E-02    2.861200E+08  0.00800  9.925E-04    0   0.6683   age125_m52            0.0000     5.3200E-01     2.6233   0.9030   104.3729
 28      8.6677     5.2243E+00    5.7115E+00    9.047900E+08  0.00800  3.141E-04    0   0.6138   age135_m52            0.0000     6.3627E-01     2.9529   0.1250   107.7451
 29      0.0000     0.0000E+00    0.0000E+00    1.434000E+09  0.00800  1.719E-04    0   0.5853   age139_m52            0.0000     7.3752E-01     3.0363  -0.4652   106.1260
 30      0.0000     0.0000E+00    0.0000E+00    2.500000E+09  0.00800  7.872E-05    0   0.5600   age150_m52            0.0000     1.3887E+00     4.0061  -0.7302   103.2444
 31      1.3286     5.8007E+00    5.6062E+00    4.250000E+09  0.00800  4.336E-05    0   0.5426   age158_m52            0.0000     1.5526E+00     4.1147  -0.7477   102.3949
 32      0.0000     0.0000E+00    0.0000E+00    6.250000E+09  0.00800  3.159E-05    0   0.5319   age166_m52            0.0000     2.2580E+00     4.9684  -0.9416   102.0845
 33      3.1547     4.3882E+01    3.9651E+01    1.300000E+10  0.00800  1.361E-05    0   0.5073   age193_m52            0.0000     6.9593E+00     8.7107  -1.0000    86.3099
 34      0.0000     0.0000E+00    0.0000E+00    1.800000E+10  0.00800  9.886E-06    0   0.4990   age213_m52            0.0000     9.6335E+00    10.2813  -1.0000    82.1179
 35      0.7377     9.0457E-03    1.6112E-02    1.000000E+06  0.02000  1.544E-02    0   1.0000   age020_m62            0.0000     2.0575E+00     5.3875   2.6127    92.6987
 36      6.2444     3.1424E-02    5.5176E-02    3.160000E+06  0.02000  3.762E-02    0   0.9858   age045_m62            0.0000     2.0403E+00     5.3861   2.5515    93.5308
 37      0.0121     6.9680E-05    1.1594E-04    5.010000E+06  0.02000  3.296E-02    0   0.9342   age055_m62            0.0000     1.3167E+00     3.9730   2.1989    96.2792
 38     13.0469     2.1404E-01    3.3781E-01    8.710000E+06  0.02000  1.154E-02    0   0.8861   age067_m62            0.0000     2.6128E+00     6.2774   1.1450   104.3778
 39      3.3681     8.3209E-02    1.2556E-01    1.445000E+07  0.02000  7.663E-03    0   0.8472   age078_m62            0.0000     1.1884E+00     3.8948   1.3689   102.6444
 40      0.0000     0.0000E+00    0.0000E+00    2.512000E+07  0.02000  4.532E-03    0   0.8099   age090_m62            0.0000     1.3374E+00     4.0900   1.3638   102.2239
 41      0.0000     0.0000E+00    0.0000E+00    5.500000E+07  0.02000  2.733E-03    0   0.7595   age110_m62            0.0000     7.2938E-01     2.6733   1.3945   101.3274
 42      0.0000     0.0000E+00    0.0000E+00    1.609000E+08  0.02000  1.369E-03    0   0.6985   age120_m62            0.0000     6.2079E-01     2.5248   1.2556   103.0786
 43      0.0000     0.0000E+00    0.0000E+00    2.861200E+08  0.02000  9.013E-04    0   0.6714   age125_m62            0.0000     6.4843E-01     2.8166   1.0177   105.4094
 44      0.8018     3.0191E-01    3.4679E-01    5.088000E+08  0.02000  5.028E-04    0   0.6449   age130_m62            0.0000     7.5477E-01     3.2362   0.6589   107.3624
 45     10.8966     8.4963E+00    9.3508E+00    9.047900E+08  0.02000  2.428E-04    0   0.6179   age135_m62            0.0000     8.0818E-01     3.2468   0.0718   106.8805
 46      0.7371     1.1048E+00    1.1626E+00    1.434000E+09  0.02000  1.263E-04    0   0.5908   age139_m62            0.0000     1.1813E+00     3.6659  -0.3774   105.6147
 47      0.0000     0.0000E+00    0.0000E+00    2.500000E+09  0.02000  5.985E-05    0   0.5673   age150_m62            0.0000     2.0840E+00     4.8381  -0.7395   104.1108
 48      0.0000     0.0000E+00    0.0000E+00    4.250000E+09  0.02000  3.271E-05    0   0.5468   age158_m62            0.0000     3.3835E+00     6.2879  -1.0000   101.4880
 49      0.0000     0.0000E+00    0.0000E+00    1.000000E+10  0.02000  1.360E-05    0   0.5167   age181_m62            0.0000     7.9541E+00     9.2976  -1.0000    88.1221
 50      0.0000     0.0000E+00    0.0000E+00    1.800000E+10  0.02000  7.124E-06    0   0.5013   age213_m62            0.0000     1.2918E+01    11.8805  -1.0000    80.0837
 51      0.0000     0.0000E+00    0.0000E+00    1.000000E+06  0.05000  2.592E-02    0   0.9998   age020_m72            0.0000     2.1641E+00     5.5418   2.6009    92.8694
 52      0.5619     2.1958E-03    3.7455E-03    3.160000E+06  0.05000  4.845E-02    0   0.9577   age045_m72            0.0000     1.8099E+00     4.9385   2.4456    94.2773
 53      2.0602     1.2696E-02    2.0685E-02    5.010000E+06  0.05000  3.072E-02    0   0.9147   age055_m72            0.0000     1.3133E+00     4.1113   1.9609    98.7391
 54      0.4324     5.6268E-03    8.8967E-03    6.610000E+06  0.05000  1.455E-02    0   0.8877   age061_m72            0.0000     5.0133E+00     8.8633   1.1958   105.6485
 55      0.0000     0.0000E+00    0.0000E+00    1.000000E+07  0.05000  9.074E-03    0   0.8524   age070_m72            0.0000     1.7827E+00     4.9322   2.1596    98.1356
 56      0.0042     1.8851E-04    2.6532E-04    2.512000E+07  0.05000  4.250E-03    0   0.7902   age090_m72            0.0000     1.2934E+00     3.8912   1.8618    99.5122
 57      0.0079     4.8749E-04    6.6146E-04    4.000000E+07  0.05000  3.087E-03    0   0.7618   age104_m72            0.0000     1.2985E+00     3.8086   1.6365   100.9660
 58      0.0000     0.0000E+00    0.0000E+00    1.015200E+08  0.05000  1.700E-03    0   0.7096   age116_m72            0.0000     7.2732E-01     2.6883   1.3940   102.8504
 59      0.0000     0.0000E+00    0.0000E+00    2.861200E+08  0.05000  7.384E-04    0   0.6633   age125_m72            0.0000     6.4199E-01     2.9394   0.8957   106.3634
 60     35.0741     1.7387E+01    1.9733E+01    5.088000E+08  0.05000  3.819E-04    0   0.6372   age130_m72            0.0000     7.3654E-01     3.2691   0.4110   107.7701
 61      7.8379     8.8535E+00    9.6351E+00    9.047900E+08  0.05000  1.676E-04    0   0.6110   age135_m72            0.0000     1.7288E+00     4.7251  -0.2834   106.0387
 62      0.9757     2.0903E+00    2.1870E+00    1.434000E+09  0.05000  8.837E-05    0   0.5874   age139_m72            0.0000     2.3421E+00     5.1242  -0.7364   105.4358
 63      0.0000     0.0000E+00    0.0000E+00    2.500000E+09  0.05000  4.233E-05    0   0.5598   age150_m72            0.0000     3.8048E+00     6.7060  -1.0000   102.3409
 64      0.0000     0.0000E+00    0.0000E+00    6.250000E+09  0.05000  1.435E-05    0   0.5249   age166_m72            0.0000     9.9626E+00    10.4589  -1.0000    84.3161
 65      0.0000     0.0000E+00    0.0000E+00    1.300000E+10  0.05000  6.513E-06    0   0.5036   age193_m72            0.0000     1.7636E+01    13.8585  -1.0000    75.4765
 66      0.0000     0.0000E+00    0.0000E+00    1.800000E+10  0.05000  4.527E-06    0   0.4945   age213_m72            0.0000     2.2932E+01    15.7564  -1.0000    70.1173


## Synthesis Results - Average & Chains ##

# j      x_j: min, <> & last-chain-values for 1 ...  7 chains
  1      0.0000      0.5734      0.0000      1.0227      0.0815      0.3568      0.2841      0.8278      0.4823
  2      0.0000      0.8060      0.0163      0.5751      0.0000      0.9629      0.1511      0.0000      0.4632
  3      0.0000      0.3745      1.1234      0.0000      0.0000      0.0000      0.0000      0.5632      1.0855
  4      0.0556      0.4961      1.0855      0.3073      1.7669      0.0000      0.0000      0.0000      0.7950
  5      0.0000      0.5453      1.4442      0.0000      0.3136      0.6387      0.0000      0.0000      1.4874
  6      0.0000      1.0589      2.1042      1.8723      0.1718      0.0000      0.4556      1.4472      1.6082
  7      0.0000      0.3288      1.8449      0.0000      0.2955      0.0000      0.0000      0.0000      0.1925
  8      0.2989      0.8483      0.0000      0.5150      0.9474      1.1543      0.4880      1.0738      0.0000
  9      0.0000      0.4364      0.0000      0.0529      0.0973      0.8638      0.0000      0.6428      0.0000
 10      0.2537      0.5296      0.8778      1.3181      0.9041      0.8925      1.5993      0.6462      0.0000
 11      0.0000      0.8170      0.0000      0.0000      0.0244      0.1921      0.0000      0.1378      0.3519
 12      0.0000      0.6843      0.0000      0.0000      0.0000      0.0000      0.8198      0.0000      0.0000
 13      0.0044      2.0875      0.8095      1.8221      2.2273      0.3162      1.3251      2.1469      1.7263
 14      0.0000      0.2447      0.0519      0.0000      0.0000      0.0000      0.0000      0.0000      0.0000
 15      0.0000      0.2263      0.0000      0.0813      0.0000      0.0000      0.1407      0.4763      0.0000
 16      0.6426      0.1532      0.0916      0.0000      0.8485      0.0000      0.1860      0.0000      0.0000
 17      0.0000      0.1821      0.7833      0.3194      0.0000      0.0571      0.0000      0.0000      0.0913
 18      0.0000      0.4032      0.0000      0.0000      0.0000      0.0000      1.2643      0.9763      0.0000
 19      0.0000      0.1401      0.5965      0.0162      0.0000      0.0011      0.0295      0.0000      0.0000
 20      0.0000      0.2324      1.1854      0.0000      0.1598      0.7232      1.7614      0.0000      0.0000
 21      0.0043      1.0667      1.3022      0.7651      0.6616      1.0814      0.4692      0.7053      2.2631
 22      0.0000      0.6012      0.8001      0.3890      0.0817      2.1476      0.9918      0.1628      0.0000
 23      2.3474      0.8489      0.4554      0.7901      0.7662      1.2677      0.9230      0.9653      1.5798
 24      1.9834      2.1661      2.2177      1.0882      1.7148      2.5032      0.0000      0.9363      1.8170
 25      4.9304      1.6326      2.0539      3.6663      1.9175      1.5499      2.0486      3.2291      0.6256
 26      0.2722      1.1512      1.6051      0.9838      2.1848      1.6308      0.5350      0.1138      2.3908
 27      0.0518      0.8808      0.5104      0.2554      1.1043      0.0000      0.8521      0.0000      0.0000
 28      8.6677      5.7934      6.6205      7.2902      5.9792      7.3646      8.3829      6.7182      7.2091
 29      0.0000      1.2524      1.0548      0.8070      0.0000      0.4301      0.0000      0.8821      0.3956
 30      0.0000      0.3159      0.7083      0.0000      0.0000      0.2247      0.0000      0.7427      0.4736
 31      1.3286      1.8353      1.9673      1.8875      1.8077      2.2232      2.0859      1.6464      3.5026
 32      0.0000      0.1052      0.0905      0.4610      0.0000      0.0000      0.0929      0.0000      0.0000
 33      3.1547      1.5030      1.9097      1.4044      1.7504      1.7779      1.8396      1.6764      1.6985
 34      0.0000      0.0483      0.0000      0.1173      0.0366      0.1432      0.3258      0.0000      0.3140
 35      0.7377      1.1465      0.0000      1.3819      1.3555      1.8887      0.7526      1.1677      0.1349
 36      6.2444      4.0272      4.3164      5.0974      5.0509      4.8738      4.0868      4.1662      4.1230
 37      0.0121      0.6411      1.2204      0.0000      0.5651      0.0000      0.3882      0.8101      0.7661
 38     13.0469      5.0356      5.5444      5.9164      6.7552      4.7513      5.0837      5.2933      7.2557
 39      3.3681      2.3234      2.1285      2.8880      2.9332      3.8480      4.5132      3.7172      1.5159
 40      0.0000      0.6048      0.9950      0.4819      0.0056      0.9656      1.9184      0.0000      0.0000
 41      0.0000      1.3805      1.1243      0.6678      0.1780      1.7003      2.0060      1.2643      1.1216
 42      0.0000      0.5663      0.0000      0.8738      0.0000      0.0000      0.0000      0.2201      0.1964
 43      0.0000      0.6605      0.8925      0.0000      0.0000      0.0000      0.0544      0.3485      0.0000
 44      0.8018      0.9174      0.0000      0.0000      0.6594      1.2238      0.0349      0.5812      0.0000
 45     10.8966      8.9488      9.6245      9.5719     10.0190      8.4806      9.7409      8.4966     10.7089
 46      0.7371      1.7767      2.0346      2.4489      1.9399      3.6746      2.3045      2.2363      1.8009
