###################################################################
## OUTPUT of StarlightChains_v04.for    [Cid@UFSC - 01/Apr/2007] ##
###################################################################

## Some input info
2009ds.txt                               [arq_obs]
Base.CB07.vall.4m                        [arq_base]
Masks.EmLines.NEW.gm                     [arq_masks]
StCv04.C11.config                        [arq_config]
   66                                    [N_base]
    0                                    [N_YAV_components = # of components with extra extinction!]
    0                                    [i_FitPowerLaw (1/0 = Yes/No)]
-9.99                                    [alpha_PowerLaw]
CCM                                      [red_law_option]
 1.458241                                [q_norm = A(l_norm)/A(V)]

## (Re)Sampling Parameters
 3741.00                                 [l_ini (A)]
 7218.00                                 [l_fin (A)]
    1.00                                 [dl    (A)]     (OBS: dl_cushion =    50.00 A)

## Normalization info
 4020.00                                 [l_norm (A) - for base]
 4010.00                                 [llow_norm (A) - window for f_obs]
 4060.00                                 [lupp_norm (A) - window for f_obs]
7.728209E-17                             [fobs_norm (in input units)]

## S/N
 3691.00                                 [llow_SN (A) - window for S/N]
 7268.00                                 [lupp_SN (A) - window for S/N]
   9.532                                 [S/N in S/N window]
  10.439                                 [S/N in norm. window]
  16.505                                 [S/N_err in S/N window]
  18.075                                 [S/N_err in norm. window]
  1.0000                                 [fscale_chi2]

## etc...
    -2007353                             [idum_orig]
  2384                                   [NOl_eff]
  2384                                   [Nl_eff]
     0    NSIGMA                         [Ntot_cliped & clip_method]
  2302720                                [Nglobal_steps]
   7                                     [N_chains]
  40                                     [NEX0s_base = N_base in EX0s-fits]
 0   0   1        0   2.0   3.200E+01    [Clip-Bug, RC-Crash & Burn-In warning-flags, n_censored_weights, wei_nsig_threshold & wei_limit]
    19     19.008     18.505      0.503  [idt_all, wdt_TotTime, wdt_UsrTime & wdt_SysTime (sec)]

## Synthesis Results - Best model ##

 3.72194E-01                             [chi2/Nl_eff]
     3.05298                             [adev (%)]

   104.14069                             [sum-of-x (%)]
 1.01652E-16                             [Flux_tot (units of input spectrum!)]
 2.67022E-12                             [Mini_tot (???)]
 1.37671E-12                             [Mcor_tot (???)]

-123.05                                  [v0_min  (km/s)]
 163.13                                  [vd_min  (km/s)]
 0.1739                                  [AV_min  (mag)]
 0.0000                                  [YAV_min (mag)]

# j     x_j(%)      Mini_j(%)     Mcor_j(%)     age_j(yr)     Z_j      (L/M)_j    YAV?  Mstars   component_j        a/Fe...       SSP_chi2r SSP_adev(%)   SSP_AV   SSP_x(%)
  1      2.0238     6.7623E-03    1.3116E-02    1.000000E+06  0.00400  1.094E-02    0   1.0000   age020_m42            0.0000     1.6171E+00     6.3360   2.9925    86.0687
  2      0.0000     0.0000E+00    0.0000E+00    3.160000E+06  0.00400  4.007E-02    0   0.9999   age045_m42            0.0000     1.2799E+00     5.2660   2.2720    91.8241
  3      4.0131     5.7779E-03    1.0633E-02    5.010000E+06  0.00400  2.539E-02    0   0.9488   age055_m42            0.0000     1.3714E+00     5.6066   2.5862    89.7855
  4      0.0027     3.7336E-06    6.6768E-06    6.610000E+06  0.00400  2.620E-02    0   0.9220   age061_m42            0.0000     1.1851E+00     5.1228   2.1907    92.3831
  5      0.0000     0.0000E+00    0.0000E+00    1.000000E+07  0.00400  1.322E-02    0   0.8862   age070_m42            0.0000     9.4222E-01     4.9282   1.8477    97.1792
  6      0.7352     3.4092E-03    5.6675E-03    1.445000E+07  0.00400  7.883E-03    0   0.8571   age078_m42            0.0000     1.0638E+00     5.2238   2.1811    94.4018
  7      2.8077     1.9546E-02    3.0988E-02    2.512000E+07  0.00400  5.251E-03    0   0.8174   age090_m42            0.0000     9.2241E-01     4.9403   1.7065    98.2655
  8      0.0000     0.0000E+00    0.0000E+00    4.000000E+07  0.00400  3.649E-03    0   0.7851   age104_m42            0.0000     8.5537E-01     4.7214   1.4849    98.8154
  9      0.0000     0.0000E+00    0.0000E+00    5.500000E+07  0.00400  3.098E-03    0   0.7629   age110_m42            0.0000     8.9574E-01     4.6379   1.6672    97.4766
 10      0.0000     0.0000E+00    0.0000E+00    1.015200E+08  0.00400  2.228E-03    0   0.7207   age116_m42            0.0000     9.2554E-01     4.6427   1.7060    96.8189
 11      0.0000     0.0000E+00    0.0000E+00    2.861200E+08  0.00400  1.093E-03    0   0.6648   age125_m42            0.0000     8.6102E-01     4.6150   1.1136   100.8837
 12      0.0000     0.0000E+00    0.0000E+00    5.088000E+08  0.00400  6.597E-04    0   0.6365   age130_m42            0.0000     8.1999E-01     4.5850   1.1332   100.3192
 13      0.0000     0.0000E+00    0.0000E+00    1.434000E+09  0.00400  2.132E-04    0   0.5798   age139_m42            0.0000     4.9716E-01     3.6733   0.1758   101.6765
 14      0.0000     0.0000E+00    0.0000E+00    4.250000E+09  0.00400  5.895E-05    0   0.5377   age158_m42            0.0000     6.4049E-01     4.0951  -0.2216    95.7563
 15      0.0000     0.0000E+00    0.0000E+00    7.500000E+09  0.00400  3.510E-05    0   0.5212   age171_m42            0.0000     7.4087E-01     4.4475  -0.3892    94.2508
 16      0.0000     0.0000E+00    0.0000E+00    1.300000E+10  0.00400  2.005E-05    0   0.5034   age193_m42            0.0000     8.7366E-01     4.8376  -0.5355    92.9522
 17      0.0000     0.0000E+00    0.0000E+00    1.800000E+10  0.00400  1.525E-05    0   0.4967   age213_m42            0.0000     8.5268E-01     4.7610  -0.5639    92.7592
 18      0.0000     0.0000E+00    0.0000E+00    1.000000E+06  0.00800  1.238E-02    0   1.0000   age020_m52            0.0000     1.6142E+00     6.3408   2.9896    86.2056
 19      0.8572     1.0193E-03    1.9704E-03    3.160000E+06  0.00800  3.074E-02    0   0.9966   age045_m52            0.0000     1.5842E+00     6.2466   2.9151    86.8791
 20      0.0000     0.0000E+00    0.0000E+00    5.010000E+06  0.00800  2.668E-02    0   0.9443   age055_m52            0.0000     1.3679E+00     5.7066   2.6652    89.1203
 21      0.0000     0.0000E+00    0.0000E+00    6.610000E+06  0.00800  2.136E-02    0   0.9177   age061_m52            0.0000     7.5156E-01     4.5614   1.3519    98.0592
 22      0.0000     0.0000E+00    0.0000E+00    1.000000E+07  0.00800  1.215E-02    0   0.8827   age070_m52            0.0000     9.7358E-01     5.1722   2.0089    97.8143
 23      0.5150     2.1597E-03    3.5823E-03    1.445000E+07  0.00800  8.717E-03    0   0.8552   age078_m52            0.0000     9.8700E-01     5.0504   2.1441    95.8329
 24      2.1837     1.4275E-02    2.2598E-02    2.512000E+07  0.00800  5.592E-03    0   0.8162   age090_m52            0.0000     8.7091E-01     4.8587   1.7658    99.6680
 25      0.8955     8.4022E-03    1.2778E-02    4.000000E+07  0.00800  3.896E-03    0   0.7841   age104_m52            0.0000     8.3768E-01     4.6779   1.6918    99.8077
 26      0.6832     1.1627E-02    1.6296E-02    1.015200E+08  0.00800  2.148E-03    0   0.7226   age116_m52            0.0000     8.3703E-01     4.5031   1.6585    98.3039
 27      0.0000     0.0000E+00    0.0000E+00    2.861200E+08  0.00800  9.925E-04    0   0.6683   age125_m52            0.0000     7.3060E-01     4.3999   1.1949   101.4117
 28      0.0000     0.0000E+00    0.0000E+00    9.047900E+08  0.00800  3.141E-04    0   0.6138   age135_m52            0.0000     6.0258E-01     4.1350   0.4363   103.7183
 29      0.0002     3.2915E-05    3.7366E-05    1.434000E+09  0.00800  1.719E-04    0   0.5853   age139_m52            0.0000     5.5880E-01     3.8453  -0.1391   101.3743
 30      0.0000     0.0000E+00    0.0000E+00    2.500000E+09  0.00800  7.872E-05    0   0.5600   age150_m52            0.0000     7.2482E-01     4.5038  -0.3590    96.4576
 31      0.0000     0.0000E+00    0.0000E+00    4.250000E+09  0.00800  4.336E-05    0   0.5426   age158_m52            0.0000     7.7971E-01     4.6199  -0.3709    95.3943
 32      0.0000     0.0000E+00    0.0000E+00    6.250000E+09  0.00800  3.159E-05    0   0.5319   age166_m52            0.0000     9.6440E-01     5.2254  -0.5450    94.1848
 33      0.0000     0.0000E+00    0.0000E+00    1.300000E+10  0.00800  1.361E-05    0   0.5073   age193_m52            0.0000     1.2481E+00     6.1200  -0.9775    92.0705
 34      0.0010     3.6316E-03    3.5148E-03    1.800000E+10  0.00800  9.886E-06    0   0.4990   age213_m52            0.0000     1.5471E+00     7.0840  -1.0000    88.2168
 35      0.0000     0.0000E+00    0.0000E+00    1.000000E+06  0.02000  1.544E-02    0   1.0000   age020_m62            0.0000     1.6263E+00     6.3810   2.9859    86.3875
 36      0.0000     0.0000E+00    0.0000E+00    3.160000E+06  0.02000  3.762E-02    0   0.9858   age045_m62            0.0000     1.6233E+00     6.3742   2.9275    87.0365
 37      2.3067     2.5583E-03    4.6354E-03    5.010000E+06  0.02000  3.296E-02    0   0.9342   age055_m62            0.0000     1.3161E+00     5.4425   2.5543    90.5610
 38     10.6527     3.3744E-02    5.7994E-02    8.710000E+06  0.02000  1.154E-02    0   0.8861   age067_m62            0.0000     1.5726E+00     7.4983   1.3466   106.3271
 39      3.4251     1.6339E-02    2.6848E-02    1.445000E+07  0.02000  7.663E-03    0   0.8472   age078_m62            0.0000     1.0053E+00     5.5961   1.6193   101.8335
 40      1.4263     1.1505E-02    1.8072E-02    2.512000E+07  0.02000  4.532E-03    0   0.8099   age090_m62            0.0000     1.0733E+00     5.7326   1.6055   101.8805
 41      1.1388     1.5231E-02    2.2437E-02    5.500000E+07  0.02000  2.733E-03    0   0.7595   age110_m62            0.0000     8.0435E-01     4.6146   1.6735    99.1174
 42      5.0212     1.3408E-01    1.8164E-01    1.609000E+08  0.02000  1.369E-03    0   0.6985   age120_m62            0.0000     7.7870E-01     4.4278   1.5462   100.2496
 43      2.4306     9.8580E-02    1.2837E-01    2.861200E+08  0.02000  9.013E-04    0   0.6714   age125_m62            0.0000     7.2833E-01     4.5007   1.3113   102.3898
 44      1.2671     9.2122E-02    1.1523E-01    5.088000E+08  0.02000  5.028E-04    0   0.6449   age130_m62            0.0000     7.3812E-01     4.6132   0.9765   103.0414
 45      0.0000     0.0000E+00    0.0000E+00    9.047900E+08  0.02000  2.428E-04    0   0.6179   age135_m62            0.0000     6.2604E-01     4.2617   0.4124   101.4154
 46      0.0000     0.0000E+00    0.0000E+00    1.434000E+09  0.02000  1.263E-04    0   0.5908   age139_m62            0.0000     6.6364E-01     4.3476  -0.0189    99.3326
 47      0.0000     0.0000E+00    0.0000E+00    2.500000E+09  0.02000  5.985E-05    0   0.5673   age150_m62            0.0000     9.1703E-01     5.1502  -0.3450    96.1876
 48      0.0012     1.3665E-03    1.4492E-03    4.250000E+09  0.02000  3.271E-05    0   0.5468   age158_m62            0.0000     1.2549E+00     6.2379  -0.6063    93.4981
 49      0.1503     4.0391E-01    4.0479E-01    1.000000E+10  0.02000  1.360E-05    0   0.5167   age181_m62            0.0000     1.7320E+00     7.5730  -0.9051    91.0772
 50      6.8917     3.5363E+01    3.4383E+01    1.800000E+10  0.02000  7.124E-06    0   0.5013   age213_m62            0.0000     2.1996E+00     8.8016  -1.0000    85.8846
 51      0.0000     0.0000E+00    0.0000E+00    1.000000E+06  0.05000  2.592E-02    0   0.9998   age020_m72            0.0000     1.6548E+00     6.4946   2.9741    86.5342
 52      0.0952     7.1819E-05    1.3340E-04    3.160000E+06  0.05000  4.845E-02    0   0.9577   age045_m72            0.0000     1.5412E+00     6.0245   2.8174    87.9239
 53      0.0000     0.0000E+00    0.0000E+00    5.010000E+06  0.05000  3.072E-02    0   0.9147   age055_m72            0.0000     1.2066E+00     5.7774   2.2519    95.7948
 54      0.0000     0.0000E+00    0.0000E+00    6.610000E+06  0.05000  1.455E-02    0   0.8877   age061_m72            0.0000     3.3892E+00    10.3160   1.3556   109.5288
 55      0.0000     0.0000E+00    0.0000E+00    1.000000E+07  0.05000  9.074E-03    0   0.8524   age070_m72            0.0000     1.7314E+00     6.5735   2.4419    95.3576
 56      0.0000     0.0000E+00    0.0000E+00    2.512000E+07  0.05000  4.250E-03    0   0.7902   age090_m72            0.0000     1.3070E+00     5.7543   2.1322    97.5255
 57      0.0000     0.0000E+00    0.0000E+00    4.000000E+07  0.05000  3.087E-03    0   0.7618   age104_m72            0.0000     1.2881E+00     5.7422   1.8920    99.7495
 58      0.0295     6.3448E-04    8.7324E-04    1.015200E+08  0.05000  1.700E-03    0   0.7096   age116_m72            0.0000     8.5530E-01     4.6575   1.6695   100.7502
 59      7.8231     3.8729E-01    4.9825E-01    2.861200E+08  0.05000  7.384E-04    0   0.6633   age125_m72            0.0000     6.8139E-01     4.4411   1.2003   102.7851
 60     19.5429     1.8706E+00    2.3119E+00    5.088000E+08  0.05000  3.819E-04    0   0.6372   age130_m72            0.0000     6.2055E-01     4.2654   0.7458   102.6329
 61      8.6175     1.8795E+00    2.2274E+00    9.047900E+08  0.05000  1.676E-04    0   0.6110   age135_m72            0.0000     8.8646E-01     5.1691   0.1074    98.2055
 62      0.0000     0.0000E+00    0.0000E+00    1.434000E+09  0.05000  8.837E-05    0   0.5874   age139_m72            0.0000     9.6715E-01     5.3221  -0.3419    97.4404
 63      2.7166     2.3460E+00    2.5472E+00    2.500000E+09  0.05000  4.233E-05    0   0.5598   age150_m72            0.0000     1.3856E+00     6.6208  -0.5941    93.7548
 64     11.5547     2.9434E+01    2.9966E+01    6.250000E+09  0.05000  1.435E-05    0   0.5249   age166_m72            0.0000     1.8913E+00     7.9701  -0.9892    90.1795
 65      2.9013     1.6284E+01    1.5905E+01    1.300000E+10  0.05000  6.513E-06    0   0.5036   age193_m72            0.0000     2.8231E+00    10.0410  -1.0000    80.7732
 66      1.4302     1.1549E+01    1.1076E+01    1.800000E+10  0.05000  4.527E-06    0   0.4945   age213_m72            0.0000     3.7293E+00    11.5716  -1.0000    74.9469


## Synthesis Results - Average & Chains ##

# j      x_j: min, <> & last-chain-values for 1 ...  7 chains
  1      2.0238      1.6347      1.3915      0.2673      1.6533      0.8730      1.4464      2.1239      1.6176
  2      0.0000      0.3312      0.0000      0.1157      0.0000      1.7913      0.1478      0.0000      0.0000
  3      4.0131      2.8792      3.3066      3.7340      3.1136      3.0848      3.1239      2.0363      2.7687
  4      0.0027      0.2713      0.0000      0.0000      0.0000      0.1076      0.8601      0.0000      0.6376
  5      0.0000      0.3771      0.0000      0.0000      0.6577      0.6927      0.2577      1.4808      0.0000
  6      0.7352      0.2570      0.2568      0.0000      0.0000      0.0000      1.3174      0.0000      1.5286
  7      2.8077      2.7571      1.8263      3.2823      2.6552      3.3237      2.9360      3.6954      2.1123
  8      0.0000      1.4094      1.3936      0.7912      1.0819      0.4739      0.0000      0.1774      1.5021
  9      0.0000      1.5975      1.3403      3.0678      1.5036      2.5562      0.2291      1.3891      0.0000
 10      0.0000      0.8245      1.0877      0.9333      1.1371      0.5872      0.1532      0.6299      0.1728
 11      0.0000      0.5957      0.3589      0.2229      0.0000      0.0000      0.3008      0.0000      0.3998
 12      0.0000      0.4796      0.3261      0.0000      0.0000      0.0000      0.0000      0.0000      0.4864
 13      0.0000      1.1999      1.1922      0.0000      0.1830      2.3641      0.9724      0.1144      0.0000
 14      0.0000      0.2738      0.0000      0.0000      0.0000      0.7571      0.0000      0.0000      0.0000
 15      0.0000      0.2430      0.0000      0.0000      0.0000      0.0000      0.2718      0.0000      0.3079
 16      0.0000      0.7596      0.0000      0.0000      0.1382      0.0000      0.4412      1.5180      0.1060
 17      0.0000      0.1827      0.0279      0.0000      0.0000      0.1599      0.3767      0.0000      0.0000
 18      0.0000      1.5041      1.8383      2.1831      1.4867      1.1486      0.0000      1.5267      1.8114
 19      0.8572      0.4830      0.4663      1.0670      0.1227      0.4345      1.2708      0.0000      0.0000
 20      0.0000      0.2630      0.0000      0.7554      0.0000      0.2741      0.0000      0.6666      0.0000
 21      0.0000      0.5454      0.4931      0.0000      0.2969      0.5556      0.1990      0.0000      0.5795
 22      0.0000      0.4121      1.6894      0.0000      0.0000      0.7627      0.0000      0.7172      0.0000
 23      0.5150      0.2913      0.0000      0.0000      0.0144      0.9984      1.2277      0.3266      0.0000
 24      2.1837      1.3516      1.7880      1.2413      1.9518      3.6751      0.4705      0.0000      2.4303
 25      0.8955      0.6346      0.1807      0.5263      0.0000      0.7445      1.0285      1.2215      1.2242
 26      0.6832      2.1756      2.2257      1.0203      2.3835      2.3085      1.3399      1.6514      1.8439
 27      0.0000      1.0335      0.8294      0.9550      0.9022      0.6042      4.0169      1.9850      0.4426
 28      0.0000      1.1357      1.8886      0.2878      0.8637      0.6749      0.0000      2.5555      0.0000
 29      0.0002      0.4622      0.6082      0.0000      0.0000      0.1222      0.6770      0.0000      0.0000
 30      0.0000      0.1719      0.0000      0.0000      0.1202      0.4439      0.0000      0.1009      0.0000
 31      0.0000      0.1909      0.3778      0.0000      0.0000      0.0000      0.0000      0.0000      0.0000
 32      0.0000      0.1412      0.0000      0.0000      0.0000      0.0000      0.0000      0.0000      0.2838
 33      0.0000      0.0853      0.0000      0.0000      0.0000      0.0000      0.0000      0.0000      0.2452
 34      0.0010      1.3746      1.2320      1.5249      1.3854      1.7554      1.3030      1.1124      1.4984
 35      0.0000      0.3797      0.1731      0.0000      0.0679      0.0035      0.2754      0.4419      0.0000
 36      0.0000      0.1008      0.0000      0.0000      0.0000      0.0000      0.0000      0.6152      0.1688
 37      2.3067      2.5699      2.0370      1.4558      3.9691      2.5996      3.4383      2.0785      3.0360
 38     10.6527      4.6098      5.3298      5.7901      4.4954      4.4845      6.0370      5.8400      4.2994
 39      3.4251      2.9866      3.0506      4.2696      3.6148      3.5337      3.9343      2.4821      4.1888
 40      1.4263      1.3370      2.2019      1.8487      1.5890      1.8524      1.6333      0.9470      2.7432
 41      1.1388      1.3519      1.4443      1.6196      1.4114      1.0604      2.0060      1.7579      0.0000
 42      5.0212      3.5011      3.1165      3.6548      5.2683      2.1557      3.9365      3.5124      3.6926
 43      2.4306      2.4074      2.3607      2.7350      0.0000      2.4033      3.1301      2.3126      3.0083
 44      1.2671      2.8097      0.6219      3.4257      5.3955      1.5430      1.2262      1.8097      1.5816
 45      0.0000      0.9788      1.0378      0.0081      0.0000      0.0000      0.3557      0.7639      3.0363
 46      0.0000      1.3627      0.0000      0.6635      0.0000      2.1837      0.0766      0.9765      0.0000
