###################################################################
## OUTPUT of StarlightChains_v04.for    [Cid@UFSC - 01/Apr/2007] ##
###################################################################

## Some input info
2009je.txt                               [arq_obs]
Base.CB07.vall.4m                        [arq_base]
Masks.EmLines.NEW.gm                     [arq_masks]
StCv04.C11.config                        [arq_config]
   66                                    [N_base]
    0                                    [N_YAV_components = # of components with extra extinction!]
    0                                    [i_FitPowerLaw (1/0 = Yes/No)]
-9.99                                    [alpha_PowerLaw]
CCM                                      [red_law_option]
 1.458241                                [q_norm = A(l_norm)/A(V)]

## (Re)Sampling Parameters
 3741.00                                 [l_ini (A)]
 7218.00                                 [l_fin (A)]
    1.00                                 [dl    (A)]     (OBS: dl_cushion =    50.00 A)

## Normalization info
 4020.00                                 [l_norm (A) - for base]
 4010.00                                 [llow_norm (A) - window for f_obs]
 4060.00                                 [lupp_norm (A) - window for f_obs]
2.175762E-16                             [fobs_norm (in input units)]

## S/N
 3691.00                                 [llow_SN (A) - window for S/N]
 7268.00                                 [lupp_SN (A) - window for S/N]
   7.127                                 [S/N in S/N window]
   8.248                                 [S/N in norm. window]
   0.000                                 [S/N_err in S/N window]
   0.000                                 [S/N_err in norm. window]
  1.0000                                 [fscale_chi2]

## etc...
    -2007363                             [idum_orig]
  2143                                   [NOl_eff]
  1992                                   [Nl_eff]
   151    NSIGMA                         [Ntot_cliped & clip_method]
  1744820                                [Nglobal_steps]
   7                                     [N_chains]
  23                                     [NEX0s_base = N_base in EX0s-fits]
 0   0   1        6   2.0   9.485E+01    [Clip-Bug, RC-Crash & Burn-In warning-flags, n_censored_weights, wei_nsig_threshold & wei_limit]
    23     22.624     22.113      0.511  [idt_all, wdt_TotTime, wdt_UsrTime & wdt_SysTime (sec)]

## Synthesis Results - Best model ##

 1.19483E+00                             [chi2/Nl_eff]
     7.56369                             [adev (%)]

    92.84085                             [sum-of-x (%)]
 2.40575E-16                             [Flux_tot (units of input spectrum!)]
 2.80165E-12                             [Mini_tot (???)]
 1.54343E-12                             [Mcor_tot (???)]

   6.27                                  [v0_min  (km/s)]
 160.60                                  [vd_min  (km/s)]
 0.1301                                  [AV_min  (mag)]
 0.0000                                  [YAV_min (mag)]

# j     x_j(%)      Mini_j(%)     Mcor_j(%)     age_j(yr)     Z_j      (L/M)_j    YAV?  Mstars   component_j        a/Fe...       SSP_chi2r SSP_adev(%)   SSP_AV   SSP_x(%)
  1      0.0000     0.0000E+00    0.0000E+00    1.000000E+06  0.00400  1.094E-02    0   1.0000   age020_m42            0.0000     2.7477E+00     8.3168   3.1102    76.4249
  2      0.0000     0.0000E+00    0.0000E+00    3.160000E+06  0.00400  4.007E-02    0   0.9999   age045_m42            0.0000     2.6383E+00     8.0706   2.3482    83.2023
  3      0.0000     0.0000E+00    0.0000E+00    5.010000E+06  0.00400  2.539E-02    0   0.9488   age055_m42            0.0000     2.6274E+00     8.1546   2.6748    80.8744
  4      0.0000     0.0000E+00    0.0000E+00    6.610000E+06  0.00400  2.620E-02    0   0.9220   age061_m42            0.0000     2.5515E+00     8.0652   2.2491    84.4908
  5      0.0000     0.0000E+00    0.0000E+00    1.000000E+07  0.00400  1.322E-02    0   0.8862   age070_m42            0.0000     2.2102E+00     8.1675   1.8011    93.7440
  6      0.0000     0.0000E+00    0.0000E+00    1.445000E+07  0.00400  7.883E-03    0   0.8571   age078_m42            0.0000     2.3722E+00     8.2079   2.1641    89.7355
  7      0.0000     0.0000E+00    0.0000E+00    2.512000E+07  0.00400  5.251E-03    0   0.8174   age090_m42            0.0000     2.1623E+00     8.3055   1.6343    96.0093
  8      0.0000     0.0000E+00    0.0000E+00    4.000000E+07  0.00400  3.649E-03    0   0.7851   age104_m42            0.0000     2.0832E+00     8.1513   1.4169    96.3435
  9      0.0000     0.0000E+00    0.0000E+00    5.500000E+07  0.00400  3.098E-03    0   0.7629   age110_m42            0.0000     2.1901E+00     8.0001   1.6407    93.0916
 10      0.0000     0.0000E+00    0.0000E+00    1.015200E+08  0.00400  2.228E-03    0   0.7207   age116_m42            0.0000     2.2132E+00     8.0126   1.7006    91.4846
 11      0.0000     0.0000E+00    0.0000E+00    2.861200E+08  0.00400  1.093E-03    0   0.6648   age125_m42            0.0000     2.2249E+00     8.3141   1.0721    97.4467
 12      0.0000     0.0000E+00    0.0000E+00    5.088000E+08  0.00400  6.597E-04    0   0.6365   age130_m42            0.0000     2.0528E+00     8.1033   1.1278    95.0647
 13      9.7212     4.2172E+00    4.4385E+00    1.434000E+09  0.00400  2.132E-04    0   0.5798   age139_m42            0.0000     1.3643E+00     7.3181   0.1597    96.7435
 14      0.0000     0.0000E+00    0.0000E+00    4.250000E+09  0.00400  5.895E-05    0   0.5377   age158_m42            0.0000     1.2944E+00     7.2387  -0.1588    87.5642
 15      0.0000     0.0000E+00    0.0000E+00    7.500000E+09  0.00400  3.510E-05    0   0.5212   age171_m42            0.0000     1.2695E+00     7.4869  -0.3025    85.2389
 16      0.0000     0.0000E+00    0.0000E+00    1.300000E+10  0.00400  2.005E-05    0   0.5034   age193_m42            0.0000     1.2808E+00     7.8194  -0.4245    83.1441
 17      0.0014     8.2346E-03    7.4245E-03    1.800000E+10  0.00400  1.525E-05    0   0.4967   age213_m42            0.0000     1.2792E+00     7.7174  -0.4594    83.2334
 18      0.0000     0.0000E+00    0.0000E+00    1.000000E+06  0.00800  1.238E-02    0   1.0000   age020_m52            0.0000     2.7279E+00     8.3112   3.1072    76.5446
 19      0.0000     0.0000E+00    0.0000E+00    3.160000E+06  0.00800  3.074E-02    0   0.9966   age045_m52            0.0000     2.6720E+00     8.2877   3.0327    77.1111
 20      0.0000     0.0000E+00    0.0000E+00    5.010000E+06  0.00800  2.668E-02    0   0.9443   age055_m52            0.0000     2.5291E+00     8.1172   2.7539    80.2669
 21      0.0000     0.0000E+00    0.0000E+00    6.610000E+06  0.00800  2.136E-02    0   0.9177   age061_m52            0.0000     1.9099E+00     7.6527   1.3195    93.8480
 22      0.0000     0.0000E+00    0.0000E+00    1.000000E+07  0.00800  1.215E-02    0   0.8827   age070_m52            0.0000     2.1419E+00     8.4139   1.9454    95.2638
 23      0.0000     0.0000E+00    0.0000E+00    1.445000E+07  0.00800  8.717E-03    0   0.8552   age078_m52            0.0000     2.1753E+00     8.1124   2.1162    91.5902
 24      0.0000     0.0000E+00    0.0000E+00    2.512000E+07  0.00800  5.592E-03    0   0.8162   age090_m52            0.0000     1.9565E+00     8.3133   1.6859    97.8363
 25      0.0000     0.0000E+00    0.0000E+00    4.000000E+07  0.00800  3.896E-03    0   0.7841   age104_m52            0.0000     2.0027E+00     8.1937   1.6275    97.2504
 26      0.0000     0.0000E+00    0.0000E+00    1.015200E+08  0.00800  2.148E-03    0   0.7226   age116_m52            0.0000     2.0645E+00     7.9693   1.6357    93.7556
 27      0.0000     0.0000E+00    0.0000E+00    2.861200E+08  0.00800  9.925E-04    0   0.6683   age125_m52            0.0000     1.8060E+00     8.0000   1.1834    96.3553
 28      0.0351     1.0349E-02    1.1531E-02    9.047900E+08  0.00800  3.141E-04    0   0.6138   age135_m52            0.0000     1.4665E+00     7.7399   0.4598    96.8444
 29      3.5440     1.9068E+00    2.0259E+00    1.434000E+09  0.00800  1.719E-04    0   0.5853   age139_m52            0.0000     1.4188E+00     7.4769  -0.1071    94.4124
 30      0.0029     3.4430E-03    3.4999E-03    2.500000E+09  0.00800  7.872E-05    0   0.5600   age150_m52            0.0000     1.2292E+00     7.6606  -0.2679    87.0946
 31      0.0000     0.0000E+00    0.0000E+00    4.250000E+09  0.00800  4.336E-05    0   0.5426   age158_m52            0.0000     1.2564E+00     7.7267  -0.2745    85.8877
 32      0.0014     4.2024E-03    4.0575E-03    6.250000E+09  0.00800  3.159E-05    0   0.5319   age166_m52            0.0000     1.2464E+00     8.2062  -0.4238    83.7927
 33      0.0000     0.0000E+00    0.0000E+00    1.300000E+10  0.00800  1.361E-05    0   0.5073   age193_m52            0.0000     1.2590E+00     8.8914  -0.8347    81.0457
 34      0.0000     0.0000E+00    0.0000E+00    1.800000E+10  0.00800  9.886E-06    0   0.4990   age213_m52            0.0000     1.3118E+00     9.5544  -0.8859    78.5458
 35      0.0000     0.0000E+00    0.0000E+00    1.000000E+06  0.02000  1.544E-02    0   1.0000   age020_m62            0.0000     2.7260E+00     8.3306   3.1054    76.6381
 36      0.0008     1.9625E-06    3.5118E-06    3.160000E+06  0.02000  3.762E-02    0   0.9858   age045_m62            0.0000     2.7159E+00     8.3702   3.0499    77.0939
 37      0.0000     0.0000E+00    0.0000E+00    5.010000E+06  0.02000  3.296E-02    0   0.9342   age055_m62            0.0000     2.5142E+00     8.1237   2.6466    81.4366
 38      0.0000     0.0000E+00    0.0000E+00    8.710000E+06  0.02000  1.154E-02    0   0.8861   age067_m62            0.0000     2.2290E+00    12.5939   1.0724   115.4936
 39      0.0000     0.0000E+00    0.0000E+00    1.445000E+07  0.02000  7.663E-03    0   0.8472   age078_m62            0.0000     2.0867E+00     9.2463   1.4973   102.3730
 40      0.0000     0.0000E+00    0.0000E+00    2.512000E+07  0.02000  4.532E-03    0   0.8099   age090_m62            0.0000     2.1581E+00     9.6333   1.4662   103.3942
 41      0.0000     0.0000E+00    0.0000E+00    5.500000E+07  0.02000  2.733E-03    0   0.7595   age110_m62            0.0000     1.9121E+00     8.1611   1.6119    96.4766
 42      0.0007     4.4995E-05    5.7050E-05    1.609000E+08  0.02000  1.369E-03    0   0.6985   age120_m62            0.0000     1.9197E+00     8.0675   1.5168    96.0019
 43      0.0029     2.9812E-04    3.6333E-04    2.861200E+08  0.02000  9.013E-04    0   0.6714   age125_m62            0.0000     1.7624E+00     8.0641   1.2884    97.6893
 44      0.0000     0.0000E+00    0.0000E+00    5.088000E+08  0.02000  5.028E-04    0   0.6449   age130_m62            0.0000     1.6617E+00     8.0735   1.0063    95.7576
 45      0.0000     0.0000E+00    0.0000E+00    9.047900E+08  0.02000  2.428E-04    0   0.6179   age135_m62            0.0000     1.3399E+00     7.6762   0.4705    93.0055
 46      0.0000     0.0000E+00    0.0000E+00    1.434000E+09  0.02000  1.263E-04    0   0.5908   age139_m62            0.0000     1.2275E+00     7.5674   0.0527    90.5129
 47      0.0000     0.0000E+00    0.0000E+00    2.500000E+09  0.02000  5.985E-05    0   0.5673   age150_m62            0.0000     1.2197E+00     8.1009  -0.2290    85.7251
 48      1.1562     3.2693E+00    3.2450E+00    4.250000E+09  0.02000  3.271E-05    0   0.5468   age158_m62            0.0000     1.2463E+00     8.8582  -0.4609    82.1445
 49      0.0000     0.0000E+00    0.0000E+00    1.000000E+10  0.02000  1.360E-05    0   0.5167   age181_m62            0.0000     1.3847E+00     9.9831  -0.7345    79.0804
 50      0.0000     0.0000E+00    0.0000E+00    1.800000E+10  0.02000  7.124E-06    0   0.5013   age213_m62            0.0000     1.5088E+00    10.9268  -0.8766    76.0666
 51      0.0000     0.0000E+00    0.0000E+00    1.000000E+06  0.05000  2.592E-02    0   0.9998   age020_m72            0.0000     2.7204E+00     8.3582   3.0930    76.7856
 52      0.0000     0.0000E+00    0.0000E+00    3.160000E+06  0.05000  4.845E-02    0   0.9577   age045_m72            0.0000     2.6669E+00     8.3089   2.9366    78.0016
 53      0.0000     0.0000E+00    0.0000E+00    5.010000E+06  0.05000  3.072E-02    0   0.9147   age055_m72            0.0000     2.5264E+00     8.6818   2.2477    90.9314
 54      0.0000     0.0000E+00    0.0000E+00    6.610000E+06  0.05000  1.455E-02    0   0.8877   age061_m72            0.0000     5.5548E+00    16.2038   1.0752   120.8988
 55      0.0000     0.0000E+00    0.0000E+00    1.000000E+07  0.05000  9.074E-03    0   0.8524   age070_m72            0.0000     3.3242E+00     9.3642   2.4862    88.8525
 56      0.0000     0.0000E+00    0.0000E+00    2.512000E+07  0.05000  4.250E-03    0   0.7902   age090_m72            0.0000     2.7926E+00     9.0408   2.1130    93.4898
 57      0.0025     7.4991E-05    1.0370E-04    4.000000E+07  0.05000  3.087E-03    0   0.7618   age104_m72            0.0000     2.8167E+00     9.2809   1.8375    97.3568
 58      0.0145     7.8671E-04    1.0133E-03    1.015200E+08  0.05000  1.700E-03    0   0.7096   age116_m72            0.0000     1.9720E+00     8.3207   1.6229    97.4317
 59      0.0000     0.0000E+00    0.0000E+00    2.861200E+08  0.05000  7.384E-04    0   0.6633   age125_m72            0.0000     1.6183E+00     7.9979   1.2017    96.8863
 60     40.0380     9.6966E+00    1.1216E+01    5.088000E+08  0.05000  3.819E-04    0   0.6372   age130_m72            0.0000     1.3726E+00     7.7314   0.7910    94.5980
 61     12.3424     6.8112E+00    7.5543E+00    9.047900E+08  0.05000  1.676E-04    0   0.6110   age135_m72            0.0000     1.2974E+00     8.0765   0.2201    87.5025
 62     17.7428     1.8570E+01    1.9800E+01    1.434000E+09  0.05000  8.837E-05    0   0.5874   age139_m72            0.0000     1.2159E+00     8.2454  -0.2269    86.9124
 63      5.1679     1.1292E+01    1.1474E+01    2.500000E+09  0.05000  4.233E-05    0   0.5598   age150_m72            0.0000     1.2844E+00     9.1959  -0.4358    81.8642
 64      0.9333     6.0153E+00    5.7314E+00    6.250000E+09  0.05000  1.435E-05    0   0.5249   age166_m72            0.0000     1.5056E+00    10.2975  -0.8081    77.9200
 65      0.8638     1.2267E+01    1.1214E+01    1.300000E+10  0.05000  6.513E-06    0   0.5036   age193_m72            0.0000     1.7480E+00    11.5708  -1.0000    75.5510
 66      1.2690     2.5927E+01    2.3273E+01    1.800000E+10  0.05000  4.527E-06    0   0.4945   age213_m72            0.0000     2.1080E+00    13.1703  -1.0000    69.7576


## Synthesis Results - Average & Chains ##

# j      x_j: min, <> & last-chain-values for 1 ...  7 chains
  1      0.0000      0.1203      0.0000      0.0000      0.4722      0.3756      0.0000      0.3600      0.0000
  2      0.0000      0.2633      0.2853      0.0761      0.0000      0.0000      0.0000      0.0000      0.1935
  3      0.0000      0.1483      0.0000      0.0000      0.0000      0.1615      0.3119      0.1254      0.0000
  4      0.0000      0.1505      0.0000      0.1499      0.0514      0.0000      0.0724      0.0000      0.0000
  5      0.0000      0.1132      0.0000      0.3771      0.0000      0.0000      0.0000      0.0000      0.0000
  6      0.0000      0.0979      0.0000      0.2313      0.0000      0.0000      0.0000      0.0000      0.0000
  7      0.0000      0.1539      0.2160      0.0000      0.5254      0.0000      0.3326      0.0586      0.0292
  8      0.0000      0.3238      0.0000      0.0000      0.0000      0.1027      0.1489      0.0000      0.3162
  9      0.0000      0.1607      0.0000      0.5541      0.1713      0.1274      0.1006      0.5812      0.0000
 10      0.0000      0.1403      0.5488      0.1672      0.0000      0.3274      0.0153      0.0000      0.0935
 11      0.0000      0.1827      0.0000      0.0000      0.1877      0.0000      0.0000      0.3006      0.0000
 12      0.0000      0.1411      0.0386      0.0000      0.0000      0.1944      0.0000      0.0000      0.0000
 13      9.7212      5.3328      6.9635      8.2306      6.9717      6.2986      5.2925      5.5718      5.5466
 14      0.0000      0.3322      0.9301      0.0000      0.0000      0.0940      0.0000      0.7724      0.0000
 15      0.0000      0.1650      0.0000      0.0000      0.0000      0.5723      0.5081      0.0000      0.0000
 16      0.0000      0.0919      0.0000      0.0000      0.0000      0.0000      0.0000      0.0000      0.0000
 17      0.0014      0.0979      0.0000      0.2974      0.0000      0.0000      0.2635      0.0000      0.0000
 18      0.0000      0.1065      0.0000      0.0000      0.0000      0.0000      0.3725      0.0000      0.0000
 19      0.0000      0.1144      0.0000      0.0000      0.4546      0.1878      0.0154      0.0000      0.0000
 20      0.0000      0.0800      0.3711      0.0000      0.0763      0.0000      0.0715      0.0709      0.3719
 21      0.0000      0.0916      0.0000      0.0000      0.0000      0.5617      0.0000      0.0000      0.0000
 22      0.0000      0.1071      0.4064      0.1695      0.0000      0.0000      0.0000      0.0000      0.0000
 23      0.0000      0.0884      0.1694      0.0000      0.0000      0.5156      0.0000      0.0000      0.0000
 24      0.0000      0.1428      0.0000      0.0000      0.1721      0.0000      0.0000      0.5710      0.0000
 25      0.0000      0.2777      0.6673      0.0000      0.7856      0.0000      0.0000      0.0000      0.0000
 26      0.0000      0.1382      0.0000      0.0295      0.4983      0.0000      0.0000      0.0000      0.0000
 27      0.0000      0.1637      0.0000      0.0000      0.0000      0.1120      0.0000      0.4979      0.0000
 28      0.0351      0.8655      0.0000      1.2767      0.5064      0.1105      0.7160      0.0000      0.1457
 29      3.5440      1.8974      1.9899      1.8087      3.7698      2.6241      3.3431      1.9505      2.7235
 30      0.0029      0.3299      0.0000      0.6896      0.0000      0.1385      0.0000      0.0000      0.0000
 31      0.0000      0.1316      0.0000      0.6741      0.1564      0.0000      0.0000      0.0000      0.0000
 32      0.0014      2.6588      2.6360      2.5163      2.7692      2.6103      2.5855      2.8124      2.4559
 33      0.0000      0.0516      0.0170      0.1434      0.0000      0.0000      0.0000      0.0000      0.0000
 34      0.0000      0.0221      0.0000      0.0000      0.0000      0.0000      0.0000      0.0124      0.1178
 35      0.0000      0.0576      0.3406      0.0000      0.0000      0.0000      0.0000      0.0000      0.3945
 36      0.0008      0.1954      0.0000      0.2970      0.0000      0.6090      0.0000      0.0000      0.0000
 37      0.0000      0.0790      0.0000      0.0000      0.0000      0.0000      0.3943      0.0000      0.0000
 38      0.0000      0.1939      0.0000      0.0000      0.0000      0.0000      0.1423      0.0000      0.0000
 39      0.0000      0.1114      0.2521      0.0000      0.0000      0.5392      0.0985      0.1878      0.2773
 40      0.0000      0.1592      0.0000      0.0000      0.0000      0.0000      0.0094      0.0000      0.0000
 41      0.0000      0.1050      0.1987      0.2527      0.3447      0.0000      0.0000      0.0000      0.0155
 42      0.0007      0.2000      0.2855      0.5730      0.0000      0.0000      0.1937      0.0000      1.0099
 43      0.0029      1.1281      1.0302      1.0041      0.8266      0.7566      1.6259      0.6620      1.7541
 44      0.0000      1.3151      1.3465      0.7146      1.2731      0.6049      2.1526      1.2104      0.4312
 45      0.0000      1.3296      2.7799      0.0000      1.0114      0.0000      0.5419      0.0000      0.8623
 46      0.0000      1.5060      0.2272      0.0000      0.0791      1.0826      1.3325      1.5727      0.0000
