###################################################################
## OUTPUT of StarlightChains_v04.for    [Cid@UFSC - 01/Apr/2007] ##
###################################################################

## Some input info
2009eu.txt                               [arq_obs]
Base.CB07.vall.4m                        [arq_base]
Masks.EmLines.NEW.gm                     [arq_masks]
StCv04.C11.config                        [arq_config]
   66                                    [N_base]
    0                                    [N_YAV_components = # of components with extra extinction!]
    0                                    [i_FitPowerLaw (1/0 = Yes/No)]
-9.99                                    [alpha_PowerLaw]
CCM                                      [red_law_option]
 1.458241                                [q_norm = A(l_norm)/A(V)]

## (Re)Sampling Parameters
 3741.00                                 [l_ini (A)]
 7218.00                                 [l_fin (A)]
    1.00                                 [dl    (A)]     (OBS: dl_cushion =    50.00 A)

## Normalization info
 4020.00                                 [l_norm (A) - for base]
 4010.00                                 [llow_norm (A) - window for f_obs]
 4060.00                                 [lupp_norm (A) - window for f_obs]
1.948062E-17                             [fobs_norm (in input units)]

## S/N
 3691.00                                 [llow_SN (A) - window for S/N]
 7268.00                                 [lupp_SN (A) - window for S/N]
   4.877                                 [S/N in S/N window]
   4.122                                 [S/N in norm. window]
  11.932                                 [S/N_err in S/N window]
  10.085                                 [S/N_err in norm. window]
  1.0000                                 [fscale_chi2]

## etc...
    -2007354                             [idum_orig]
  2322                                   [NOl_eff]
  2319                                   [Nl_eff]
     3    NSIGMA                         [Ntot_cliped & clip_method]
   694050                                [Nglobal_steps]
   7                                     [N_chains]
  12                                     [NEX0s_base = N_base in EX0s-fits]
 0   0   1       18   2.0   1.471E+01    [Clip-Bug, RC-Crash & Burn-In warning-flags, n_censored_weights, wei_nsig_threshold & wei_limit]
    10      9.971      9.466      0.506  [idt_all, wdt_TotTime, wdt_UsrTime & wdt_SysTime (sec)]

## Synthesis Results - Best model ##

 4.45253E-01                             [chi2/Nl_eff]
     5.52637                             [adev (%)]

   104.72939                             [sum-of-x (%)]
 1.61795E-17                             [Flux_tot (units of input spectrum!)]
 6.28216E-13                             [Mini_tot (???)]
 3.31153E-13                             [Mcor_tot (???)]

  48.42                                  [v0_min  (km/s)]
 225.33                                  [vd_min  (km/s)]
-0.1726                                  [AV_min  (mag)]
 0.0000                                  [YAV_min (mag)]

# j     x_j(%)      Mini_j(%)     Mcor_j(%)     age_j(yr)     Z_j      (L/M)_j    YAV?  Mstars   component_j        a/Fe...       SSP_chi2r SSP_adev(%)   SSP_AV   SSP_x(%)
  1      0.0000     0.0000E+00    0.0000E+00    1.000000E+06  0.00400  1.094E-02    0   1.0000   age020_m42            0.0000     1.6380E+00    12.0771   3.6017    89.8766
  2      0.0000     0.0000E+00    0.0000E+00    3.160000E+06  0.00400  4.007E-02    0   0.9999   age045_m42            0.0000     1.4288E+00    10.8043   2.8877    95.4720
  3      0.0000     0.0000E+00    0.0000E+00    5.010000E+06  0.00400  2.539E-02    0   0.9488   age055_m42            0.0000     1.5263E+00    11.3616   3.2025    93.3935
  4      0.0000     0.0000E+00    0.0000E+00    6.610000E+06  0.00400  2.620E-02    0   0.9220   age061_m42            0.0000     1.4429E+00    10.8119   2.8137    95.7174
  5      0.0000     0.0000E+00    0.0000E+00    1.000000E+07  0.00400  1.322E-02    0   0.8862   age070_m42            0.0000     1.6569E+00    11.8472   2.5173    98.2335
  6      0.0000     0.0000E+00    0.0000E+00    1.445000E+07  0.00400  7.883E-03    0   0.8571   age078_m42            0.0000     1.6965E+00    12.0885   2.8434    95.8438
  7      0.0000     0.0000E+00    0.0000E+00    2.512000E+07  0.00400  5.251E-03    0   0.8174   age090_m42            0.0000     1.7061E+00    12.0213   2.3857    98.7908
  8      0.0000     0.0000E+00    0.0000E+00    4.000000E+07  0.00400  3.649E-03    0   0.7851   age104_m42            0.0000     1.6181E+00    11.6285   2.1596    99.5716
  9      0.0000     0.0000E+00    0.0000E+00    5.500000E+07  0.00400  3.098E-03    0   0.7629   age110_m42            0.0000     1.5004E+00    10.9707   2.3231    99.2340
 10      0.0000     0.0000E+00    0.0000E+00    1.015200E+08  0.00400  2.228E-03    0   0.7207   age116_m42            0.0000     1.4272E+00    10.5407   2.3496    99.2012
 11      0.0000     0.0000E+00    0.0000E+00    2.861200E+08  0.00400  1.093E-03    0   0.6648   age125_m42            0.0000     1.4446E+00    10.6064   1.7833   102.2312
 12      0.0000     0.0000E+00    0.0000E+00    5.088000E+08  0.00400  6.597E-04    0   0.6365   age130_m42            0.0000     1.2618E+00     9.7978   1.7782   102.9167
 13      0.0000     0.0000E+00    0.0000E+00    1.434000E+09  0.00400  2.132E-04    0   0.5798   age139_m42            0.0000     9.0659E-01     8.3351   0.7966   105.4540
 14      0.0000     0.0000E+00    0.0000E+00    4.250000E+09  0.00400  5.895E-05    0   0.5377   age158_m42            0.0000     6.5976E-01     7.1918   0.3501   101.9494
 15      0.0000     0.0000E+00    0.0000E+00    7.500000E+09  0.00400  3.510E-05    0   0.5212   age171_m42            0.0000     5.7917E-01     6.6834   0.1625   101.4561
 16      9.1019     1.1164E+01    1.0661E+01    1.300000E+10  0.00400  2.005E-05    0   0.5034   age193_m42            0.0000     5.2676E-01     6.3506  -0.0004   101.0315
 17      2.0148     3.2490E+00    3.0614E+00    1.800000E+10  0.00400  1.525E-05    0   0.4967   age213_m42            0.0000     5.3710E-01     6.4251  -0.0251   100.6227
 18      0.0000     0.0000E+00    0.0000E+00    1.000000E+06  0.00800  1.238E-02    0   1.0000   age020_m52            0.0000     1.6394E+00    12.0843   3.5971    90.0834
 19      0.0000     0.0000E+00    0.0000E+00    3.160000E+06  0.00800  3.074E-02    0   0.9966   age045_m52            0.0000     1.6208E+00    11.9502   3.5204    90.8697
 20      0.0000     0.0000E+00    0.0000E+00    5.010000E+06  0.00800  2.668E-02    0   0.9443   age055_m52            0.0000     1.5559E+00    11.5464   3.2801    92.7391
 21      0.0000     0.0000E+00    0.0000E+00    6.610000E+06  0.00800  2.136E-02    0   0.9177   age061_m52            0.0000     1.4611E+00    11.4280   2.0043    99.9439
 22      0.0000     0.0000E+00    0.0000E+00    1.000000E+07  0.00800  1.215E-02    0   0.8827   age070_m52            0.0000     1.7655E+00    12.3773   2.6940    98.1574
 23      0.0000     0.0000E+00    0.0000E+00    1.445000E+07  0.00800  8.717E-03    0   0.8552   age078_m52            0.0000     1.6680E+00    11.9591   2.8092    97.1308
 24      0.0000     0.0000E+00    0.0000E+00    2.512000E+07  0.00800  5.592E-03    0   0.8162   age090_m52            0.0000     1.6973E+00    11.9655   2.4515    99.9156
 25      0.0000     0.0000E+00    0.0000E+00    4.000000E+07  0.00800  3.896E-03    0   0.7841   age104_m52            0.0000     1.6059E+00    11.5001   2.3702   100.4768
 26      0.0000     0.0000E+00    0.0000E+00    1.015200E+08  0.00800  2.148E-03    0   0.7226   age116_m52            0.0000     1.4478E+00    10.7358   2.3149   100.0748
 27      0.0000     0.0000E+00    0.0000E+00    2.861200E+08  0.00800  9.925E-04    0   0.6683   age125_m52            0.0000     1.2580E+00     9.7795   1.8426   103.8450
 28      0.0000     0.0000E+00    0.0000E+00    9.047900E+08  0.00800  3.141E-04    0   0.6138   age135_m52            0.0000     8.5848E-01     7.9210   1.0451   108.3613
 29      0.0000     0.0000E+00    0.0000E+00    1.434000E+09  0.00800  1.719E-04    0   0.5853   age139_m52            0.0000     7.3103E-01     7.4123   0.4592   106.6622
 30      0.0000     0.0000E+00    0.0000E+00    2.500000E+09  0.00800  7.872E-05    0   0.5600   age150_m52            0.0000     5.5005E-01     6.4111   0.1873   104.1455
 31      0.0000     0.0000E+00    0.0000E+00    4.250000E+09  0.00800  4.336E-05    0   0.5426   age158_m52            0.0000     5.4491E-01     6.3923   0.1697   103.2902
 32      0.0000     0.0000E+00    0.0000E+00    6.250000E+09  0.00800  3.159E-05    0   0.5319   age166_m52            0.0000     4.7498E-01     5.8577  -0.0320   103.4624
 33     22.0835     3.9902E+01    3.8401E+01    1.300000E+10  0.00800  1.361E-05    0   0.5073   age193_m52            0.0000     4.3717E-01     5.4461  -0.5016   103.0786
 34      0.0000     0.0000E+00    0.0000E+00    1.800000E+10  0.00800  9.886E-06    0   0.4990   age213_m52            0.0000     4.4739E-01     5.3985  -0.6065   102.6366
 35      0.0000     0.0000E+00    0.0000E+00    1.000000E+06  0.02000  1.544E-02    0   1.0000   age020_m62            0.0000     1.6477E+00    12.1210   3.5921    90.3399
 36      0.0000     0.0000E+00    0.0000E+00    3.160000E+06  0.02000  3.762E-02    0   0.9858   age045_m62            0.0000     1.6460E+00    12.0572   3.5314    91.1544
 37      0.0000     0.0000E+00    0.0000E+00    5.010000E+06  0.02000  3.296E-02    0   0.9342   age055_m62            0.0000     1.4692E+00    10.9919   3.1657    94.4319
 38      0.0000     0.0000E+00    0.0000E+00    8.710000E+06  0.02000  1.154E-02    0   0.8861   age067_m62            0.0000     2.6519E+00    15.7590   2.1130   102.1423
 39      0.0000     0.0000E+00    0.0000E+00    1.445000E+07  0.02000  7.663E-03    0   0.8472   age078_m62            0.0000     1.9331E+00    13.1574   2.3318   100.8247
 40      0.0000     0.0000E+00    0.0000E+00    2.512000E+07  0.02000  4.532E-03    0   0.8099   age090_m62            0.0000     2.0048E+00    13.2957   2.3268   100.4477
 41      0.0000     0.0000E+00    0.0000E+00    5.500000E+07  0.02000  2.733E-03    0   0.7595   age110_m62            0.0000     1.5935E+00    11.5040   2.3488    99.9495
 42      0.0000     0.0000E+00    0.0000E+00    1.609000E+08  0.02000  1.369E-03    0   0.6985   age120_m62            0.0000     1.4055E+00    10.4275   2.2003   102.2014
 43      0.0000     0.0000E+00    0.0000E+00    2.861200E+08  0.02000  9.013E-04    0   0.6714   age125_m62            0.0000     1.2855E+00     9.8365   1.9527   105.0049
 44      3.8464     1.8813E-01    2.3016E-01    5.088000E+08  0.02000  5.028E-04    0   0.6449   age130_m62            0.0000     1.0156E+00     8.5797   1.5831   107.6205
 45      0.0000     0.0000E+00    0.0000E+00    9.047900E+08  0.02000  2.428E-04    0   0.6179   age135_m62            0.0000     7.2541E-01     7.2679   0.9908   107.5406
 46      0.0000     0.0000E+00    0.0000E+00    1.434000E+09  0.02000  1.263E-04    0   0.5908   age139_m62            0.0000     6.0829E-01     6.6780   0.5398   106.4328
 47      0.0000     0.0000E+00    0.0000E+00    2.500000E+09  0.02000  5.985E-05    0   0.5673   age150_m62            0.0000     5.0638E-01     6.0395   0.1702   105.4221
 48     36.1496     2.7178E+01    2.8192E+01    4.250000E+09  0.02000  3.271E-05    0   0.5468   age158_m62            0.0000     4.5027E-01     5.5021  -0.1358   104.8476
 49      0.0000     0.0000E+00    0.0000E+00    1.000000E+10  0.02000  1.360E-05    0   0.5167   age181_m62            0.0000     5.0012E-01     5.5509  -0.4824   104.6655
 50      0.0000     0.0000E+00    0.0000E+00    1.800000E+10  0.02000  7.124E-06    0   0.5013   age213_m62            0.0000     6.0453E-01     5.9222  -0.6874   103.8813
 51      0.0000     0.0000E+00    0.0000E+00    1.000000E+06  0.05000  2.592E-02    0   0.9998   age020_m72            0.0000     1.6820E+00    12.2852   3.5825    90.3947
 52      0.0000     0.0000E+00    0.0000E+00    3.160000E+06  0.05000  4.845E-02    0   0.9577   age045_m72            0.0000     1.5724E+00    11.5869   3.4199    92.1381
 53      0.0000     0.0000E+00    0.0000E+00    5.010000E+06  0.05000  3.072E-02    0   0.9147   age055_m72            0.0000     1.8044E+00    12.6611   2.9343    96.6791
 54      0.0000     0.0000E+00    0.0000E+00    6.610000E+06  0.05000  1.455E-02    0   0.8877   age061_m72            0.0000     3.5753E+00    18.0972   2.1797   103.0949
 55      0.0000     0.0000E+00    0.0000E+00    1.000000E+07  0.05000  9.074E-03    0   0.8524   age070_m72            0.0000     1.9239E+00    12.9344   3.1391    96.0306
 56      0.0000     0.0000E+00    0.0000E+00    2.512000E+07  0.05000  4.250E-03    0   0.7902   age090_m72            0.0000     1.8321E+00    12.3813   2.8293    97.8158
 57      0.0000     0.0000E+00    0.0000E+00    4.000000E+07  0.05000  3.087E-03    0   0.7618   age104_m72            0.0000     1.8730E+00    12.4032   2.6009    99.4081
 58      0.0000     0.0000E+00    0.0000E+00    1.015200E+08  0.05000  1.700E-03    0   0.7096   age116_m72            0.0000     1.5303E+00    10.9382   2.3428   101.7960
 59      0.0000     0.0000E+00    0.0000E+00    2.861200E+08  0.05000  7.384E-04    0   0.6633   age125_m72            0.0000     1.1517E+00     9.2190   1.8248   106.3577
 60      0.0000     0.0000E+00    0.0000E+00    5.088000E+08  0.05000  3.819E-04    0   0.6372   age130_m72            0.0000     8.4483E-01     7.8319   1.3305   108.3363
 61      0.0000     0.0000E+00    0.0000E+00    9.047900E+08  0.05000  1.676E-04    0   0.6110   age135_m72            0.0000     5.8952E-01     6.4297   0.6298   107.0661
 62      0.0000     0.0000E+00    0.0000E+00    1.434000E+09  0.05000  8.837E-05    0   0.5874   age139_m72            0.0000     5.0415E-01     5.9572   0.1712   106.9276
 63     31.5332     1.8319E+01    1.9455E+01    2.500000E+09  0.05000  4.233E-05    0   0.5598   age150_m72            0.0000     4.6503E-01     5.5623  -0.1352   105.7820
 64      0.0000     0.0000E+00    0.0000E+00    6.250000E+09  0.05000  1.435E-05    0   0.5249   age166_m72            0.0000     5.3902E-01     5.7136  -0.5774   104.2460
 65      0.0000     0.0000E+00    0.0000E+00    1.300000E+10  0.05000  6.513E-06    0   0.5036   age193_m72            0.0000     7.0208E-01     6.2744  -0.8510   105.2813
 66      0.0000     0.0000E+00    0.0000E+00    1.800000E+10  0.05000  4.527E-06    0   0.4945   age213_m72            0.0000     8.4669E-01     6.8113  -1.0000   104.7399


## Synthesis Results - Average & Chains ##

# j      x_j: min, <> & last-chain-values for 1 ...  7 chains
  1      0.0000      0.0156      0.0000      0.0000      0.0000      0.0000      0.0000      0.0000      0.1968
  2      0.0000      0.0570      0.0000      0.0000      0.0000      0.0000      0.0000      0.0000      0.0000
  3      0.0000      0.0676      0.0000      0.0000      0.0000      0.0000      0.0000      0.0000      0.0000
  4      0.0000      0.0437      0.0000      0.0000      0.0000      0.9293      0.0000      0.1955      0.0000
  5      0.0000      0.0179      0.0000      0.0000      0.0000      0.0000      0.0000      0.0000      0.0000
  6      0.0000      0.0465      0.0000      0.0000      0.0000      0.0000      0.0000      0.0000      0.0000
  7      0.0000      0.0638      0.0000      0.0000      0.0000      0.0000      0.0000      0.0000      0.0000
  8      0.0000      0.0975      0.0000      0.0000      0.0000      0.0000      0.0000      0.0000      0.0000
  9      0.0000      0.1152      0.0064      0.0000      0.0000      0.0000      0.0000      0.0000      0.0000
 10      0.0000      0.0557      0.0000      0.0000      0.0000      0.0000      0.0000      0.0000      0.0000
 11      0.0000      0.1483      0.7308      0.0000      1.3694      0.0000      0.0000      0.0000      0.0000
 12      0.0000      0.1467      0.0000      1.0407      0.0000      0.3671      0.0000      0.0000      0.0000
 13      0.0000      0.6986      0.0000      0.0000      0.6528      0.0000      0.0000      4.3378      2.1150
 14      0.0000      0.7386      0.0000      0.0452      0.0000      0.0000      0.0000      1.9096      0.0000
 15      0.0000      1.6492      0.0000      0.0000      5.9733      0.0000      0.9193      0.0000      3.0223
 16      9.1019      2.2516      3.2400      1.4520      1.7196      6.4836      0.6829      0.0000      0.3929
 17      2.0148      1.6152      3.7826      7.5512      0.5665      0.0000      0.0000      0.0000      0.0000
 18      0.0000      0.0179      0.0000      0.0000      0.0000      0.0000      0.0000      0.0000      0.0000
 19      0.0000      0.0272      0.0000      0.0000      0.0000      0.0000      0.0000      0.0000      0.0000
 20      0.0000      0.0254      0.1396      0.0000      0.0039      0.0000      0.0000      0.0000      0.0000
 21      0.0000      0.0451      0.0000      0.0000      0.0000      0.0000      0.0000      0.0000      0.1050
 22      0.0000      0.0250      0.0000      0.0000      0.0000      0.0000      0.0000      0.0643      0.0000
 23      0.0000      0.0595      0.0000      0.0000      0.0000      0.0000      0.0000      0.0000      0.0000
 24      0.0000      0.0361      0.0000      0.0000      0.0000      0.0000      0.0000      0.0000      0.0000
 25      0.0000      0.1222      0.0000      0.0000      0.0000      0.0000      0.0000      0.0000      0.1350
 26      0.0000      0.0828      0.0000      0.0000      0.0000      0.0000      0.0000      0.0000      0.0000
 27      0.0000      0.1269      0.0000      0.0000      0.0000      0.0000      0.0000      0.0000      0.0000
 28      0.0000      1.1118      0.0000      0.0000      2.0591      2.0713      2.1730      0.2443      3.5371
 29      0.0000      0.9056      3.7336      0.0000      0.6291      0.0000      2.6958      2.9328      0.8146
 30      0.0000      1.6294      0.0000      0.0000      1.6203      0.8518      0.0000      0.0000      0.2238
 31      0.0000      1.8544      1.3803      0.0000      0.5617      0.0000      2.0074      7.0944      0.2854
 32      0.0000      6.1517      4.6609      3.5191     11.5442      3.2290      8.1043      4.8093      5.1677
 33     22.0835      0.5966      0.9909      0.0000      0.2721      1.2123      2.3044      0.0000      0.0000
 34      0.0000      0.3206      0.0000      0.0000      0.5886      0.0000      0.0272      0.0000      0.0000
 35      0.0000      0.0182      0.0000      0.0000      0.0000      0.0000      0.0000      0.0000      0.0000
 36      0.0000      0.0072      0.0000      0.0000      0.0000      0.0000      0.0000      0.0000      0.0000
 37      0.0000      0.0209      0.0000      0.0000      0.0000      0.0000      0.0000      0.0000      0.0000
 38      0.0000      0.0209      0.0000      0.0000      0.0000      0.0000      0.0000      0.0000      0.0000
 39      0.0000      0.0389      0.0014      0.0000      0.0000      0.0000      0.0000      0.0000      0.0000
 40      0.0000      0.0329      0.0000      0.0000      0.0000      0.0000      0.0000      0.0000      0.0000
 41      0.0000      0.0469      0.0000      0.0000      0.2958      0.0000      0.0000      0.0000      0.0000
 42      0.0000      0.0520      0.0000      0.0000      0.0000      0.0000      0.0000      0.0000      0.0000
 43      0.0000      0.1051      0.0000      0.0000      0.0000      0.0000      0.6827      0.0000      0.0000
 44      3.8464      1.0845      3.7215      0.3780      2.6715      0.0000      1.5358      0.0069      0.7929
 45      0.0000      4.5454      5.2195      5.4168      2.7694      4.5073      5.0959      7.2502      3.6860
 46      0.0000      1.8320      0.5645      2.8622      1.0589      0.0000      2.3114      2.2987      2.4061
