###################################################################
## OUTPUT of StarlightChains_v04.for    [Cid@UFSC - 01/Apr/2007] ##
###################################################################

## Some input info
2009ie.txt                               [arq_obs]
Base.CB07.vall.4m                        [arq_base]
Masks.EmLines.NEW.gm                     [arq_masks]
StCv04.C11.config                        [arq_config]
   66                                    [N_base]
    0                                    [N_YAV_components = # of components with extra extinction!]
    0                                    [i_FitPowerLaw (1/0 = Yes/No)]
-9.99                                    [alpha_PowerLaw]
CCM                                      [red_law_option]
 1.458241                                [q_norm = A(l_norm)/A(V)]

## (Re)Sampling Parameters
 3741.00                                 [l_ini (A)]
 7218.00                                 [l_fin (A)]
    1.00                                 [dl    (A)]     (OBS: dl_cushion =    50.00 A)

## Normalization info
 4020.00                                 [l_norm (A) - for base]
 4010.00                                 [llow_norm (A) - window for f_obs]
 4060.00                                 [lupp_norm (A) - window for f_obs]
1.729135E-17                             [fobs_norm (in input units)]

## S/N
 3691.00                                 [llow_SN (A) - window for S/N]
 7268.00                                 [lupp_SN (A) - window for S/N]
   3.852                                 [S/N in S/N window]
   4.238                                 [S/N in norm. window]
  10.000                                 [S/N_err in S/N window]
  11.002                                 [S/N_err in norm. window]
  1.0000                                 [fscale_chi2]

## etc...
    -2007359                             [idum_orig]
  2383                                   [NOl_eff]
  1866                                   [Nl_eff]
   517    NSIGMA                         [Ntot_cliped & clip_method]
   709730                                [Nglobal_steps]
   7                                     [N_chains]
  13                                     [NEX0s_base = N_base in EX0s-fits]
 0   0   1        5   2.0   1.014E+02    [Clip-Bug, RC-Crash & Burn-In warning-flags, n_censored_weights, wei_nsig_threshold & wei_limit]
    11     10.879     10.374      0.504  [idt_all, wdt_TotTime, wdt_UsrTime & wdt_SysTime (sec)]

## Synthesis Results - Best model ##

 1.86730E+00                             [chi2/Nl_eff]
    11.12332                             [adev (%)]

    92.83414                             [sum-of-x (%)]
 4.19025E-18                             [Flux_tot (units of input spectrum!)]
 3.73948E-13                             [Mini_tot (???)]
 1.89040E-13                             [Mcor_tot (???)]

-323.91                                  [v0_min  (km/s)]
 242.05                                  [vd_min  (km/s)]
-1.0000                                  [AV_min  (mag)]
 0.0000                                  [YAV_min (mag)]

# j     x_j(%)      Mini_j(%)     Mcor_j(%)     age_j(yr)     Z_j      (L/M)_j    YAV?  Mstars   component_j        a/Fe...       SSP_chi2r SSP_adev(%)   SSP_AV   SSP_x(%)
  1      0.0000     0.0000E+00    0.0000E+00    1.000000E+06  0.00400  1.094E-02    0   1.0000   age020_m42            0.0000     3.1724E+00    13.9117   2.9783    78.2731
  2      0.0000     0.0000E+00    0.0000E+00    3.160000E+06  0.00400  4.007E-02    0   0.9999   age045_m42            0.0000     2.9530E+00    13.5766   2.2203    84.9320
  3      0.0000     0.0000E+00    0.0000E+00    5.010000E+06  0.00400  2.539E-02    0   0.9488   age055_m42            0.0000     3.0590E+00    13.7380   2.5529    82.3321
  4      0.0000     0.0000E+00    0.0000E+00    6.610000E+06  0.00400  2.620E-02    0   0.9220   age061_m42            0.0000     2.9668E+00    13.5816   2.1404    85.3228
  5      0.0000     0.0000E+00    0.0000E+00    1.000000E+07  0.00400  1.322E-02    0   0.8862   age070_m42            0.0000     3.2448E+00    14.2089   1.8417    87.3793
  6      0.0000     0.0000E+00    0.0000E+00    1.445000E+07  0.00400  7.883E-03    0   0.8571   age078_m42            0.0000     3.2738E+00    14.2211   2.1788    84.8148
  7      0.0000     0.0000E+00    0.0000E+00    2.512000E+07  0.00400  5.251E-03    0   0.8174   age090_m42            0.0000     3.3017E+00    14.3406   1.7074    87.9773
  8      0.0000     0.0000E+00    0.0000E+00    4.000000E+07  0.00400  3.649E-03    0   0.7851   age104_m42            0.0000     3.2138E+00    14.1892   1.4758    88.9269
  9      0.0000     0.0000E+00    0.0000E+00    5.500000E+07  0.00400  3.098E-03    0   0.7629   age110_m42            0.0000     3.0598E+00    13.8316   1.6297    89.1270
 10      0.0000     0.0000E+00    0.0000E+00    1.015200E+08  0.00400  2.228E-03    0   0.7207   age116_m42            0.0000     2.9640E+00    13.5987   1.6503    89.4215
 11      0.0000     0.0000E+00    0.0000E+00    2.861200E+08  0.00400  1.093E-03    0   0.6648   age125_m42            0.0000     2.9854E+00    13.7029   1.0583    92.8665
 12      0.0000     0.0000E+00    0.0000E+00    5.088000E+08  0.00400  6.597E-04    0   0.6365   age130_m42            0.0000     2.7993E+00    13.2794   1.0524    93.7074
 13      0.0000     0.0000E+00    0.0000E+00    1.434000E+09  0.00400  2.132E-04    0   0.5798   age139_m42            0.0000     2.4922E+00    12.7264   0.0865    95.4428
 14      0.0000     0.0000E+00    0.0000E+00    4.250000E+09  0.00400  5.895E-05    0   0.5377   age158_m42            0.0000     2.2709E+00    12.2298  -0.3281    90.9030
 15      0.0000     0.0000E+00    0.0000E+00    7.500000E+09  0.00400  3.510E-05    0   0.5212   age171_m42            0.0000     2.1911E+00    12.0150  -0.5097    90.1144
 16      0.0000     0.0000E+00    0.0000E+00    1.300000E+10  0.00400  2.005E-05    0   0.5034   age193_m42            0.0000     2.1324E+00    11.8440  -0.6690    89.4473
 17      0.0000     0.0000E+00    0.0000E+00    1.800000E+10  0.00400  1.525E-05    0   0.4967   age213_m42            0.0000     2.1433E+00    11.8736  -0.6927    89.0655
 18      0.0000     0.0000E+00    0.0000E+00    1.000000E+06  0.00800  1.238E-02    0   1.0000   age020_m52            0.0000     3.1708E+00    13.9036   2.9753    78.4030
 19      0.0000     0.0000E+00    0.0000E+00    3.160000E+06  0.00800  3.074E-02    0   0.9966   age045_m52            0.0000     3.1467E+00    13.8517   2.8973    79.1612
 20      0.0000     0.0000E+00    0.0000E+00    5.010000E+06  0.00800  2.668E-02    0   0.9443   age055_m52            0.0000     3.0910E+00    13.7747   2.6393    81.4307
 21      0.0000     0.0000E+00    0.0000E+00    6.610000E+06  0.00800  2.136E-02    0   0.9177   age061_m52            0.0000     3.1091E+00    13.9895   1.3525    87.9694
 22      0.0000     0.0000E+00    0.0000E+00    1.000000E+07  0.00800  1.215E-02    0   0.8827   age070_m52            0.0000     3.3802E+00    14.4695   2.0207    87.0536
 23      0.0000     0.0000E+00    0.0000E+00    1.445000E+07  0.00800  8.717E-03    0   0.8552   age078_m52            0.0000     3.2608E+00    14.1986   2.1418    86.0773
 24      0.0000     0.0000E+00    0.0000E+00    2.512000E+07  0.00800  5.592E-03    0   0.8162   age090_m52            0.0000     3.3027E+00    14.3428   1.7672    89.1586
 25      0.0000     0.0000E+00    0.0000E+00    4.000000E+07  0.00800  3.896E-03    0   0.7841   age104_m52            0.0000     3.1968E+00    14.1325   1.6754    90.1068
 26      0.0000     0.0000E+00    0.0000E+00    1.015200E+08  0.00800  2.148E-03    0   0.7226   age116_m52            0.0000     3.0101E+00    13.7276   1.6142    90.1747
 27      0.0000     0.0000E+00    0.0000E+00    2.861200E+08  0.00800  9.925E-04    0   0.6683   age125_m52            0.0000     2.8116E+00    13.3198   1.1159    94.5974
 28      0.0000     0.0000E+00    0.0000E+00    9.047900E+08  0.00800  3.141E-04    0   0.6138   age135_m52            0.0000     2.3762E+00    12.4544   0.3122    99.0680
 29      0.0000     0.0000E+00    0.0000E+00    1.434000E+09  0.00800  1.719E-04    0   0.5853   age139_m52            0.0000     2.2910E+00    12.2801  -0.2475    96.0984
 30      0.0000     0.0000E+00    0.0000E+00    2.500000E+09  0.00800  7.872E-05    0   0.5600   age150_m52            0.0000     2.1134E+00    11.8201  -0.4962    92.9710
 31      0.0000     0.0000E+00    0.0000E+00    4.250000E+09  0.00800  4.336E-05    0   0.5426   age158_m52            0.0000     2.1106E+00    11.8131  -0.5106    92.0778
 32      0.0000     0.0000E+00    0.0000E+00    6.250000E+09  0.00800  3.159E-05    0   0.5319   age166_m52            0.0000     2.0174E+00    11.5412  -0.7075    91.9930
 33      0.0000     0.0000E+00    0.0000E+00    1.300000E+10  0.00800  1.361E-05    0   0.5073   age193_m52            0.0000     2.0258E+00    11.7331  -1.0000    84.8838
 34      0.0000     0.0000E+00    0.0000E+00    1.800000E+10  0.00800  9.886E-06    0   0.4990   age213_m52            0.0000     2.1108E+00    11.9749  -1.0000    80.6858
 35      0.0000     0.0000E+00    0.0000E+00    1.000000E+06  0.02000  1.544E-02    0   1.0000   age020_m62            0.0000     3.1731E+00    13.9012   2.9724    78.5491
 36      0.0000     0.0000E+00    0.0000E+00    3.160000E+06  0.02000  3.762E-02    0   0.9858   age045_m62            0.0000     3.1603E+00    13.8658   2.9114    79.2402
 37      0.0000     0.0000E+00    0.0000E+00    5.010000E+06  0.02000  3.296E-02    0   0.9342   age055_m62            0.0000     2.9812E+00    13.5677   2.5077    83.6196
 38      0.0000     0.0000E+00    0.0000E+00    8.710000E+06  0.02000  1.154E-02    0   0.8861   age067_m62            0.0000     4.3051E+00    16.3090   1.4488    89.5020
 39      0.0000     0.0000E+00    0.0000E+00    1.445000E+07  0.02000  7.663E-03    0   0.8472   age078_m62            0.0000     3.5639E+00    14.8820   1.6540    89.3021
 40      0.0000     0.0000E+00    0.0000E+00    2.512000E+07  0.02000  4.532E-03    0   0.8099   age090_m62            0.0000     3.6218E+00    14.9869   1.6402    89.2528
 41      0.0000     0.0000E+00    0.0000E+00    5.500000E+07  0.02000  2.733E-03    0   0.7595   age110_m62            0.0000     3.1712E+00    14.0493   1.6594    89.4271
 42      0.0000     0.0000E+00    0.0000E+00    1.609000E+08  0.02000  1.369E-03    0   0.6985   age120_m62            0.0000     2.9473E+00    13.5492   1.4877    92.5933
 43      0.0000     0.0000E+00    0.0000E+00    2.861200E+08  0.02000  9.013E-04    0   0.6714   age125_m62            0.0000     2.8184E+00    13.2957   1.2300    95.7055
 44      7.1279     1.7112E-01    2.1829E-01    5.088000E+08  0.02000  5.028E-04    0   0.6449   age130_m62            0.0000     2.5004E+00    12.6556   0.8514    98.6146
 45      0.0000     0.0000E+00    0.0000E+00    9.047900E+08  0.02000  2.428E-04    0   0.6179   age135_m62            0.0000     2.2331E+00    12.0991   0.2735    97.7847
 46      0.0000     0.0000E+00    0.0000E+00    1.434000E+09  0.02000  1.263E-04    0   0.5908   age139_m62            0.0000     2.1433E+00    11.8912  -0.1586    95.8483
 47      0.0000     0.0000E+00    0.0000E+00    2.500000E+09  0.02000  5.985E-05    0   0.5673   age150_m62            0.0000     2.0236E+00    11.5607  -0.5066    93.9406
 48      0.0000     0.0000E+00    0.0000E+00    4.250000E+09  0.02000  3.271E-05    0   0.5468   age158_m62            0.0000     1.9283E+00    11.2676  -0.7969    92.7136
 49      0.0087     7.7259E-03    7.8967E-03    1.000000E+10  0.02000  1.360E-05    0   0.5167   age181_m62            0.0000     1.9182E+00    11.3261  -1.0000    86.9684
 50     55.3615     9.3801E+01    9.3017E+01    1.800000E+10  0.02000  7.124E-06    0   0.5013   age213_m62            0.0000     2.1769E+00    12.0446  -1.0000    78.7921
 51      0.0000     0.0000E+00    0.0000E+00    1.000000E+06  0.05000  2.592E-02    0   0.9998   age020_m72            0.0000     3.2017E+00    13.9419   2.9677    78.4220
 52      0.0000     0.0000E+00    0.0000E+00    3.160000E+06  0.05000  4.845E-02    0   0.9577   age045_m72            0.0000     3.0700E+00    13.7039   2.7863    80.6589
 53      0.0000     0.0000E+00    0.0000E+00    5.010000E+06  0.05000  3.072E-02    0   0.9147   age055_m72            0.0000     3.3850E+00    14.4238   2.2578    85.4970
 54      0.0000     0.0000E+00    0.0000E+00    6.610000E+06  0.05000  1.455E-02    0   0.8877   age061_m72            0.0000     5.1257E+00    17.8389   1.4708    90.7992
 55      0.0000     0.0000E+00    0.0000E+00    1.000000E+07  0.05000  9.074E-03    0   0.8524   age070_m72            0.0000     3.5410E+00    14.7197   2.4323    85.5200
 56      0.0000     0.0000E+00    0.0000E+00    2.512000E+07  0.05000  4.250E-03    0   0.7902   age090_m72            0.0000     3.3979E+00    14.4618   2.1198    87.6666
 57      0.0000     0.0000E+00    0.0000E+00    4.000000E+07  0.05000  3.087E-03    0   0.7618   age104_m72            0.0000     3.4182E+00    14.5180   1.8810    89.5252
 58      0.0000     0.0000E+00    0.0000E+00    1.015200E+08  0.05000  1.700E-03    0   0.7096   age116_m72            0.0000     3.0744E+00    13.8218   1.6247    92.3007
 59      0.0000     0.0000E+00    0.0000E+00    2.861200E+08  0.05000  7.384E-04    0   0.6633   age125_m72            0.0000     2.6486E+00    12.9516   1.0956    97.2890
 60      0.0000     0.0000E+00    0.0000E+00    5.088000E+08  0.05000  3.819E-04    0   0.6372   age130_m72            0.0000     2.3224E+00    12.2600   0.6117    98.7890
 61     12.3382     8.8859E-01    1.0740E+00    9.047900E+08  0.05000  1.676E-04    0   0.6110   age135_m72            0.0000     2.0536E+00    11.6312  -0.0611    96.3327
 62      0.0000     0.0000E+00    0.0000E+00    1.434000E+09  0.05000  8.837E-05    0   0.5874   age139_m72            0.0000     1.9894E+00    11.4564  -0.5128    95.6161
 63     17.9978     5.1321E+00    5.6831E+00    2.500000E+09  0.05000  4.233E-05    0   0.5598   age150_m72            0.0000     1.9022E+00    11.1819  -0.7957    93.5087
 64      0.0000     0.0000E+00    0.0000E+00    6.250000E+09  0.05000  1.435E-05    0   0.5249   age166_m72            0.0000     2.0138E+00    11.6280  -1.0000    83.0834
 65      0.0000     0.0000E+00    0.0000E+00    1.300000E+10  0.05000  6.513E-06    0   0.5036   age193_m72            0.0000     2.5308E+00    12.9658  -1.0000    74.0680
 66      0.0000     0.0000E+00    0.0000E+00    1.800000E+10  0.05000  4.527E-06    0   0.4945   age213_m72            0.0000     2.9772E+00    14.0044  -1.0000    68.6747


## Synthesis Results - Average & Chains ##

# j      x_j: min, <> & last-chain-values for 1 ...  7 chains
  1      0.0000      0.0123      0.0000      0.0000      0.0000      0.0000      0.0000      0.0000      0.0704
  2      0.0000      0.0535      0.0000      0.0000      0.0000      0.0000      0.0000      0.0000      0.0000
  3      0.0000      0.0231      0.0000      0.0000      0.0000      0.0000      0.0000      0.0000      0.0000
  4      0.0000      0.0457      0.0000      0.0000      0.0000      0.0000      0.0000      0.0000      0.0000
  5      0.0000      0.0216      0.0000      0.0000      0.0000      0.0000      0.0000      0.0000      0.0000
  6      0.0000      0.0211      0.0653      0.0000      0.0000      0.0000      0.0000      0.0000      0.0000
  7      0.0000      0.0143      0.0000      0.0000      0.0000      0.0000      0.0000      0.0000      0.0000
  8      0.0000      0.0242      0.0000      0.0000      0.0000      0.0000      0.0000      0.0000      0.1278
  9      0.0000      0.0440      0.0000      0.0000      0.0000      0.4489      0.3083      0.0000      0.0000
 10      0.0000      0.0677      0.0000      0.0000      0.0000      0.0000      0.0000      0.1000      0.0000
 11      0.0000      0.0863      0.0000      0.0000      0.0000      0.0000      0.0000      0.0000      0.0000
 12      0.0000      0.0946      0.0764      0.0000      0.0000      0.0000      0.0000      0.0000      0.0000
 13      0.0000      0.2618      0.0000      0.0000      0.0000      0.2697      0.0000      0.0000      0.0000
 14      0.0000      0.2843      0.2277      0.0000      0.0000      0.0000      0.0000      0.0000      0.0000
 15      0.0000      0.5026      0.0000      0.5023      0.0690      0.3305      0.0000      0.0000      0.0297
 16      0.0000      0.7589      0.0000      0.0000      1.0601      0.1802      0.0000      0.0000      0.4267
 17      0.0000      0.6849      0.0000      0.1525      0.0000      0.0000      0.0000      0.0000      0.0000
 18      0.0000      0.0102      0.0000      0.0000      0.0000      0.0000      0.0000      0.0000      0.0000
 19      0.0000      0.0100      0.0000      0.0000      0.0000      0.0000      0.0000      0.0000      0.0000
 20      0.0000      0.0261      0.0000      0.0000      0.0000      0.0000      0.0000      0.0000      0.0000
 21      0.0000      0.0469      0.0000      0.0000      0.0000      0.6235      0.0000      0.0000      0.0000
 22      0.0000      0.0228      0.0000      0.0000      0.0000      0.0000      0.0000      0.0000      0.0000
 23      0.0000      0.0251      0.0000      0.0000      0.0000      0.2964      0.0000      0.0000      0.0000
 24      0.0000      0.0181      0.0000      0.0000      0.0000      0.0000      0.0000      0.0000      0.0000
 25      0.0000      0.0275      0.0000      0.0000      0.0000      0.0000      0.0000      0.0000      0.0000
 26      0.0000      0.1017      0.0000      0.0000      0.0000      0.0000      0.0000      0.0000      0.0000
 27      0.0000      0.1340      0.0138      0.0000      0.0000      0.0000      0.0000      0.0000      0.0000
 28      0.0000      0.5316      2.0188      0.0000      0.0000      0.2461      0.5358      1.6738      0.0000
 29      0.0000      0.3686      0.0000      0.0000      0.0000      0.0000      0.0000      1.1583      0.0000
 30      0.0000      0.8845      0.0000      0.6552      0.0000      1.2808      0.7851      4.4384      0.0000
 31      0.0000      0.9141      0.0000      0.1401      0.0000      1.2719      0.0000      0.2659      0.0000
 32      0.0000      1.4866      0.0000      2.0326      0.3232      0.7541      0.1794      1.0684      0.7621
 33      0.0000      0.6935      0.0000      0.0000      0.0000      0.0000      0.0000      0.3064      0.0000
 34      0.0000      1.3067      0.0000      0.9688      0.0000      0.0000      0.0000      0.5669      0.0000
 35      0.0000      0.0082      0.0000      0.0000      0.0000      0.0000      0.0000      0.0000      0.0000
 36      0.0000      0.0315      0.0000      0.0000      0.0000      0.0000      0.0000      0.0000      0.0000
 37      0.0000      0.0141      0.0000      0.0000      0.0000      0.0000      0.0000      0.0000      0.0000
 38      0.0000      0.0279      0.0000      0.0000      0.0000      0.0000      0.0000      0.0000      0.0000
 39      0.0000      0.0161      0.0000      0.0000      0.0000      0.0000      0.0000      0.0000      0.0000
 40      0.0000      0.0307      0.0000      0.0000      0.0000      0.0000      0.0000      0.0000      0.0000
 41      0.0000      0.0376      0.0000      0.0000      0.0000      0.0000      0.0000      0.0000      0.0000
 42      0.0000      0.0483      0.0000      0.0000      0.0000      0.0000      0.0000      0.0000      0.0000
 43      0.0000      0.1145      0.0000      0.0000      0.0000      0.0000      0.0000      0.5806      0.0000
 44      7.1279      2.2838      1.6481      4.0944      1.9713      4.1155      1.8770      2.1767      2.9210
 45      0.0000      0.1956      0.0895      0.0000      0.0000      0.1188      1.0321      0.3349      0.0000
 46      0.0000      0.7399      0.7156      0.0000      0.2325      0.0000      0.0000      0.0000      0.0000
