###################################################################
## OUTPUT of StarlightChains_v04.for    [Cid@UFSC - 01/Apr/2007] ##
###################################################################

## Some input info
2009fk.txt                               [arq_obs]
Base.CB07.vall.4m                        [arq_base]
Masks.EmLines.NEW.gm                     [arq_masks]
StCv04.C11.config                        [arq_config]
   66                                    [N_base]
    0                                    [N_YAV_components = # of components with extra extinction!]
    0                                    [i_FitPowerLaw (1/0 = Yes/No)]
-9.99                                    [alpha_PowerLaw]
CCM                                      [red_law_option]
 1.458241                                [q_norm = A(l_norm)/A(V)]

## (Re)Sampling Parameters
 3741.00                                 [l_ini (A)]
 7218.00                                 [l_fin (A)]
    1.00                                 [dl    (A)]     (OBS: dl_cushion =    50.00 A)

## Normalization info
 4020.00                                 [l_norm (A) - for base]
 4010.00                                 [llow_norm (A) - window for f_obs]
 4060.00                                 [lupp_norm (A) - window for f_obs]
2.301263E-16                             [fobs_norm (in input units)]

## S/N
 3691.00                                 [llow_SN (A) - window for S/N]
 7268.00                                 [lupp_SN (A) - window for S/N]
  11.198                                 [S/N in S/N window]
  11.407                                 [S/N in norm. window]
  27.584                                 [S/N_err in S/N window]
  28.097                                 [S/N_err in norm. window]
  1.0000                                 [fscale_chi2]

## etc...
    -2007355                             [idum_orig]
  2384                                   [NOl_eff]
  2380                                   [Nl_eff]
     4    NSIGMA                         [Ntot_cliped & clip_method]
  2245460                                [Nglobal_steps]
   7                                     [N_chains]
  35                                     [NEX0s_base = N_base in EX0s-fits]
 0   0   1        9   2.0   5.726E+01    [Clip-Bug, RC-Crash & Burn-In warning-flags, n_censored_weights, wei_nsig_threshold & wei_limit]
    18     17.630     17.127      0.503  [idt_all, wdt_TotTime, wdt_UsrTime & wdt_SysTime (sec)]

## Synthesis Results - Best model ##

 4.77556E-01                             [chi2/Nl_eff]
     1.80980                             [adev (%)]

   106.88229                             [sum-of-x (%)]
 3.68954E-16                             [Flux_tot (units of input spectrum!)]
 6.02331E-12                             [Mini_tot (???)]
 3.18926E-12                             [Mcor_tot (???)]

-125.40                                  [v0_min  (km/s)]
 185.22                                  [vd_min  (km/s)]
 0.3019                                  [AV_min  (mag)]
 0.0000                                  [YAV_min (mag)]

# j     x_j(%)      Mini_j(%)     Mcor_j(%)     age_j(yr)     Z_j      (L/M)_j    YAV?  Mstars   component_j        a/Fe...       SSP_chi2r SSP_adev(%)   SSP_AV   SSP_x(%)
  1      3.7152     1.9463E-02    3.6757E-02    1.000000E+06  0.00400  1.094E-02    0   1.0000   age020_m42            0.0000     3.8427E+00     4.7562   3.0280    91.8743
  2      0.0000     0.0000E+00    0.0000E+00    3.160000E+06  0.00400  4.007E-02    0   0.9999   age045_m42            0.0000     2.8764E+00     3.9652   2.3268    97.1331
  3      0.0000     0.0000E+00    0.0000E+00    5.010000E+06  0.00400  2.539E-02    0   0.9488   age055_m42            0.0000     3.1722E+00     4.1418   2.6356    95.2245
  4      0.0000     0.0000E+00    0.0000E+00    6.610000E+06  0.00400  2.620E-02    0   0.9220   age061_m42            0.0000     2.6917E+00     3.8664   2.2514    97.4604
  5      0.0000     0.0000E+00    0.0000E+00    1.000000E+07  0.00400  1.322E-02    0   0.8862   age070_m42            0.0000     2.2476E+00     3.5561   1.9394   101.0414
  6      0.0000     0.0000E+00    0.0000E+00    1.445000E+07  0.00400  7.883E-03    0   0.8571   age078_m42            0.0000     2.5193E+00     3.6783   2.2660    98.5033
  7      0.0000     0.0000E+00    0.0000E+00    2.512000E+07  0.00400  5.251E-03    0   0.8174   age090_m42            0.0000     2.2812E+00     3.6355   1.8051   101.8187
  8      0.0000     0.0000E+00    0.0000E+00    4.000000E+07  0.00400  3.649E-03    0   0.7851   age104_m42            0.0000     2.0538E+00     3.5070   1.5826   102.4149
  9      0.0000     0.0000E+00    0.0000E+00    5.500000E+07  0.00400  3.098E-03    0   0.7629   age110_m42            0.0000     2.1187E+00     3.5712   1.7548   101.5327
 10      0.0000     0.0000E+00    0.0000E+00    1.015200E+08  0.00400  2.228E-03    0   0.7207   age116_m42            0.0000     2.2368E+00     3.7308   1.7873   101.1382
 11      0.0000     0.0000E+00    0.0000E+00    2.861200E+08  0.00400  1.093E-03    0   0.6648   age125_m42            0.0000     2.0871E+00     3.9869   1.2201   104.3321
 12      0.0000     0.0000E+00    0.0000E+00    5.088000E+08  0.00400  6.597E-04    0   0.6365   age130_m42            0.0000     1.9967E+00     3.9065   1.2255   104.3707
 13      0.0000     0.0000E+00    0.0000E+00    1.434000E+09  0.00400  2.132E-04    0   0.5798   age139_m42            0.0000     1.0422E+00     2.9167   0.2560   106.1292
 14      0.0000     0.0000E+00    0.0000E+00    4.250000E+09  0.00400  5.895E-05    0   0.5377   age158_m42            0.0000     1.1228E+00     3.0846  -0.1748   101.4994
 15      0.0000     0.0000E+00    0.0000E+00    7.500000E+09  0.00400  3.510E-05    0   0.5212   age171_m42            0.0000     1.4953E+00     3.4983  -0.3505   100.3195
 16      4.5710     1.3066E+01    1.2422E+01    1.300000E+10  0.00400  2.005E-05    0   0.5034   age193_m42            0.0000     2.0004E+00     3.9467  -0.5038    99.3184
 17      0.0000     0.0000E+00    0.0000E+00    1.800000E+10  0.00400  1.525E-05    0   0.4967   age213_m42            0.0000     1.8969E+00     3.8420  -0.5319    99.0708
 18      3.9926     1.8483E-02    3.4907E-02    1.000000E+06  0.00800  1.238E-02    0   1.0000   age020_m52            0.0000     3.8404E+00     4.7640   3.0250    92.0229
 19      1.7372     3.2387E-03    6.0960E-03    3.160000E+06  0.00800  3.074E-02    0   0.9966   age045_m52            0.0000     3.7706E+00     4.6984   2.9498    92.7531
 20      2.2414     4.8147E-03    8.5867E-03    5.010000E+06  0.00800  2.668E-02    0   0.9443   age055_m52            0.0000     3.1768E+00     4.1841   2.7118    94.6281
 21      4.2781     1.1478E-02    1.9894E-02    6.610000E+06  0.00800  2.136E-02    0   0.9177   age061_m52            0.0000     1.4693E+00     2.9077   1.4324   102.4226
 22      0.0000     0.0000E+00    0.0000E+00    1.000000E+07  0.00800  1.215E-02    0   0.8827   age070_m52            0.0000     2.3582E+00     3.7222   2.1102   101.3078
 23      0.0000     0.0000E+00    0.0000E+00    1.445000E+07  0.00800  8.717E-03    0   0.8552   age078_m52            0.0000     2.3290E+00     3.5583   2.2299    99.9278
 24      0.0000     0.0000E+00    0.0000E+00    2.512000E+07  0.00800  5.592E-03    0   0.8162   age090_m52            0.0000     2.1554E+00     3.6220   1.8700   103.0256
 25      0.0000     0.0000E+00    0.0000E+00    4.000000E+07  0.00800  3.896E-03    0   0.7841   age104_m52            0.0000     2.0159E+00     3.5869   1.7946   103.2733
 26      0.0000     0.0000E+00    0.0000E+00    1.015200E+08  0.00800  2.148E-03    0   0.7226   age116_m52            0.0000     1.9489E+00     3.5486   1.7494   102.2751
 27      0.0000     0.0000E+00    0.0000E+00    2.861200E+08  0.00800  9.925E-04    0   0.6683   age125_m52            0.0000     1.8055E+00     3.7833   1.2912   105.3245
 28      2.9663     5.4122E-01    6.2741E-01    9.047900E+08  0.00800  3.141E-04    0   0.6138   age135_m52            0.0000     1.4153E+00     3.4788   0.5183   108.3607
 29      0.0000     0.0000E+00    0.0000E+00    1.434000E+09  0.00800  1.719E-04    0   0.5853   age139_m52            0.0000     1.0923E+00     3.0585  -0.0665   106.3517
 30      0.0000     0.0000E+00    0.0000E+00    2.500000E+09  0.00800  7.872E-05    0   0.5600   age150_m52            0.0000     1.6288E+00     3.7018  -0.3184   102.6294
 31      2.5664     3.3921E+00    3.4762E+00    4.250000E+09  0.00800  4.336E-05    0   0.5426   age158_m52            0.0000     1.7614E+00     3.8034  -0.3342   101.6747
 32      1.4186     2.5737E+00    2.5854E+00    6.250000E+09  0.00800  3.159E-05    0   0.5319   age166_m52            0.0000     2.5460E+00     4.5511  -0.5205   100.9591
 33      0.0000     0.0000E+00    0.0000E+00    1.300000E+10  0.00800  1.361E-05    0   0.5073   age193_m52            0.0000     3.8794E+00     5.6281  -0.9699    99.4157
 34      1.7398     1.0086E+01    9.5048E+00    1.800000E+10  0.00800  9.886E-06    0   0.4990   age213_m52            0.0000     5.1820E+00     6.4878  -1.0000    95.7388
 35      2.1235     7.8820E-03    1.4886E-02    1.000000E+06  0.02000  1.544E-02    0   1.0000   age020_m62            0.0000     3.8788E+00     4.8015   3.0203    92.2673
 36      1.6140     2.4588E-03    4.5779E-03    3.160000E+06  0.02000  3.762E-02    0   0.9858   age045_m62            0.0000     3.8982E+00     4.7914   2.9608    93.0106
 37      0.0000     0.0000E+00    0.0000E+00    5.010000E+06  0.02000  3.296E-02    0   0.9342   age055_m62            0.0000     3.0355E+00     4.1030   2.6017    96.1338
 38      5.3720     2.6679E-02    4.4647E-02    8.710000E+06  0.02000  1.154E-02    0   0.8861   age067_m62            0.0000     4.8736E+00     6.3981   1.5013   107.3969
 39      0.3913     2.9262E-03    4.6821E-03    1.445000E+07  0.02000  7.663E-03    0   0.8472   age078_m62            0.0000     2.5032E+00     4.2055   1.7426   104.4729
 40      0.0000     0.0000E+00    0.0000E+00    2.512000E+07  0.02000  4.532E-03    0   0.8099   age090_m62            0.0000     2.7951E+00     4.4725   1.7353   104.2269
 41      0.0000     0.0000E+00    0.0000E+00    5.500000E+07  0.02000  2.733E-03    0   0.7595   age110_m62            0.0000     1.9187E+00     3.4485   1.7737   102.6749
 42      0.0000     0.0000E+00    0.0000E+00    1.609000E+08  0.02000  1.369E-03    0   0.6985   age120_m62            0.0000     1.9722E+00     3.6984   1.6385   104.2342
 43      0.0000     0.0000E+00    0.0000E+00    2.861200E+08  0.02000  9.013E-04    0   0.6714   age125_m62            0.0000     2.0263E+00     3.9030   1.4005   106.5623
 44      0.0229     2.6088E-03    3.1775E-03    5.088000E+08  0.02000  5.028E-04    0   0.6449   age130_m62            0.0000     2.0163E+00     3.9685   1.0504   107.9944
 45      5.2040     1.2283E+00    1.4335E+00    9.047900E+08  0.02000  2.428E-04    0   0.6179   age135_m62            0.0000     1.4221E+00     3.4207   0.4731   106.9256
 46      9.4586     4.2920E+00    4.7890E+00    1.434000E+09  0.02000  1.263E-04    0   0.5908   age139_m62            0.0000     1.4814E+00     3.5008   0.0291   105.2913
 47      2.3020     2.2043E+00    2.3617E+00    2.500000E+09  0.02000  5.985E-05    0   0.5673   age150_m62            0.0000     2.4046E+00     4.5117  -0.3210   103.0796
 48      4.8919     8.5709E+00    8.8512E+00    4.250000E+09  0.02000  3.271E-05    0   0.5468   age158_m62            0.0000     3.8430E+00     5.7566  -0.6041   101.1641
 49      2.6600     1.1209E+01    1.0938E+01    1.000000E+10  0.02000  1.360E-05    0   0.5167   age181_m62            0.0000     6.0656E+00     7.2086  -0.9218    99.4062
 50      1.6997     1.3673E+01    1.2945E+01    1.800000E+10  0.02000  7.124E-06    0   0.5013   age213_m62            0.0000     8.3833E+00     8.3162  -1.0000    93.3012
 51      5.3342     1.1794E-02    2.2270E-02    1.000000E+06  0.05000  2.592E-02    0   0.9998   age020_m72            0.0000     3.9880E+00     4.9202   3.0079    92.4484
 52      1.8780     2.2214E-03    4.0179E-03    3.160000E+06  0.05000  4.845E-02    0   0.9577   age045_m72            0.0000     3.6643E+00     4.5594   2.8530    93.8525
 53      1.9627     3.6615E-03    6.3253E-03    5.010000E+06  0.05000  3.072E-02    0   0.9147   age055_m72            0.0000     2.6625E+00     4.1423   2.3555    99.4279
 54      0.8435     3.3226E-03    5.5704E-03    6.610000E+06  0.05000  1.455E-02    0   0.8877   age061_m72            0.0000     8.9111E+00     8.9977   1.5671   108.7093
 55      2.2285     1.4075E-02    2.2659E-02    1.000000E+07  0.05000  9.074E-03    0   0.8524   age070_m72            0.0000     3.4265E+00     4.9459   2.5712    98.3364
 56      0.0000     0.0000E+00    0.0000E+00    2.512000E+07  0.05000  4.250E-03    0   0.7902   age090_m72            0.0000     2.8562E+00     4.4652   2.2564   100.4222
 57      0.0000     0.0000E+00    0.0000E+00    4.000000E+07  0.05000  3.087E-03    0   0.7618   age104_m72            0.0000     2.9611E+00     4.6514   2.0235   102.3010
 58      0.0000     0.0000E+00    0.0000E+00    1.015200E+08  0.05000  1.700E-03    0   0.7096   age116_m72            0.0000     2.1985E+00     3.9594   1.7754   104.1834
 59      0.0000     0.0000E+00    0.0000E+00    2.861200E+08  0.05000  7.384E-04    0   0.6633   age125_m72            0.0000     1.9447E+00     3.8485   1.2825   107.2981
 60      9.6315     1.4454E+00    1.7394E+00    5.088000E+08  0.05000  3.819E-04    0   0.6372   age130_m72            0.0000     1.5877E+00     3.6028   0.8051   108.1621
 61      8.1276     2.7792E+00    3.2071E+00    9.047900E+08  0.05000  1.676E-04    0   0.6110   age135_m72            0.0000     2.2911E+00     4.5445   0.1305   105.1849
 62      4.7245     3.0639E+00    3.3991E+00    1.434000E+09  0.05000  8.837E-05    0   0.5874   age139_m72            0.0000     2.7316E+00     4.7827  -0.3169   104.3498
 63      4.9537     6.7068E+00    7.0907E+00    2.500000E+09  0.05000  4.233E-05    0   0.5598   age150_m72            0.0000     4.4568E+00     6.2084  -0.5972   101.6898
 64      1.5251     6.0909E+00    6.0381E+00    6.250000E+09  0.05000  1.435E-05    0   0.5249   age166_m72            0.0000     6.7620E+00     7.6399  -1.0000    98.1899
 65      0.0000     0.0000E+00    0.0000E+00    1.300000E+10  0.05000  6.513E-06    0   0.5036   age193_m72            0.0000     1.1494E+01     9.4009  -1.0000    87.9822
 66      0.7064     8.9426E+00    8.3517E+00    1.800000E+10  0.05000  4.527E-06    0   0.4945   age213_m72            0.0000     1.5921E+01    10.8215  -1.0000    81.8300


## Synthesis Results - Average & Chains ##

# j      x_j: min, <> & last-chain-values for 1 ...  7 chains
  1      3.7152      1.9525      2.1955      1.6899      1.8805      2.3780      2.2482      2.2391      2.0830
  2      0.0000      0.2186      0.0000      0.2143      0.6284      0.1985      0.7047      0.0000      0.0608
  3      0.0000      0.0745      0.0000      0.3261      0.0000      0.0000      0.0000      0.0000      0.0000
  4      0.0000      0.1189      0.2850      0.0000      0.0000      0.0000      0.0000      0.0993      0.0000
  5      0.0000      0.2545      0.7900      0.0000      0.0000      0.0000      0.0000      0.0528      0.0000
  6      0.0000      0.5711      0.4860      0.0385      0.0224      0.6318      0.8246      0.4516      0.4617
  7      0.0000      0.1238      0.0000      0.0000      0.0000      0.0188      0.0000      0.2555      0.0384
  8      0.0000      0.1876      0.0000      0.0000      0.0486      0.0000      0.2866      0.0133      0.7997
  9      0.0000      0.2373      0.0000      0.0000      0.0000      0.0000      0.0000      0.3590      0.0000
 10      0.0000      0.1599      0.0000      0.0614      0.0000      0.0000      0.0783      0.0000      0.0000
 11      0.0000      0.1584      0.4871      0.0000      0.0000      0.0000      0.0000      0.0000      0.1146
 12      0.0000      0.1738      0.0000      0.0000      0.1480      0.1230      0.0000      0.1512      0.0000
 13      0.0000      0.6707      0.2028      0.8310      0.7766      0.2809      0.1059      0.8626      0.4904
 14      0.0000      2.6035      2.8590      2.5916      2.5120      2.0181      3.0709      2.4198      2.5775
 15      0.0000      0.3873      0.2429      0.1604      0.0000      0.0000      0.0000      0.3290      0.0000
 16      4.5710      3.2283      3.2805      3.9186      3.0909      3.5439      3.1353      2.8244      3.2812
 17      0.0000      0.1975      0.0000      0.0000      0.0000      0.0000      0.3246      0.0585      0.0000
 18      3.9926      2.0521      2.4213      2.0294      2.1954      2.7335      1.9752      2.3163      2.0804
 19      1.7372      1.8071      1.8091      1.7913      1.7337      1.8374      1.9909      1.8982      1.9080
 20      2.2414      3.1886      3.8119      2.9801      3.1258      3.4206      3.0837      3.0859      2.9952
 21      4.2781      5.6541      5.9315      6.0535      5.5374      5.3783      6.2053      4.8474      5.3814
 22      0.0000      0.1172      0.2799      0.0000      0.0000      0.0000      0.0000      0.0000      0.4137
 23      0.0000      0.1362      0.0000      0.0000      0.0000      0.0000      0.4667      0.0000      0.0000
 24      0.0000      0.1193      0.0000      0.1118      0.0000      0.2486      0.7359      0.4500      0.0000
 25      0.0000      0.2973      0.0000      0.8268      0.4161      0.0000      0.1420      0.0000      0.0000
 26      0.0000      0.1013      0.0000      0.0000      0.0143      0.4144      0.2139      0.2677      0.0071
 27      0.0000      0.1896      0.0000      0.0000      0.0000      0.0000      0.0000      0.0000      0.0000
 28      2.9663      0.9202      0.2122      0.0000      1.1218      0.6820      0.9843      1.0382      1.5098
 29      0.0000      0.3859      0.1018      0.0000      0.0000      0.0000      0.3302      0.0000      0.0000
 30      0.0000      0.1859      0.0000      0.0000      0.0000      0.0000      0.2578      0.0000      0.3597
 31      2.5664      4.0697      4.2195      4.3271      5.1269      4.3420      4.0146      3.8374      3.9222
 32      1.4186      2.6062      2.5634      2.7541      3.2351      2.3229      2.4080      2.3318      2.4771
 33      0.0000      0.0377      0.0000      0.0000      0.0000      0.0000      0.0000      0.0000      0.0000
 34      1.7398      1.7515      1.6877      1.3479      1.9922      1.8298      1.8114      1.7711      2.2151
 35      2.1235      1.3244      1.3199      1.4898      1.2350      1.5026      1.4517      1.5820      1.5966
 36      1.6140      0.9343      0.9404      1.2015      1.1035      1.0160      1.7959      1.0018      1.8618
 37      0.0000      1.3691      1.1759      1.5498      1.3445      0.4228      1.3973      1.4976      1.0915
 38      5.3720      3.2338      3.0792      3.1087      4.0801      3.2108      3.0144      3.3546      3.4108
 39      0.3913      0.7019      0.7890      1.2901      0.7327      0.5649      0.0674      0.3299      0.9614
 40      0.0000      1.5653      1.7644      2.3132      1.8361      1.3984      0.6785      0.7973      2.4554
 41      0.0000      0.1423      0.0000      0.0000      0.0000      0.0000      0.0000      0.0000      0.0000
 42      0.0000      0.1419      0.0000      0.0000      0.0260      0.0473      0.0000      0.0000      0.0000
 43      0.0000      0.1764      0.0351      0.0000      0.0000      0.1066      0.3273      0.0000      0.0000
 44      0.0229      0.3261      0.3329      0.4516      0.0000      0.5499      0.1406      0.2760      0.0000
 45      5.2040      4.1390      2.7323      5.4024      4.1273      5.5499      2.9662      4.6877      6.1314
 46      9.4586      6.3172      6.8431      5.9689      4.2302      6.3647      6.4382      7.3070      4.9528
