###################################################################
## OUTPUT of StarlightChains_v04.for    [Cid@UFSC - 01/Apr/2007] ##
###################################################################

## Some input info
2009iq.txt                               [arq_obs]
Base.CB07.vall.4m                        [arq_base]
Masks.EmLines.NEW.gm                     [arq_masks]
StCv04.C11.config                        [arq_config]
   66                                    [N_base]
    0                                    [N_YAV_components = # of components with extra extinction!]
    0                                    [i_FitPowerLaw (1/0 = Yes/No)]
-9.99                                    [alpha_PowerLaw]
CCM                                      [red_law_option]
 1.458241                                [q_norm = A(l_norm)/A(V)]

## (Re)Sampling Parameters
 3741.00                                 [l_ini (A)]
 7218.00                                 [l_fin (A)]
    1.00                                 [dl    (A)]     (OBS: dl_cushion =    50.00 A)

## Normalization info
 4020.00                                 [l_norm (A) - for base]
 4010.00                                 [llow_norm (A) - window for f_obs]
 4060.00                                 [lupp_norm (A) - window for f_obs]
7.583514E-17                             [fobs_norm (in input units)]

## S/N
 3691.00                                 [llow_SN (A) - window for S/N]
 7268.00                                 [lupp_SN (A) - window for S/N]
   5.128                                 [S/N in S/N window]
   5.682                                 [S/N in norm. window]
   0.000                                 [S/N_err in S/N window]
   0.000                                 [S/N_err in norm. window]
  1.0000                                 [fscale_chi2]

## etc...
    -2007361                             [idum_orig]
  2156                                   [NOl_eff]
  2058                                   [Nl_eff]
    98    NSIGMA                         [Ntot_cliped & clip_method]
  1744400                                [Nglobal_steps]
   7                                     [N_chains]
  26                                     [NEX0s_base = N_base in EX0s-fits]
 0   0   1        3   2.0   5.306E+01    [Clip-Bug, RC-Crash & Burn-In warning-flags, n_censored_weights, wei_nsig_threshold & wei_limit]
    15     15.479     14.974      0.504  [idt_all, wdt_TotTime, wdt_UsrTime & wdt_SysTime (sec)]

## Synthesis Results - Best model ##

 1.30299E+00                             [chi2/Nl_eff]
    17.62446                             [adev (%)]

    93.18907                             [sum-of-x (%)]
 1.05730E-16                             [Flux_tot (units of input spectrum!)]
 1.56798E-12                             [Mini_tot (???)]
 8.32074E-13                             [Mcor_tot (???)]

 164.90                                  [v0_min  (km/s)]
 158.11                                  [vd_min  (km/s)]
 0.3000                                  [AV_min  (mag)]
 0.0000                                  [YAV_min (mag)]

# j     x_j(%)      Mini_j(%)     Mcor_j(%)     age_j(yr)     Z_j      (L/M)_j    YAV?  Mstars   component_j        a/Fe...       SSP_chi2r SSP_adev(%)   SSP_AV   SSP_x(%)
  1      0.0000     0.0000E+00    0.0000E+00    1.000000E+06  0.00400  1.094E-02    0   1.0000   age020_m42            0.0000     2.0898E+00    21.9801   3.2431    76.0655
  2      0.0000     0.0000E+00    0.0000E+00    3.160000E+06  0.00400  4.007E-02    0   0.9999   age045_m42            0.0000     1.9366E+00    20.9698   2.4848    82.7997
  3      0.0000     0.0000E+00    0.0000E+00    5.010000E+06  0.00400  2.539E-02    0   0.9488   age055_m42            0.0000     1.9831E+00    21.6003   2.8078    80.5752
  4      0.5930     1.6377E-03    2.8455E-03    6.610000E+06  0.00400  2.620E-02    0   0.9220   age061_m42            0.0000     1.8828E+00    21.2210   2.3866    84.0338
  5      0.4082     2.2343E-03    3.7313E-03    1.000000E+07  0.00400  1.322E-02    0   0.8862   age070_m42            0.0000     1.6863E+00    23.1355   1.9440    92.8783
  6      0.0000     0.0000E+00    0.0000E+00    1.445000E+07  0.00400  7.883E-03    0   0.8571   age078_m42            0.0000     1.7828E+00    23.2024   2.3022    89.1147
  7      0.0000     0.0000E+00    0.0000E+00    2.512000E+07  0.00400  5.251E-03    0   0.8174   age090_m42            0.0000     1.6558E+00    23.5262   1.7796    95.0014
  8      0.0000     0.0000E+00    0.0000E+00    4.000000E+07  0.00400  3.649E-03    0   0.7851   age104_m42            0.0000     1.6126E+00    22.9795   1.5631    95.3110
  9      0.0000     0.0000E+00    0.0000E+00    5.500000E+07  0.00400  3.098E-03    0   0.7629   age110_m42            0.0000     1.6693E+00    21.9323   1.7833    92.2963
 10      0.0000     0.0000E+00    0.0000E+00    1.015200E+08  0.00400  2.228E-03    0   0.7207   age116_m42            0.0000     1.6913E+00    21.3448   1.8417    90.7760
 11      0.0000     0.0000E+00    0.0000E+00    2.861200E+08  0.00400  1.093E-03    0   0.6648   age125_m42            0.0000     1.7164E+00    21.6716   1.2045    96.8931
 12      0.0000     0.0000E+00    0.0000E+00    5.088000E+08  0.00400  6.597E-04    0   0.6365   age130_m42            0.0000     1.6536E+00    20.3939   1.2602    94.5831
 13     27.3866     9.2949E+00    1.0155E+01    1.434000E+09  0.00400  2.132E-04    0   0.5798   age139_m42            0.0000     1.3574E+00    18.6597   0.3037    95.6518
 14      0.0000     0.0000E+00    0.0000E+00    4.250000E+09  0.00400  5.895E-05    0   0.5377   age158_m42            0.0000     1.3660E+00    16.9772  -0.0168    86.6964
 15      0.0000     0.0000E+00    0.0000E+00    7.500000E+09  0.00400  3.510E-05    0   0.5212   age171_m42            0.0000     1.3627E+00    16.5307  -0.1614    84.4020
 16      0.0000     0.0000E+00    0.0000E+00    1.300000E+10  0.00400  2.005E-05    0   0.5034   age193_m42            0.0000     1.3771E+00    16.2689  -0.2865    82.4116
 17      0.0000     0.0000E+00    0.0000E+00    1.800000E+10  0.00400  1.525E-05    0   0.4967   age213_m42            0.0000     1.3871E+00    16.3543  -0.3224    82.5163
 18      0.0000     0.0000E+00    0.0000E+00    1.000000E+06  0.00800  1.238E-02    0   1.0000   age020_m52            0.0000     2.0811E+00    21.9769   3.2395    76.2134
 19      0.0000     0.0000E+00    0.0000E+00    3.160000E+06  0.00800  3.074E-02    0   0.9966   age045_m52            0.0000     2.0550E+00    21.8856   3.1639    76.8491
 20      0.8099     2.1964E-03    3.9084E-03    5.010000E+06  0.00800  2.668E-02    0   0.9443   age055_m52            0.0000     1.9470E+00    21.7464   2.8877    79.9351
 21      0.0000     0.0000E+00    0.0000E+00    6.610000E+06  0.00800  2.136E-02    0   0.9177   age061_m52            0.0000     1.5361E+00    22.1619   1.4676    92.8299
 22      0.2346     1.3974E-03    2.3245E-03    1.000000E+07  0.00800  1.215E-02    0   0.8827   age070_m52            0.0000     1.6836E+00    23.9264   2.0851    94.4133
 23      0.9429     7.8268E-03    1.2613E-02    1.445000E+07  0.00800  8.717E-03    0   0.8552   age078_m52            0.0000     1.7119E+00    23.1062   2.2542    90.9161
 24      0.0000     0.0000E+00    0.0000E+00    2.512000E+07  0.00800  5.592E-03    0   0.8162   age090_m52            0.0000     1.5997E+00    23.5783   1.8276    96.8665
 25      1.5281     2.8380E-02    4.1934E-02    4.000000E+07  0.00800  3.896E-03    0   0.7841   age104_m52            0.0000     1.6146E+00    22.8388   1.7681    96.3673
 26      0.0000     0.0000E+00    0.0000E+00    1.015200E+08  0.00800  2.148E-03    0   0.7226   age116_m52            0.0000     1.6352E+00    21.5054   1.7768    93.0058
 27      0.0000     0.0000E+00    0.0000E+00    2.861200E+08  0.00800  9.925E-04    0   0.6683   age125_m52            0.0000     1.5415E+00    20.3037   1.3251    95.5160
 28      0.0000     0.0000E+00    0.0000E+00    9.047900E+08  0.00800  3.141E-04    0   0.6138   age135_m52            0.0000     1.4118E+00    17.4765   0.6015    95.9601
 29      0.0000     0.0000E+00    0.0000E+00    1.434000E+09  0.00800  1.719E-04    0   0.5853   age139_m52            0.0000     1.4319E+00    17.2577   0.0302    93.5146
 30      0.0000     0.0000E+00    0.0000E+00    2.500000E+09  0.00800  7.872E-05    0   0.5600   age150_m52            0.0000     1.3520E+00    16.2709  -0.1241    86.1041
 31      0.0000     0.0000E+00    0.0000E+00    4.250000E+09  0.00800  4.336E-05    0   0.5426   age158_m52            0.0000     1.3571E+00    16.2247  -0.1316    84.9751
 32      0.0000     0.0000E+00    0.0000E+00    6.250000E+09  0.00800  3.159E-05    0   0.5319   age166_m52            0.0000     1.3628E+00    15.8504  -0.2810    82.8891
 33      0.0000     0.0000E+00    0.0000E+00    1.300000E+10  0.00800  1.361E-05    0   0.5073   age193_m52            0.0000     1.3893E+00    15.5247  -0.6888    80.0116
 34      1.0394     7.6076E+00    7.1537E+00    1.800000E+10  0.00800  9.886E-06    0   0.4990   age213_m52            0.0000     1.4255E+00    15.3882  -0.7412    77.5751
 35      0.0000     0.0000E+00    0.0000E+00    1.000000E+06  0.02000  1.544E-02    0   1.0000   age020_m62            0.0000     2.0820E+00    21.9988   3.2372    76.3240
 36      0.0000     0.0000E+00    0.0000E+00    3.160000E+06  0.02000  3.762E-02    0   0.9858   age045_m62            0.0000     2.0843E+00    21.9803   3.1800    76.8874
 37      0.9099     1.9976E-03    3.5167E-03    5.010000E+06  0.02000  3.296E-02    0   0.9342   age055_m62            0.0000     1.9366E+00    21.2834   2.7799    81.1378
 38      2.1259     1.3330E-02    2.2258E-02    8.710000E+06  0.02000  1.154E-02    0   0.8861   age067_m62            0.0000     1.7255E+00    31.1166   1.2241   113.3054
 39      0.0000     0.0000E+00    0.0000E+00    1.445000E+07  0.02000  7.663E-03    0   0.8472   age078_m62            0.0000     1.6693E+00    25.5333   1.6334   101.4670
 40      0.0000     0.0000E+00    0.0000E+00    2.512000E+07  0.02000  4.532E-03    0   0.8099   age090_m62            0.0000     1.7008E+00    26.1068   1.6023   102.3927
 41      0.8482     2.2458E-02    3.2142E-02    5.500000E+07  0.02000  2.733E-03    0   0.7595   age110_m62            0.0000     1.5866E+00    23.0300   1.7508    95.6554
 42      1.6016     8.4653E-02    1.1143E-01    1.609000E+08  0.02000  1.369E-03    0   0.6985   age120_m62            0.0000     1.5743E+00    21.3613   1.6594    95.1203
 43      4.2503     3.4122E-01    4.3172E-01    2.861200E+08  0.02000  9.013E-04    0   0.6714   age125_m62            0.0000     1.4988E+00    20.3042   1.4329    96.7379
 44      2.4071     3.4641E-01    4.2098E-01    5.088000E+08  0.02000  5.028E-04    0   0.6449   age130_m62            0.0000     1.4701E+00    18.1609   1.1506    94.9030
 45      1.0193     3.0377E-01    3.5371E-01    9.047900E+08  0.02000  2.428E-04    0   0.6179   age135_m62            0.0000     1.3521E+00    16.6503   0.6179    91.9688
 46      0.0010     5.5706E-04    6.2019E-04    1.434000E+09  0.02000  1.263E-04    0   0.5908   age139_m62            0.0000     1.3256E+00    16.1356   0.2049    89.2018
 47      0.0000     0.0000E+00    0.0000E+00    2.500000E+09  0.02000  5.985E-05    0   0.5673   age150_m62            0.0000     1.3460E+00    15.7641  -0.0782    84.5220
 48      0.0000     0.0000E+00    0.0000E+00    4.250000E+09  0.02000  3.271E-05    0   0.5468   age158_m62            0.0000     1.3778E+00    15.6192  -0.3085    80.8827
 49      1.2925     6.8767E+00    6.6957E+00    1.000000E+10  0.02000  1.360E-05    0   0.5167   age181_m62            0.0000     1.4562E+00    15.4194  -0.5802    77.7455
 50      2.8088     2.8530E+01    2.6951E+01    1.800000E+10  0.02000  7.124E-06    0   0.5013   age213_m62            0.0000     1.5341E+00    15.4829  -0.7228    74.7695
 51      0.0000     0.0000E+00    0.0000E+00    1.000000E+06  0.05000  2.592E-02    0   0.9998   age020_m72            0.0000     2.0763E+00    22.1297   3.2239    76.5048
 52      0.0000     0.0000E+00    0.0000E+00    3.160000E+06  0.05000  4.845E-02    0   0.9577   age045_m72            0.0000     2.0567E+00    21.6656   3.0663    77.8203
 53      0.0000     0.0000E+00    0.0000E+00    5.010000E+06  0.05000  3.072E-02    0   0.9147   age055_m72            0.0000     1.9231E+00    23.9419   2.3702    90.7666
 54      0.0000     0.0000E+00    0.0000E+00    6.610000E+06  0.05000  1.455E-02    0   0.8877   age061_m72            0.0000     3.1015E+00    35.6331   1.1967   119.8650
 55      0.0000     0.0000E+00    0.0000E+00    1.000000E+07  0.05000  9.074E-03    0   0.8524   age070_m72            0.0000     2.2811E+00    24.0967   2.6091    88.7745
 56      0.0000     0.0000E+00    0.0000E+00    2.512000E+07  0.05000  4.250E-03    0   0.7902   age090_m72            0.0000     2.0233E+00    24.0235   2.2336    93.3678
 57      0.0000     0.0000E+00    0.0000E+00    4.000000E+07  0.05000  3.087E-03    0   0.7618   age104_m72            0.0000     2.0222E+00    24.4575   1.9572    97.1502
 58      0.0000     0.0000E+00    0.0000E+00    1.015200E+08  0.05000  1.700E-03    0   0.7096   age116_m72            0.0000     1.6363E+00    22.1854   1.7576    96.7867
 59      0.0000     0.0000E+00    0.0000E+00    2.861200E+08  0.05000  7.384E-04    0   0.6633   age125_m72            0.0000     1.4632E+00    19.2746   1.3429    96.0629
 60      8.2704     1.5670E+00    1.8816E+00    5.088000E+08  0.05000  3.819E-04    0   0.6372   age130_m72            0.0000     1.3614E+00    17.3286   0.9386    93.5273
 61     27.7605     1.1985E+01    1.3800E+01    9.047900E+08  0.05000  1.676E-04    0   0.6110   age135_m72            0.0000     1.3637E+00    16.0140   0.3691    86.4369
 62      1.1369     9.3093E-01    1.0305E+00    1.434000E+09  0.05000  8.837E-05    0   0.5874   age139_m72            0.0000     1.3681E+00    15.7090  -0.0742    85.5800
 63      3.9023     6.6706E+00    7.0369E+00    2.500000E+09  0.05000  4.233E-05    0   0.5598   age150_m72            0.0000     1.4229E+00    15.5392  -0.2842    80.6109
 64      0.0000     0.0000E+00    0.0000E+00    6.250000E+09  0.05000  1.435E-05    0   0.5249   age166_m72            0.0000     1.5441E+00    15.6060  -0.6559    76.6274
 65      1.0619     1.1798E+01    1.1196E+01    1.300000E+10  0.05000  6.513E-06    0   0.5036   age193_m72            0.0000     1.6732E+00    15.7539  -0.8553    74.5431
 66      0.8497     1.3582E+01    1.2656E+01    1.800000E+10  0.05000  4.527E-06    0   0.4945   age213_m72            0.0000     1.7948E+00    15.9509  -0.9644    72.6375


## Synthesis Results - Average & Chains ##

# j      x_j: min, <> & last-chain-values for 1 ...  7 chains
  1      0.0000      0.2560      0.4957      0.0127      0.6007      0.2885      0.7092      0.6592      0.0000
  2      0.0000      0.1906      0.9448      0.0000      0.0000      0.0000      0.0000      0.0000      0.0120
  3      0.0000      0.1143      0.1186      0.2730      0.4048      0.0000      0.0000      0.7735      0.0000
  4      0.5930      0.4867      0.0000      0.0000      0.6404      0.4536      1.3052      0.2198      0.8080
  5      0.4082      0.2782      0.1446      0.0287      0.0000      0.0000      0.3967      0.0000      1.0338
  6      0.0000      0.0855      0.0000      0.0000      0.3774      0.0000      0.0000      0.0000      0.0000
  7      0.0000      0.6043      0.0000      0.9147      1.1131      1.2312      1.4729      0.0000      0.0000
  8      0.0000      0.3721      1.2177      0.8084      0.1576      0.0000      1.1588      0.0924      0.0000
  9      0.0000      0.7740      0.4401      0.4587      0.6784      1.2159      0.6752      1.5339      0.0247
 10      0.0000      1.3717      1.1969      2.3152      1.5727      1.2049      1.4303      1.7369      0.1862
 11      0.0000      0.3531      0.0000      0.0000      0.3239      0.1088      0.0000      0.0000      0.4065
 12      0.0000      0.3789      0.0242      0.3273      0.0000      0.0000      0.0000      1.2934      0.0000
 13     27.3866     18.9889     20.1654     23.5231     19.5549     24.5266     19.7028     20.7078     23.3614
 14      0.0000      0.4014      0.0000      0.0797      0.0458      0.0000      0.0000      0.0000      0.0000
 15      0.0000      0.2650      0.0000      0.4619      0.0000      0.0000      0.0000      0.0000      0.0000
 16      0.0000      0.1034      0.0000      0.5377      0.0000      0.0000      0.0000      0.0000      0.0000
 17      0.0000      0.0877      0.0000      0.0000      0.0000      0.4819      0.0000      0.0000      0.0000
 18      0.0000      0.1930      0.4379      0.1470      0.0000      0.0000      0.9449      0.0000      0.0000
 19      0.0000      0.0925      0.0000      0.0000      0.0000      0.0000      0.0315      0.0689      0.0000
 20      0.8099      0.7132      0.2320      1.0594      0.4879      0.9172      1.9154      0.8372      0.8806
 21      0.0000      0.3369      0.3175      0.0000      0.7896      0.0000      0.0000      0.0000      0.2559
 22      0.2346      0.3449      0.1156      0.0000      0.0000      0.1738      0.5319      0.0000      0.4127
 23      0.9429      0.9689      0.7884      1.3610      1.0172      1.2565      0.9724      1.0136      0.5560
 24      0.0000      0.2433      0.0000      0.0000      0.0000      0.5140      0.1213      0.9635      0.0000
 25      1.5281      0.6287      1.5062      1.1555      0.9057      1.4292      0.4333      1.0265      2.0628
 26      0.0000      0.3429      0.7658      0.0000      0.0000      0.0000      0.0000      0.7411      0.0000
 27      0.0000      0.3456      0.0000      0.0000      0.0000      0.4336      1.0969      0.0000      0.0000
 28      0.0000      1.4042      0.0000      1.5617      0.0782      1.0376      1.2267      1.7200      0.0000
 29      0.0000      0.4885      0.5158      0.0000      0.0000      0.0000      0.0000      0.0000      0.0000
 30      0.0000      0.4272      0.3288      0.0000      0.9098      0.0000      0.9606      0.0000      0.1172
 31      0.0000      0.2607      0.0000      0.0828      0.0000      0.0000      0.0000      0.5351      0.0000
 32      0.0000      0.1214      0.0000      0.0000      0.0832      0.0000      0.0000      0.0000      0.0000
 33      0.0000      0.0822      0.0000      0.2165      0.0000      0.0000      0.1445      0.0000      0.1008
 34      1.0394      2.5690      2.9044      2.4600      3.0403      2.3100      2.1544      2.0553      2.4440
 35      0.0000      0.1247      0.0000      0.0000      0.0000      0.1666      0.2453      0.2362      0.0000
 36      0.0000      0.2474      0.9669      0.0000      0.0000      0.0000      0.0305      0.0000      0.0000
 37      0.9099      0.1900      0.6830      1.2370      1.0966      0.0000      0.0000      0.0000      0.5254
 38      2.1259      1.1636      2.3312      1.2758      0.5731      1.5355      0.9930      0.0000      1.8390
 39      0.0000      0.1205      0.0000      0.0000      0.0000      0.2328      0.0000      0.6933      0.0944
 40      0.0000      0.4221      0.3189      0.0000      0.5558      0.1526      0.0000      0.0000      0.0000
 41      0.8482      0.4758      0.0000      0.6884      0.0000      0.2741      0.0000      0.0000      1.0698
 42      1.6016      0.8280      0.7421      0.2950      1.5749      0.9341      1.4859      0.7970      2.0256
 43      4.2503      2.8311      2.9271      2.5919      4.2200      2.5032      1.8992      4.3134      2.9599
 44      2.4071      3.8870      3.8404      2.2789      4.1489      4.3901      2.0156      3.4968      3.3348
 45      1.0193      1.3554      0.6178      0.1495      0.2021      1.6211      0.1014      0.0000      2.7357
 46      0.0010      2.2552      1.8656      0.3541      0.8838      2.6619      0.9740      3.2024      0.8559
