###################################################################
## OUTPUT of StarlightChains_v04.for    [Cid@UFSC - 01/Apr/2007] ##
###################################################################

## Some input info
2009ii.txt                               [arq_obs]
Base.CB07.vall.4m                        [arq_base]
Masks.EmLines.NEW.gm                     [arq_masks]
StCv04.C11.config                        [arq_config]
   66                                    [N_base]
    0                                    [N_YAV_components = # of components with extra extinction!]
    0                                    [i_FitPowerLaw (1/0 = Yes/No)]
-9.99                                    [alpha_PowerLaw]
CCM                                      [red_law_option]
 1.458241                                [q_norm = A(l_norm)/A(V)]

## (Re)Sampling Parameters
 3741.00                                 [l_ini (A)]
 7218.00                                 [l_fin (A)]
    1.00                                 [dl    (A)]     (OBS: dl_cushion =    50.00 A)

## Normalization info
 4020.00                                 [l_norm (A) - for base]
 4010.00                                 [llow_norm (A) - window for f_obs]
 4060.00                                 [lupp_norm (A) - window for f_obs]
1.742692E-17                             [fobs_norm (in input units)]

## S/N
 3691.00                                 [llow_SN (A) - window for S/N]
 7268.00                                 [lupp_SN (A) - window for S/N]
   2.406                                 [S/N in S/N window]
   2.205                                 [S/N in norm. window]
   2.284                                 [S/N_err in S/N window]
   2.094                                 [S/N_err in norm. window]
  1.0000                                 [fscale_chi2]

## etc...
    -2007360                             [idum_orig]
  2318                                   [NOl_eff]
  2091                                   [Nl_eff]
   227    NSIGMA                         [Ntot_cliped & clip_method]
   353220                                [Nglobal_steps]
   7                                     [N_chains]
   9                                     [NEX0s_base = N_base in EX0s-fits]
 0   0   1        3   2.0   1.260E+02    [Clip-Bug, RC-Crash & Burn-In warning-flags, n_censored_weights, wei_nsig_threshold & wei_limit]
    10      9.406      8.898      0.508  [idt_all, wdt_TotTime, wdt_UsrTime & wdt_SysTime (sec)]

## Synthesis Results - Best model ##

 6.72046E-01                             [chi2/Nl_eff]
    29.53768                             [adev (%)]

    85.96166                             [sum-of-x (%)]
 3.91047E-18                             [Flux_tot (units of input spectrum!)]
 5.66220E-13                             [Mini_tot (???)]
 2.84310E-13                             [Mcor_tot (???)]

  56.70                                  [v0_min  (km/s)]
 212.86                                  [vd_min  (km/s)]
-1.0000                                  [AV_min  (mag)]
 0.0000                                  [YAV_min (mag)]

# j     x_j(%)      Mini_j(%)     Mcor_j(%)     age_j(yr)     Z_j      (L/M)_j    YAV?  Mstars   component_j        a/Fe...       SSP_chi2r SSP_adev(%)   SSP_AV   SSP_x(%)
  1      0.0000     0.0000E+00    0.0000E+00    1.000000E+06  0.00400  1.094E-02    0   1.0000   age020_m42            0.0000     1.1078E+00    32.9335   3.7716    56.7254
  2      0.0000     0.0000E+00    0.0000E+00    3.160000E+06  0.00400  4.007E-02    0   0.9999   age045_m42            0.0000     1.0946E+00    32.8671   2.9878    62.4793
  3      0.0000     0.0000E+00    0.0000E+00    5.010000E+06  0.00400  2.539E-02    0   0.9488   age055_m42            0.0000     1.1061E+00    32.9508   3.3326    60.1105
  4      0.0000     0.0000E+00    0.0000E+00    6.610000E+06  0.00400  2.620E-02    0   0.9220   age061_m42            0.0000     1.1104E+00    33.0118   2.9106    62.6025
  5      0.0000     0.0000E+00    0.0000E+00    1.000000E+07  0.00400  1.322E-02    0   0.8862   age070_m42            0.0000     1.2106E+00    34.1709   2.6333    62.8579
  6      0.0000     0.0000E+00    0.0000E+00    1.445000E+07  0.00400  7.883E-03    0   0.8571   age078_m42            0.0000     1.2018E+00    34.0390   2.9706    61.0386
  7      0.0000     0.0000E+00    0.0000E+00    2.512000E+07  0.00400  5.251E-03    0   0.8174   age090_m42            0.0000     1.2252E+00    34.3638   2.4981    63.2134
  8      0.0000     0.0000E+00    0.0000E+00    4.000000E+07  0.00400  3.649E-03    0   0.7851   age104_m42            0.0000     1.2074E+00    34.1876   2.2564    64.3433
  9      0.0000     0.0000E+00    0.0000E+00    5.500000E+07  0.00400  3.098E-03    0   0.7629   age110_m42            0.0000     1.1616E+00    33.6404   2.3917    65.3738
 10      0.0000     0.0000E+00    0.0000E+00    1.015200E+08  0.00400  2.228E-03    0   0.7207   age116_m42            0.0000     1.1376E+00    33.3521   2.4072    65.9274
 11      0.0000     0.0000E+00    0.0000E+00    2.861200E+08  0.00400  1.093E-03    0   0.6648   age125_m42            0.0000     1.1982E+00    34.0637   1.8147    68.2866
 12      0.0000     0.0000E+00    0.0000E+00    5.088000E+08  0.00400  6.597E-04    0   0.6365   age130_m42            0.0000     1.1365E+00    33.4193   1.7855    70.1141
 13      0.0000     0.0000E+00    0.0000E+00    1.434000E+09  0.00400  2.132E-04    0   0.5798   age139_m42            0.0000     1.0492E+00    32.7842   0.7641    73.9873
 14      0.0000     0.0000E+00    0.0000E+00    4.250000E+09  0.00400  5.895E-05    0   0.5377   age158_m42            0.0000     9.6796E-01    31.9288   0.3170    72.2157
 15      0.0000     0.0000E+00    0.0000E+00    7.500000E+09  0.00400  3.510E-05    0   0.5212   age171_m42            0.0000     9.3447E-01    31.6142   0.1013    73.0927
 16      0.0000     0.0000E+00    0.0000E+00    1.300000E+10  0.00400  2.005E-05    0   0.5034   age193_m42            0.0000     9.0830E-01    31.3539  -0.0882    73.8769
 17      0.0000     0.0000E+00    0.0000E+00    1.800000E+10  0.00400  1.525E-05    0   0.4967   age213_m42            0.0000     9.1805E-01    31.4564  -0.0983    73.0185
 18      0.0000     0.0000E+00    0.0000E+00    1.000000E+06  0.00800  1.238E-02    0   1.0000   age020_m52            0.0000     1.1082E+00    32.9320   3.7693    56.8028
 19      0.0000     0.0000E+00    0.0000E+00    3.160000E+06  0.00800  3.074E-02    0   0.9966   age045_m52            0.0000     1.1020E+00    32.8440   3.6861    57.5382
 20      0.0000     0.0000E+00    0.0000E+00    5.010000E+06  0.00800  2.668E-02    0   0.9443   age055_m52            0.0000     1.1107E+00    32.9682   3.4213    59.3584
 21      0.0000     0.0000E+00    0.0000E+00    6.610000E+06  0.00800  2.136E-02    0   0.9177   age061_m52            0.0000     1.1748E+00    33.8844   2.1308    63.8989
 22      0.0000     0.0000E+00    0.0000E+00    1.000000E+07  0.00800  1.215E-02    0   0.8827   age070_m52            0.0000     1.2554E+00    34.6336   2.8242    62.0431
 23      0.0000     0.0000E+00    0.0000E+00    1.445000E+07  0.00800  8.717E-03    0   0.8552   age078_m52            0.0000     1.2075E+00    34.1095   2.9351    61.8774
 24      0.0000     0.0000E+00    0.0000E+00    2.512000E+07  0.00800  5.592E-03    0   0.8162   age090_m52            0.0000     1.2403E+00    34.5293   2.5602    63.9574
 25      0.0000     0.0000E+00    0.0000E+00    4.000000E+07  0.00800  3.896E-03    0   0.7841   age104_m52            0.0000     1.2198E+00    34.2997   2.4546    65.2413
 26      0.0000     0.0000E+00    0.0000E+00    1.015200E+08  0.00800  2.148E-03    0   0.7226   age116_m52            0.0000     1.1711E+00    33.7212   2.3798    66.0319
 27      0.0000     0.0000E+00    0.0000E+00    2.861200E+08  0.00800  9.925E-04    0   0.6683   age125_m52            0.0000     1.1400E+00    33.4436   1.8485    70.7831
 28      0.0000     0.0000E+00    0.0000E+00    9.047900E+08  0.00800  3.141E-04    0   0.6138   age135_m52            0.0000     1.0231E+00    32.4990   0.9536    78.5482
 29      0.0000     0.0000E+00    0.0000E+00    1.434000E+09  0.00800  1.719E-04    0   0.5853   age139_m52            0.0000     1.0159E+00    32.5366   0.3934    76.3582
 30      0.0000     0.0000E+00    0.0000E+00    2.500000E+09  0.00800  7.872E-05    0   0.5600   age150_m52            0.0000     9.2136E-01    31.4983   0.0890    76.5835
 31      0.0000     0.0000E+00    0.0000E+00    4.250000E+09  0.00800  4.336E-05    0   0.5426   age158_m52            0.0000     9.1558E-01    31.4331   0.0742    75.9117
 32      0.0000     0.0000E+00    0.0000E+00    6.250000E+09  0.00800  3.159E-05    0   0.5319   age166_m52            0.0000     8.6448E-01    30.9639  -0.1746    78.2780
 33      0.0000     0.0000E+00    0.0000E+00    1.300000E+10  0.00800  1.361E-05    0   0.5073   age193_m52            0.0000     7.9602E-01    30.3954  -0.7067    81.0381
 34      0.0000     0.0000E+00    0.0000E+00    1.800000E+10  0.00800  9.886E-06    0   0.4990   age213_m52            0.0000     7.5029E-01    30.0006  -0.8642    83.2679
 35      0.0000     0.0000E+00    0.0000E+00    1.000000E+06  0.02000  1.544E-02    0   1.0000   age020_m62            0.0000     1.1098E+00    32.9278   3.7657    56.9215
 36      0.0000     0.0000E+00    0.0000E+00    3.160000E+06  0.02000  3.762E-02    0   0.9858   age045_m62            0.0000     1.1056E+00    32.8644   3.7022    57.5318
 37      0.0000     0.0000E+00    0.0000E+00    5.010000E+06  0.02000  3.296E-02    0   0.9342   age055_m62            0.0000     1.0955E+00    32.7972   3.2824    61.2764
 38      0.0000     0.0000E+00    0.0000E+00    8.710000E+06  0.02000  1.154E-02    0   0.8861   age067_m62            0.0000     1.4902E+00    37.2813   2.3008    61.1655
 39      0.0000     0.0000E+00    0.0000E+00    1.445000E+07  0.02000  7.663E-03    0   0.8472   age078_m62            0.0000     1.3261E+00    35.4912   2.4620    63.2276
 40      0.0000     0.0000E+00    0.0000E+00    2.512000E+07  0.02000  4.532E-03    0   0.8099   age090_m62            0.0000     1.3482E+00    35.7138   2.4487    63.0925
 41      0.0000     0.0000E+00    0.0000E+00    5.500000E+07  0.02000  2.733E-03    0   0.7595   age110_m62            0.0000     1.2199E+00    34.3028   2.4442    64.5790
 42      0.0000     0.0000E+00    0.0000E+00    1.609000E+08  0.02000  1.369E-03    0   0.6985   age120_m62            0.0000     1.1667E+00    33.6688   2.2514    67.9661
 43      0.0000     0.0000E+00    0.0000E+00    2.861200E+08  0.02000  9.013E-04    0   0.6714   age125_m62            0.0000     1.1249E+00    33.2529   1.9623    71.6714
 44      0.0000     0.0000E+00    0.0000E+00    5.088000E+08  0.02000  5.028E-04    0   0.6449   age130_m62            0.0000     1.0221E+00    32.2851   1.5100    77.4007
 45      0.0000     0.0000E+00    0.0000E+00    9.047900E+08  0.02000  2.428E-04    0   0.6179   age135_m62            0.0000     9.6214E-01    31.8212   0.8887    78.9448
 46      0.0000     0.0000E+00    0.0000E+00    1.434000E+09  0.02000  1.263E-04    0   0.5908   age139_m62            0.0000     9.3514E-01    31.5828   0.4409    78.2422
 47      0.0000     0.0000E+00    0.0000E+00    2.500000E+09  0.02000  5.985E-05    0   0.5673   age150_m62            0.0000     8.6910E-01    30.9314   0.0414    79.2686
 48      0.0000     0.0000E+00    0.0000E+00    4.250000E+09  0.02000  3.271E-05    0   0.5468   age158_m62            0.0000     7.9012E-01    30.2610  -0.3293    82.0966
 49      0.0000     0.0000E+00    0.0000E+00    1.000000E+10  0.02000  1.360E-05    0   0.5167   age181_m62            0.0000     7.1748E-01    29.7008  -0.7701    86.6345
 50     57.0738     6.4365E+01    6.4260E+01    1.800000E+10  0.02000  7.124E-06    0   0.5013   age213_m62            0.0000     6.7384E-01    29.4300  -1.0000    87.7096
 51      0.0000     0.0000E+00    0.0000E+00    1.000000E+06  0.05000  2.592E-02    0   0.9998   age020_m72            0.0000     1.1165E+00    32.9936   3.7643    56.6991
 52      0.0000     0.0000E+00    0.0000E+00    3.160000E+06  0.05000  4.845E-02    0   0.9577   age045_m72            0.0000     1.0932E+00    32.7275   3.5683    58.8846
 53      0.0000     0.0000E+00    0.0000E+00    5.010000E+06  0.05000  3.072E-02    0   0.9147   age055_m72            0.0000     1.2788E+00    34.8173   3.0587    61.0909
 54      0.0000     0.0000E+00    0.0000E+00    6.610000E+06  0.05000  1.455E-02    0   0.8877   age061_m72            0.0000     1.7375E+00    39.5670   2.3318    61.2483
 55      0.0000     0.0000E+00    0.0000E+00    1.000000E+07  0.05000  9.074E-03    0   0.8524   age070_m72            0.0000     1.3358E+00    35.2901   3.2262    61.3723
 56      0.0000     0.0000E+00    0.0000E+00    2.512000E+07  0.05000  4.250E-03    0   0.7902   age090_m72            0.0000     1.3064E+00    35.1043   2.9092    62.9823
 57      0.0000     0.0000E+00    0.0000E+00    4.000000E+07  0.05000  3.087E-03    0   0.7618   age104_m72            0.0000     1.3285E+00    35.3700   2.6748    64.0812
 58      0.0000     0.0000E+00    0.0000E+00    1.015200E+08  0.05000  1.700E-03    0   0.7096   age116_m72            0.0000     1.2133E+00    34.1749   2.3976    67.2145
 59      0.0000     0.0000E+00    0.0000E+00    2.861200E+08  0.05000  7.384E-04    0   0.6633   age125_m72            0.0000     1.0795E+00    32.8072   1.7955    74.4106
 60      0.0000     0.0000E+00    0.0000E+00    5.088000E+08  0.05000  3.819E-04    0   0.6372   age130_m72            0.0000     9.7674E-01    31.8645   1.2520    78.5672
 61      0.0000     0.0000E+00    0.0000E+00    9.047900E+08  0.05000  1.676E-04    0   0.6110   age135_m72            0.0000     8.7539E-01    30.8493   0.5129    80.0979
 62      0.0000     0.0000E+00    0.0000E+00    1.434000E+09  0.05000  8.837E-05    0   0.5874   age139_m72            0.0000     8.5797E-01    30.8460   0.0215    81.3923
 63      0.0000     0.0000E+00    0.0000E+00    2.500000E+09  0.05000  4.233E-05    0   0.5598   age150_m72            0.0000     7.6927E-01    30.0823  -0.3552    84.1822
 64      0.0000     0.0000E+00    0.0000E+00    6.250000E+09  0.05000  1.435E-05    0   0.5249   age166_m72            0.0000     7.0190E-01    29.5680  -0.8831    87.2910
 65     28.8879     3.5635E+01    3.5740E+01    1.300000E+10  0.05000  6.513E-06    0   0.5036   age193_m72            0.0000     6.7819E-01    29.7987  -1.0000    82.6404
 66      0.0000     0.0000E+00    0.0000E+00    1.800000E+10  0.05000  4.527E-06    0   0.4945   age213_m72            0.0000     7.1048E-01    30.3157  -1.0000    76.7141


## Synthesis Results - Average & Chains ##

# j      x_j: min, <> & last-chain-values for 1 ...  7 chains
  1      0.0000      0.0273      0.0000      0.0000      0.0000      0.0000      0.0000      0.0000      0.5732
  2      0.0000      0.0190      0.0000      0.0000      0.0000      0.0000      0.0000      0.0000      0.0000
  3      0.0000      0.0384      0.0000      0.0000      0.0000      0.0000      0.0000      0.0000      0.0000
  4      0.0000      0.0617      0.0000      0.0000      0.0000      0.0000      0.0000      0.0601      0.3769
  5      0.0000      0.0218      0.0000      0.0000      0.0000      0.0000      0.0000      0.0000      0.0000
  6      0.0000      0.0345      0.4704      0.0000      0.0000      0.0000      0.0000      0.0000      0.0317
  7      0.0000      0.0304      0.0000      0.0000      0.0000      0.0000      0.3422      0.0000      0.0000
  8      0.0000      0.0306      0.0000      0.0000      0.0000      0.3600      0.0000      0.0000      0.0000
  9      0.0000      0.0407      0.0000      0.0000      0.0000      0.0000      0.0005      0.0000      0.0000
 10      0.0000      0.0323      0.0000      0.0000      0.0000      0.0000      0.0000      0.0000      0.0000
 11      0.0000      0.1098      0.0000      0.0000      0.0124      0.0000      0.5704      0.0000      0.0000
 12      0.0000      0.0464      0.0000      0.4349      0.0000      0.0000      0.0000      0.0240      0.0000
 13      0.0000      0.2521      0.0000      0.0000      0.0000      0.0000      0.0000      0.0000      0.0000
 14      0.0000      0.1738      0.4910      0.0000      0.0000      0.0000      0.0000      0.4678      0.0000
 15      0.0000      0.3287      0.3649      0.0000      0.1076      0.0000      0.0000      0.5662      0.0000
 16      0.0000      0.5604      0.5773      0.0000      0.0000      0.0000      0.0000      2.8952      0.0000
 17      0.0000      0.3222      0.0000      0.0000      0.0000      1.6499      1.3113      0.0000      0.8813
 18      0.0000      0.0359      0.0000      0.0000      0.0000      0.0000      0.0000      0.0000      0.0000
 19      0.0000      0.0213      0.0000      0.0000      0.0000      0.0000      0.0000      0.0000      0.0000
 20      0.0000      0.0239      0.0000      0.0000      0.0000      0.0000      0.0000      0.0000      0.0000
 21      0.0000      0.0490      0.0000      0.0000      0.0000      0.0000      0.0000      0.0000      0.0000
 22      0.0000      0.0460      0.0000      0.0000      0.0000      0.3761      0.0000      0.0000      0.0000
 23      0.0000      0.0539      0.0000      0.0000      0.0000      0.0000      0.0000      0.0000      0.0000
 24      0.0000      0.0124      0.0000      0.0000      0.0000      0.0000      0.0000      0.0831      0.0000
 25      0.0000      0.0397      0.0000      0.0000      0.0000      0.3075      0.0000      0.0000      0.0000
 26      0.0000      0.0220      0.0000      0.0000      0.0000      0.0000      0.0000      0.0000      0.0000
 27      0.0000      0.0305      0.0000      0.0000      0.0000      0.0000      0.0000      0.0000      0.0000
 28      0.0000      0.1086      0.0000      0.0000      0.0000      0.1509      0.0000      0.0000      0.0000
 29      0.0000      0.0661      0.0000      0.0000      0.3643      0.0000      0.0000      0.0000      0.0000
 30      0.0000      0.2036      0.0000      0.0000      0.0000      0.2186      0.8719      0.3225      0.3172
 31      0.0000      0.3457      0.0000      0.0000      0.0000      0.0000      0.0637      0.0000      0.0000
 32      0.0000      0.4374      0.0000      1.0499      0.0000      2.3139      0.0000      0.0000      0.2976
 33      0.0000      1.1709      0.4190      0.7791      0.3262      0.0000      1.4509      2.0598      0.0000
 34      0.0000      1.3585      1.8451      0.0000      0.0000      0.4556      0.0851      0.0000      0.7627
 35      0.0000      0.0194      0.0000      0.0000      0.0000      0.0000      0.0000      0.0000      0.0000
 36      0.0000      0.0239      0.0000      0.0000      0.0000      0.0000      0.0000      0.0000      0.0000
 37      0.0000      0.0603      0.0000      0.0000      0.0000      0.2814      0.0000      0.0000      0.0000
 38      0.0000      0.0428      0.0000      0.0000      0.0000      0.0000      0.0000      0.0000      0.1851
 39      0.0000      0.0345      0.0000      0.0000      0.0000      0.0000      0.0000      0.0000      0.0000
 40      0.0000      0.0459      0.0000      1.0165      0.0000      0.0000      0.0000      0.0000      0.0000
 41      0.0000      0.0507      0.0000      0.0000      0.0000      0.0000      0.0332      0.0000      0.0000
 42      0.0000      0.0374      0.0000      0.0000      0.0000      0.0000      0.0000      0.0000      0.0000
 43      0.0000      0.0100      0.0000      0.0000      0.0000      0.0000      0.0000      0.0000      0.0000
 44      0.0000      0.0561      0.0000      0.7652      0.0000      0.0000      0.0000      0.0000      0.2797
 45      0.0000      0.0912      0.1061      0.0000      0.0000      0.7428      0.0000      0.0000      0.2506
 46      0.0000      0.1137      0.0000      0.0000      0.0000      0.0000      0.0000      0.0000      0.0000
