###################################################################
## OUTPUT of StarlightChains_v04.for    [Cid@UFSC - 01/Apr/2007] ##
###################################################################

## Some input info
2009fv.txt                               [arq_obs]
Base.CB07.vall.4m                        [arq_base]
Masks.EmLines.NEW.gm                     [arq_masks]
StCv04.C11.config                        [arq_config]
   66                                    [N_base]
    0                                    [N_YAV_components = # of components with extra extinction!]
    0                                    [i_FitPowerLaw (1/0 = Yes/No)]
-9.99                                    [alpha_PowerLaw]
CCM                                      [red_law_option]
 1.458241                                [q_norm = A(l_norm)/A(V)]

## (Re)Sampling Parameters
 3741.00                                 [l_ini (A)]
 7218.00                                 [l_fin (A)]
    1.00                                 [dl    (A)]     (OBS: dl_cushion =    50.00 A)

## Normalization info
 4020.00                                 [l_norm (A) - for base]
 4010.00                                 [llow_norm (A) - window for f_obs]
 4060.00                                 [lupp_norm (A) - window for f_obs]
3.881230E-17                             [fobs_norm (in input units)]

## S/N
 3691.00                                 [llow_SN (A) - window for S/N]
 7268.00                                 [lupp_SN (A) - window for S/N]
   4.221                                 [S/N in S/N window]
   2.846                                 [S/N in norm. window]
  28.602                                 [S/N_err in S/N window]
  19.284                                 [S/N_err in norm. window]
  1.0000                                 [fscale_chi2]

## etc...
    -2007357                             [idum_orig]
  2324                                   [NOl_eff]
  2320                                   [Nl_eff]
     4    NSIGMA                         [Ntot_cliped & clip_method]
   828660                                [Nglobal_steps]
   7                                     [N_chains]
  11                                     [NEX0s_base = N_base in EX0s-fits]
 0   0   1        3   2.0   3.474E+01    [Clip-Bug, RC-Crash & Burn-In warning-flags, n_censored_weights, wei_nsig_threshold & wei_limit]
    11     10.975     10.467      0.507  [idt_all, wdt_TotTime, wdt_UsrTime & wdt_SysTime (sec)]

## Synthesis Results - Best model ##

 5.64017E-01                             [chi2/Nl_eff]
     2.18930                             [adev (%)]

   112.67052                             [sum-of-x (%)]
 3.71303E-17                             [Flux_tot (units of input spectrum!)]
 4.39009E-12                             [Mini_tot (???)]
 2.19512E-12                             [Mcor_tot (???)]

  37.33                                  [v0_min  (km/s)]
 321.53                                  [vd_min  (km/s)]
-0.1218                                  [AV_min  (mag)]
 0.0000                                  [YAV_min (mag)]

# j     x_j(%)      Mini_j(%)     Mcor_j(%)     age_j(yr)     Z_j      (L/M)_j    YAV?  Mstars   component_j        a/Fe...       SSP_chi2r SSP_adev(%)   SSP_AV   SSP_x(%)
  1      0.0000     0.0000E+00    0.0000E+00    1.000000E+06  0.00400  1.094E-02    0   1.0000   age020_m42            0.0000     8.2961E+00     8.9108   3.9379    99.5779
  2      0.0000     0.0000E+00    0.0000E+00    3.160000E+06  0.00400  4.007E-02    0   0.9999   age045_m42            0.0000     7.9334E+00     8.4869   3.2299   105.6887
  3      0.0000     0.0000E+00    0.0000E+00    5.010000E+06  0.00400  2.539E-02    0   0.9488   age055_m42            0.0000     8.0450E+00     8.7091   3.5410   103.5002
  4      0.0000     0.0000E+00    0.0000E+00    6.610000E+06  0.00400  2.620E-02    0   0.9220   age061_m42            0.0000     7.9752E+00     8.5931   3.1551   106.0687
  5      0.0000     0.0000E+00    0.0000E+00    1.000000E+07  0.00400  1.322E-02    0   0.8862   age070_m42            0.0000     9.3628E+00    10.0524   2.8507   109.7021
  6      0.0000     0.0000E+00    0.0000E+00    1.445000E+07  0.00400  7.883E-03    0   0.8571   age078_m42            0.0000     9.2869E+00     9.9840   3.1781   106.8720
  7      0.0000     0.0000E+00    0.0000E+00    2.512000E+07  0.00400  5.251E-03    0   0.8174   age090_m42            0.0000     9.8426E+00    10.3503   2.7169   110.5355
  8      0.0000     0.0000E+00    0.0000E+00    4.000000E+07  0.00400  3.649E-03    0   0.7851   age104_m42            0.0000     9.4553E+00    10.0643   2.4922   111.3114
  9      0.0000     0.0000E+00    0.0000E+00    5.500000E+07  0.00400  3.098E-03    0   0.7629   age110_m42            0.0000     8.7506E+00     9.3541   2.6621   110.4501
 10      0.0000     0.0000E+00    0.0000E+00    1.015200E+08  0.00400  2.228E-03    0   0.7207   age116_m42            0.0000     8.3450E+00     9.0096   2.6918   110.1506
 11      0.0000     0.0000E+00    0.0000E+00    2.861200E+08  0.00400  1.093E-03    0   0.6648   age125_m42            0.0000     8.6065E+00     9.5463   2.1272   113.6604
 12      0.0000     0.0000E+00    0.0000E+00    5.088000E+08  0.00400  6.597E-04    0   0.6365   age130_m42            0.0000     7.5720E+00     8.8396   2.1263   113.9967
 13      0.0000     0.0000E+00    0.0000E+00    1.434000E+09  0.00400  2.132E-04    0   0.5798   age139_m42            0.0000     5.4134E+00     7.4227   1.1447   116.6344
 14      0.0000     0.0000E+00    0.0000E+00    4.250000E+09  0.00400  5.895E-05    0   0.5377   age158_m42            0.0000     3.0715E+00     5.3912   0.7057   111.9769
 15      0.0000     0.0000E+00    0.0000E+00    7.500000E+09  0.00400  3.510E-05    0   0.5212   age171_m42            0.0000     2.3365E+00     4.6580   0.5253   110.9785
 16      7.2891     2.7290E+00    2.7474E+00    1.300000E+10  0.00400  2.005E-05    0   0.5034   age193_m42            0.0000     1.8111E+00     4.0841   0.3683   110.1305
 17     21.2901     1.0480E+01    1.0410E+01    1.800000E+10  0.00400  1.525E-05    0   0.4967   age213_m42            0.0000     1.8779E+00     4.1592   0.3409   109.8040
 18      0.0000     0.0000E+00    0.0000E+00    1.000000E+06  0.00800  1.238E-02    0   1.0000   age020_m52            0.0000     8.2725E+00     8.8918   3.9342    99.7701
 19      0.0000     0.0000E+00    0.0000E+00    3.160000E+06  0.00800  3.074E-02    0   0.9966   age045_m52            0.0000     8.1796E+00     8.7969   3.8566   100.6770
 20      0.0000     0.0000E+00    0.0000E+00    5.010000E+06  0.00800  2.668E-02    0   0.9443   age055_m52            0.0000     8.0500E+00     8.7660   3.6186   102.7781
 21      0.0000     0.0000E+00    0.0000E+00    6.610000E+06  0.00800  2.136E-02    0   0.9177   age061_m52            0.0000     7.9794E+00     9.5441   2.3392   111.4315
 22      0.0000     0.0000E+00    0.0000E+00    1.000000E+07  0.00800  1.215E-02    0   0.8827   age070_m52            0.0000     9.8643E+00    10.5630   3.0250   109.8473
 23      0.0000     0.0000E+00    0.0000E+00    1.445000E+07  0.00800  8.717E-03    0   0.8552   age078_m52            0.0000     9.2028E+00     9.9632   3.1427   108.3987
 24      0.0000     0.0000E+00    0.0000E+00    2.512000E+07  0.00800  5.592E-03    0   0.8162   age090_m52            0.0000     9.8054E+00    10.3820   2.7827   111.8354
 25      0.0000     0.0000E+00    0.0000E+00    4.000000E+07  0.00800  3.896E-03    0   0.7841   age104_m52            0.0000     9.3078E+00     9.9654   2.7059   112.1984
 26      0.0000     0.0000E+00    0.0000E+00    1.015200E+08  0.00800  2.148E-03    0   0.7226   age116_m52            0.0000     8.4294E+00     9.2273   2.6556   111.3230
 27      0.0000     0.0000E+00    0.0000E+00    2.861200E+08  0.00800  9.925E-04    0   0.6683   age125_m52            0.0000     7.4870E+00     8.8349   2.1921   115.0277
 28      0.0000     0.0000E+00    0.0000E+00    9.047900E+08  0.00800  3.141E-04    0   0.6138   age135_m52            0.0000     5.0860E+00     7.1329   1.4059   119.1529
 29      0.0000     0.0000E+00    0.0000E+00    1.434000E+09  0.00800  1.719E-04    0   0.5853   age139_m52            0.0000     3.6936E+00     6.1293   0.8175   117.2451
 30      0.0000     0.0000E+00    0.0000E+00    2.500000E+09  0.00800  7.872E-05    0   0.5600   age150_m52            0.0000     2.0713E+00     4.4540   0.5555   113.6697
 31      0.0000     2.6663E-06    2.8934E-06    4.250000E+09  0.00800  4.336E-05    0   0.5426   age158_m52            0.0000     1.9910E+00     4.2572   0.5386   112.6605
 32      0.0000     0.0000E+00    0.0000E+00    6.250000E+09  0.00800  3.159E-05    0   0.5319   age166_m52            0.0000     1.3907E+00     3.4998   0.3438   112.3476
 33      0.0000     0.0000E+00    0.0000E+00    1.300000E+10  0.00800  1.361E-05    0   0.5073   age193_m52            0.0000     8.5223E-01     2.7375  -0.1178   111.3443
 34      0.0000     0.0000E+00    0.0000E+00    1.800000E+10  0.00800  9.886E-06    0   0.4990   age213_m52            0.0000     7.1265E-01     2.6053  -0.2153   110.3513
 35      4.8025     2.3349E-03    4.6696E-03    1.000000E+06  0.02000  1.544E-02    0   1.0000   age020_m62            0.0000     8.2863E+00     8.8968   3.9283   100.0851
 36      0.0000     0.0000E+00    0.0000E+00    3.160000E+06  0.02000  3.762E-02    0   0.9858   age045_m62            0.0000     8.2433E+00     8.8534   3.8670   101.0016
 37      0.0000     0.0000E+00    0.0000E+00    5.010000E+06  0.02000  3.296E-02    0   0.9342   age055_m62            0.0000     7.7886E+00     8.4321   3.5048   104.6014
 38      0.0000     0.0000E+00    0.0000E+00    8.710000E+06  0.02000  1.154E-02    0   0.8861   age067_m62            0.0000     1.5929E+01    14.2690   2.4287   116.0043
 39      0.0000     0.0000E+00    0.0000E+00    1.445000E+07  0.02000  7.663E-03    0   0.8472   age078_m62            0.0000     1.1051E+01    11.5976   2.6607   113.2197
 40      0.0000     0.0000E+00    0.0000E+00    2.512000E+07  0.02000  4.532E-03    0   0.8099   age090_m62            0.0000     1.1543E+01    11.8126   2.6548   112.9282
 41      0.0000     0.0000E+00    0.0000E+00    5.500000E+07  0.02000  2.733E-03    0   0.7595   age110_m62            0.0000     9.0852E+00     9.9099   2.6836   111.6118
 42      0.0000     0.0000E+00    0.0000E+00    1.609000E+08  0.02000  1.369E-03    0   0.6985   age120_m62            0.0000     8.2428E+00     9.2192   2.5433   113.5712
 43      0.0000     0.0000E+00    0.0000E+00    2.861200E+08  0.02000  9.013E-04    0   0.6714   age125_m62            0.0000     7.8272E+00     9.0044   2.2994   116.4293
 44      0.0000     0.0000E+00    0.0000E+00    5.088000E+08  0.02000  5.028E-04    0   0.6449   age130_m62            0.0000     6.2583E+00     7.9097   1.9408   118.4744
 45      0.0000     0.0000E+00    0.0000E+00    9.047900E+08  0.02000  2.428E-04    0   0.6179   age135_m62            0.0000     3.8690E+00     6.1091   1.3547   117.8586
 46      0.0000     0.0000E+00    0.0000E+00    1.434000E+09  0.02000  1.263E-04    0   0.5908   age139_m62            0.0000     2.6602E+00     4.9994   0.9053   116.4140
 47      0.0000     0.0000E+00    0.0000E+00    2.500000E+09  0.02000  5.985E-05    0   0.5673   age150_m62            0.0000     1.5481E+00     3.6817   0.5450   114.5580
 48      0.0006     1.2627E-04    1.3809E-04    4.250000E+09  0.02000  3.271E-05    0   0.5468   age158_m62            0.0000     8.5407E-01     2.6911   0.2473   113.2571
 49      0.0021     1.1487E-03    1.1871E-03    1.000000E+10  0.02000  1.360E-05    0   0.5167   age181_m62            0.0000     7.2040E-01     2.6821  -0.0858   112.1835
 50     14.9936     1.5799E+01    1.5839E+01    1.800000E+10  0.02000  7.124E-06    0   0.5013   age213_m62            0.0000     9.5877E-01     3.2060  -0.2804   110.6600
 51      0.0000     0.0000E+00    0.0000E+00    1.000000E+06  0.05000  2.592E-02    0   0.9998   age020_m72            0.0000     8.3799E+00     8.9592   3.9173   100.2117
 52      0.0000     0.0000E+00    0.0000E+00    3.160000E+06  0.05000  4.845E-02    0   0.9577   age045_m72            0.0000     7.9986E+00     8.5901   3.7583   101.9762
 53      0.0000     0.0000E+00    0.0000E+00    5.010000E+06  0.05000  3.072E-02    0   0.9147   age055_m72            0.0000     9.3901E+00    10.4617   3.2728   107.7397
 54      0.0000     0.0000E+00    0.0000E+00    6.610000E+06  0.05000  1.455E-02    0   0.8877   age061_m72            0.0000     2.1027E+01    16.5579   2.5063   117.1075
 55      0.0000     0.0000E+00    0.0000E+00    1.000000E+07  0.05000  9.074E-03    0   0.8524   age070_m72            0.0000     9.6914E+00    10.6518   3.4907   106.4973
 56      0.0000     0.0000E+00    0.0000E+00    2.512000E+07  0.05000  4.250E-03    0   0.7902   age090_m72            0.0000     9.8649E+00    10.5590   3.1734   108.9082
 57      0.0000     0.0000E+00    0.0000E+00    4.000000E+07  0.05000  3.087E-03    0   0.7618   age104_m72            0.0000     1.0458E+01    10.8160   2.9416   110.9393
 58      0.0000     0.0000E+00    0.0000E+00    1.015200E+08  0.05000  1.700E-03    0   0.7096   age116_m72            0.0000     9.0084E+00     9.7408   2.6844   113.3260
 59      0.0000     0.0000E+00    0.0000E+00    2.861200E+08  0.05000  7.384E-04    0   0.6633   age125_m72            0.0000     6.9198E+00     8.4677   2.1774   117.4825
 60      0.0000     0.0000E+00    0.0000E+00    5.088000E+08  0.05000  3.819E-04    0   0.6372   age130_m72            0.0000     4.7475E+00     6.7922   1.6896   119.0117
 61      0.0000     0.0000E+00    0.0000E+00    9.047900E+08  0.05000  1.676E-04    0   0.6110   age135_m72            0.0000     2.2724E+00     4.3680   1.0002   116.6174
 62      0.0000     0.0000E+00    0.0000E+00    1.434000E+09  0.05000  8.837E-05    0   0.5874   age139_m72            0.0000     1.4698E+00     3.5810   0.5462   116.1675
 63     17.9237     3.1785E+00    3.5585E+00    2.500000E+09  0.05000  4.233E-05    0   0.5598   age150_m72            0.0000     7.7714E-01     2.5815   0.2519   114.0026
 64      0.0071     3.6961E-03    3.8800E-03    6.250000E+09  0.05000  1.435E-05    0   0.5249   age166_m72            0.0000     7.4666E-01     2.7255  -0.1794   111.5758
 65     17.9383     2.0675E+01    2.0823E+01    1.300000E+10  0.05000  6.513E-06    0   0.5036   age193_m72            0.0000     1.2315E+00     3.6459  -0.4399   111.8198
 66     28.4235     4.7132E+01    4.6611E+01    1.800000E+10  0.05000  4.527E-06    0   0.4945   age213_m72            0.0000     1.7770E+00     4.4016  -0.5867   110.9997


## Synthesis Results - Average & Chains ##

# j      x_j: min, <> & last-chain-values for 1 ...  7 chains
  1      0.0000      0.1739      0.3818      0.3038      0.0000      0.0000      0.0118      0.0000      0.0000
  2      0.0000      0.0247      0.0000      0.0000      0.0000      0.0000      0.0000      0.0000      0.0000
  3      0.0000      0.0311      0.0000      0.0000      0.0244      0.0000      0.0000      0.0000      0.0000
  4      0.0000      0.0150      0.0000      0.0000      0.0000      0.0150      0.0000      0.0000      0.0000
  5      0.0000      0.0250      0.0000      0.0000      0.0000      0.1813      0.0000      0.0331      0.0000
  6      0.0000      0.0898      0.0000      0.0000      0.0000      0.3064      0.0000      0.0000      0.0000
  7      0.0000      0.0426      0.0000      0.0000      0.0000      0.0000      0.0000      0.0000      0.0000
  8      0.0000      0.0411      0.0000      0.0000      0.3115      0.0355      0.0000      0.0408      0.0000
  9      0.0000      0.0275      0.0000      0.0000      0.0000      0.0000      0.0000      0.0000      0.0000
 10      0.0000      0.0180      0.0000      0.0000      0.0000      0.0000      0.0000      0.0000      0.0000
 11      0.0000      0.0269      0.0000      0.0000      0.0000      0.0000      0.0000      0.0000      0.0000
 12      0.0000      0.0102      0.0000      0.0000      0.0000      0.0000      0.0000      0.0000      0.0000
 13      0.0000      0.0490      0.0000      0.0000      0.0000      0.0000      0.0000      0.2514      0.0000
 14      0.0000      0.1367      0.0000      0.0000      0.0000      0.0000      0.0000      0.0000      0.0000
 15      0.0000      0.2894      0.7898      0.0000      0.0000      0.0364      0.2045      0.0000      0.7334
 16      7.2891      2.0972      2.5091      2.5945      2.7649      2.7043      2.7165      6.1964      2.0750
 17     21.2901      1.1597      2.1058      0.0000      0.0000      1.8589      0.7247      0.7468      0.0000
 18      0.0000      0.1191      0.0985      0.0000      0.0000      0.0000      0.3203      0.2719      0.0105
 19      0.0000      0.2379      0.5835      0.2856      0.2751      0.0000      0.5015      0.5087      0.2413
 20      0.0000      0.0288      0.0000      0.0000      0.0000      0.0544      0.0000      0.0000      0.0395
 21      0.0000      0.0308      0.0000      0.0000      0.0000      0.0000      0.0000      0.0000      0.0000
 22      0.0000      0.0398      0.0000      0.0270      0.0000      0.0000      0.0000      0.0000      0.0000
 23      0.0000      0.0393      0.0000      0.0000      0.0000      0.0000      0.0000      0.0000      0.0000
 24      0.0000      0.0543      0.0000      0.2112      0.0000      0.0000      0.0096      0.0000      0.3827
 25      0.0000      0.0466      0.0000      0.0000      0.4501      0.0000      0.0000      0.0065      0.0000
 26      0.0000      0.0225      0.0000      0.0000      0.0000      0.0000      0.0000      0.0000      0.0000
 27      0.0000      0.0278      0.0000      0.0000      0.0000      0.0000      0.0000      0.0000      0.0000
 28      0.0000      0.0270      0.0000      0.0000      0.0000      0.0000      0.0000      0.0000      0.0000
 29      0.0000      0.0690      0.0000      0.0000      0.0000      0.0720      0.0000      0.0495      0.0000
 30      0.0000      0.2094      0.0000      0.0000      0.0000      0.0000      0.0000      0.0000      0.0000
 31      0.0000      0.1950      0.1217      0.6343      0.0000      0.0000      0.0000      0.8545      0.0000
 32      0.0000      0.2925      0.0000      0.0000      0.0000      0.0000      0.0000      0.0000      0.0000
 33      0.0000      0.2080      0.0000      0.0000      0.0000      0.0000      0.0000      0.4961      0.0000
 34      0.0000      0.2203      0.0000      0.0000      0.0000      0.0000      0.0000      0.1929      0.0000
 35      4.8025      0.3505      0.2385      0.6973      0.5527      0.4395      1.1854      1.0793      0.4308
 36      0.0000      0.0865      0.0239      0.1742      0.6406      0.0000      0.0000      0.0174      0.2269
 37      0.0000      0.0237      0.0000      0.0000      0.0000      0.0000      0.0000      0.0000      0.0000
 38      0.0000      0.0529      0.0000      0.3053      0.0000      0.0225      0.0000      0.0000      0.0000
 39      0.0000      0.0834      0.3434      0.0000      0.7102      0.0000      0.0000      0.0000      0.0000
 40      0.0000      0.0610      0.0000      0.0000      0.0000      0.0000      0.2153      0.0000      0.4169
 41      0.0000      0.0270      0.0000      0.0000      0.0000      0.0000      0.0000      0.0000      0.0000
 42      0.0000      0.0325      0.0000      0.0000      0.0000      0.0000      0.0000      0.0000      0.0000
 43      0.0000      0.0173      0.0000      0.0000      0.0000      0.0000      0.0000      0.0000      0.0000
 44      0.0000      0.0146      0.0000      0.0000      0.0000      0.0000      0.0000      0.0000      0.0000
 45      0.0000      0.0382      0.0000      0.0000      0.0000      0.0181      0.0000      0.0000      0.0000
 46      0.0000      0.0510      0.1419      0.0000      0.0000      0.4133      0.0000      0.0000      0.0000
