###################################################################
## OUTPUT of StarlightChains_v04.for    [Cid@UFSC - 01/Apr/2007] ##
###################################################################

## Some input info
2009az.txt                               [arq_obs]
Base.CB07.vall.4m                        [arq_base]
Masks.EmLines.NEW.gm                     [arq_masks]
StCv04.C11.config                        [arq_config]
   66                                    [N_base]
    0                                    [N_YAV_components = # of components with extra extinction!]
    0                                    [i_FitPowerLaw (1/0 = Yes/No)]
-9.99                                    [alpha_PowerLaw]
CCM                                      [red_law_option]
 1.458241                                [q_norm = A(l_norm)/A(V)]

## (Re)Sampling Parameters
 3741.00                                 [l_ini (A)]
 7218.00                                 [l_fin (A)]
    1.00                                 [dl    (A)]     (OBS: dl_cushion =    50.00 A)

## Normalization info
 4020.00                                 [l_norm (A) - for base]
 4010.00                                 [llow_norm (A) - window for f_obs]
 4060.00                                 [lupp_norm (A) - window for f_obs]
4.698921E-17                             [fobs_norm (in input units)]

## S/N
 3691.00                                 [llow_SN (A) - window for S/N]
 7268.00                                 [lupp_SN (A) - window for S/N]
   4.428                                 [S/N in S/N window]
   3.126                                 [S/N in norm. window]
  17.557                                 [S/N_err in S/N window]
  12.395                                 [S/N_err in norm. window]
  1.0000                                 [fscale_chi2]

## etc...
    -2007351                             [idum_orig]
  2384                                   [NOl_eff]
  2379                                   [Nl_eff]
     5    NSIGMA                         [Ntot_cliped & clip_method]
  1951810                                [Nglobal_steps]
   7                                     [N_chains]
  28                                     [NEX0s_base = N_base in EX0s-fits]
 0   0   1        0   2.0   2.062E+01    [Clip-Bug, RC-Crash & Burn-In warning-flags, n_censored_weights, wei_nsig_threshold & wei_limit]
    18     17.782     17.271      0.511  [idt_all, wdt_TotTime, wdt_UsrTime & wdt_SysTime (sec)]

## Synthesis Results - Best model ##

 4.62570E-01                             [chi2/Nl_eff]
     3.51349                             [adev (%)]

   107.06126                             [sum-of-x (%)]
 9.24800E-17                             [Flux_tot (units of input spectrum!)]
 5.96046E-12                             [Mini_tot (???)]
 3.03860E-12                             [Mcor_tot (???)]

-134.78                                  [v0_min  (km/s)]
 170.52                                  [vd_min  (km/s)]
 0.4533                                  [AV_min  (mag)]
 0.0000                                  [YAV_min (mag)]

# j     x_j(%)      Mini_j(%)     Mcor_j(%)     age_j(yr)     Z_j      (L/M)_j    YAV?  Mstars   component_j        a/Fe...       SSP_chi2r SSP_adev(%)   SSP_AV   SSP_x(%)
  1      3.9955     5.2928E-03    1.0382E-02    1.000000E+06  0.00400  1.094E-02    0   1.0000   age020_m42            0.0000     1.8937E+00     7.3221   4.0000    92.4795
  2      0.0000     0.0000E+00    0.0000E+00    3.160000E+06  0.00400  4.007E-02    0   0.9999   age045_m42            0.0000     1.7326E+00     6.5708   3.2993    97.6838
  3      0.0000     0.0000E+00    0.0000E+00    5.010000E+06  0.00400  2.539E-02    0   0.9488   age055_m42            0.0000     1.7687E+00     6.8357   3.6149    95.4798
  4      0.0000     0.0000E+00    0.0000E+00    6.610000E+06  0.00400  2.620E-02    0   0.9220   age061_m42            0.0000     1.6889E+00     6.5698   3.2180    98.2623
  5      0.8913     9.7711E-04    1.6986E-03    1.000000E+07  0.00400  1.322E-02    0   0.8862   age070_m42            0.0000     1.6849E+00     7.1454   2.8758   103.1260
  6      1.5747     2.8950E-03    4.8673E-03    1.445000E+07  0.00400  7.883E-03    0   0.8571   age078_m42            0.0000     1.7538E+00     7.2858   3.2107   100.1928
  7      2.4507     6.7636E-03    1.0845E-02    2.512000E+07  0.00400  5.251E-03    0   0.8174   age090_m42            0.0000     1.7169E+00     7.2958   2.7347   104.2004
  8      2.5519     1.0135E-02    1.5608E-02    4.000000E+07  0.00400  3.649E-03    0   0.7851   age104_m42            0.0000     1.6313E+00     7.0469   2.5122   104.8218
  9      0.0000     0.0000E+00    0.0000E+00    5.500000E+07  0.00400  3.098E-03    0   0.7629   age110_m42            0.0000     1.6043E+00     6.7528   2.6940   103.5378
 10      0.0000     0.0000E+00    0.0000E+00    1.015200E+08  0.00400  2.228E-03    0   0.7207   age116_m42            0.0000     1.5801E+00     6.6488   2.7324   102.8966
 11      0.0000     0.0000E+00    0.0000E+00    2.861200E+08  0.00400  1.093E-03    0   0.6648   age125_m42            0.0000     1.6478E+00     7.0401   2.1441   107.1360
 12      0.0000     0.0000E+00    0.0000E+00    5.088000E+08  0.00400  6.597E-04    0   0.6365   age130_m42            0.0000     1.4734E+00     6.6641   2.1596   106.7535
 13      0.0000     0.0000E+00    0.0000E+00    1.434000E+09  0.00400  2.132E-04    0   0.5798   age139_m42            0.0000     8.8026E-01     5.1141   1.1890   108.6305
 14      0.0000     0.0000E+00    0.0000E+00    4.250000E+09  0.00400  5.895E-05    0   0.5377   age158_m42            0.0000     6.8690E-01     4.0422   0.7828   102.8850
 15      0.0000     0.0000E+00    0.0000E+00    7.500000E+09  0.00400  3.510E-05    0   0.5212   age171_m42            0.0000     6.6007E-01     4.0503   0.6123   101.5075
 16      0.0000     0.0000E+00    0.0000E+00    1.300000E+10  0.00400  2.005E-05    0   0.5034   age193_m42            0.0000     6.7830E-01     4.2326   0.4646   100.2950
 17      0.0000     0.0000E+00    0.0000E+00    1.800000E+10  0.00400  1.525E-05    0   0.4967   age213_m42            0.0000     6.6809E-01     4.1812   0.4358   100.0677
 18      3.9230     4.5923E-03    9.0082E-03    1.000000E+06  0.00800  1.238E-02    0   1.0000   age020_m52            0.0000     1.8856E+00     7.3034   4.0000    92.4979
 19      0.0000     0.0000E+00    0.0000E+00    3.160000E+06  0.00800  3.074E-02    0   0.9966   age045_m52            0.0000     1.8559E+00     7.1863   3.9424    92.4595
 20      0.0000     0.0000E+00    0.0000E+00    5.010000E+06  0.00800  2.668E-02    0   0.9443   age055_m52            0.0000     1.7449E+00     6.8967   3.6938    94.7574
 21      0.0096     6.5264E-06    1.1748E-05    6.610000E+06  0.00800  2.136E-02    0   0.9177   age061_m52            0.0000     1.3713E+00     6.5319   2.3725   104.3741
 22      0.0000     0.0000E+00    0.0000E+00    1.000000E+07  0.00800  1.215E-02    0   0.8827   age070_m52            0.0000     1.7537E+00     7.5163   3.0415   103.6013
 23      4.2871     7.1274E-03    1.1957E-02    1.445000E+07  0.00800  8.717E-03    0   0.8552   age078_m52            0.0000     1.6784E+00     7.1560   3.1723   101.7294
 24      2.3350     6.0514E-03    9.6885E-03    2.512000E+07  0.00800  5.592E-03    0   0.8162   age090_m52            0.0000     1.6643E+00     7.2533   2.7959   105.5929
 25      3.1103     1.1570E-02    1.7795E-02    4.000000E+07  0.00800  3.896E-03    0   0.7841   age104_m52            0.0000     1.6247E+00     7.0433   2.7214   105.8399
 26      0.0000     0.0000E+00    0.0000E+00    1.015200E+08  0.00800  2.148E-03    0   0.7226   age116_m52            0.0000     1.5379E+00     6.6681   2.6867   104.3789
 27      0.0000     0.0000E+00    0.0000E+00    2.861200E+08  0.00800  9.925E-04    0   0.6683   age125_m52            0.0000     1.3712E+00     6.5160   2.2240   107.7477
 28      0.0000     0.0000E+00    0.0000E+00    9.047900E+08  0.00800  3.141E-04    0   0.6138   age135_m52            0.0000     9.9164E-01     5.3991   1.4538   110.8272
 29      0.0000     0.0000E+00    0.0000E+00    1.434000E+09  0.00800  1.719E-04    0   0.5853   age139_m52            0.0000     7.6240E-01     4.4739   0.8732   108.6281
 30      0.0000     0.0000E+00    0.0000E+00    2.500000E+09  0.00800  7.872E-05    0   0.5600   age150_m52            0.0000     6.2518E-01     4.0536   0.6431   103.9079
 31      0.0000     0.0000E+00    0.0000E+00    4.250000E+09  0.00800  4.336E-05    0   0.5426   age158_m52            0.0000     6.5388E-01     4.1205   0.6287   102.8935
 32      0.0000     0.0000E+00    0.0000E+00    6.250000E+09  0.00800  3.159E-05    0   0.5319   age166_m52            0.0000     6.7460E-01     4.3637   0.4494   101.9067
 33      0.0000     0.0000E+00    0.0000E+00    1.300000E+10  0.00800  1.361E-05    0   0.5073   age193_m52            0.0000     7.2468E-01     4.8632   0.0090   100.0091
 34      0.0013     1.9687E-03    1.9270E-03    1.800000E+10  0.00800  9.886E-06    0   0.4990   age213_m52            0.0000     8.6257E-01     5.4971  -0.0719    98.3912
 35      2.2845     2.1443E-03    4.2061E-03    1.000000E+06  0.02000  1.544E-02    0   1.0000   age020_m62            0.0000     1.8893E+00     7.3193   4.0000    92.5378
 36      0.0209     8.0651E-06    1.5596E-05    3.160000E+06  0.02000  3.762E-02    0   0.9858   age045_m62            0.0000     1.8874E+00     7.3080   3.9551    92.6550
 37      0.0000     0.0000E+00    0.0000E+00    5.010000E+06  0.02000  3.296E-02    0   0.9342   age055_m62            0.0000     1.7055E+00     6.6037   3.5825    96.3291
 38      6.4533     8.1043E-03    1.4087E-02    8.710000E+06  0.02000  1.154E-02    0   0.8861   age067_m62            0.0000     2.6681E+00    10.2921   2.3829   111.9747
 39      0.0000     0.0000E+00    0.0000E+00    1.445000E+07  0.02000  7.663E-03    0   0.8472   age078_m62            0.0000     1.9155E+00     8.2227   2.6534   107.7389
 40      2.0166     6.4486E-03    1.0245E-02    2.512000E+07  0.02000  4.532E-03    0   0.8099   age090_m62            0.0000     2.0272E+00     8.4189   2.6415   107.6890
 41      0.8893     4.7156E-03    7.0254E-03    5.500000E+07  0.02000  2.733E-03    0   0.7595   age110_m62            0.0000     1.5576E+00     6.9263   2.7022   105.1417
 42      0.0000     0.0000E+00    0.0000E+00    1.609000E+08  0.02000  1.369E-03    0   0.6985   age120_m62            0.0000     1.4716E+00     6.6867   2.5735   106.4987
 43      0.0000     0.0000E+00    0.0000E+00    2.861200E+08  0.02000  9.013E-04    0   0.6714   age125_m62            0.0000     1.3656E+00     6.5890   2.3355   108.8976
 44      0.0000     0.0000E+00    0.0000E+00    5.088000E+08  0.02000  5.028E-04    0   0.6449   age130_m62            0.0000     1.1918E+00     6.1132   1.9956   109.9689
 45      0.0000     0.0000E+00    0.0000E+00    9.047900E+08  0.02000  2.428E-04    0   0.6179   age135_m62            0.0000     8.1753E-01     4.8078   1.4233   108.7077
 46      0.0000     0.0000E+00    0.0000E+00    1.434000E+09  0.02000  1.263E-04    0   0.5908   age139_m62            0.0000     6.4599E-01     4.2125   0.9843   106.8574
 47      0.0000     0.0000E+00    0.0000E+00    2.500000E+09  0.02000  5.985E-05    0   0.5673   age150_m62            0.0000     6.5484E-01     4.2915   0.6495   103.9952
 48     13.9172     6.1660E+00    6.6137E+00    4.250000E+09  0.02000  3.271E-05    0   0.5468   age158_m62            0.0000     7.1952E-01     4.8092   0.3782   101.6054
 49     11.0227     1.1746E+01    1.1905E+01    1.000000E+10  0.02000  1.360E-05    0   0.5167   age181_m62            0.0000     9.4408E-01     5.9123   0.0693    99.5291
 50      1.9986     4.0657E+00    3.9980E+00    1.800000E+10  0.02000  7.124E-06    0   0.5013   age213_m62            0.0000     1.2057E+00     6.8807  -0.1048    97.2776
 51      0.0000     0.0000E+00    0.0000E+00    1.000000E+06  0.05000  2.592E-02    0   0.9998   age020_m72            0.0000     1.9042E+00     7.3995   4.0000    92.1739
 52      0.0000     0.0000E+00    0.0000E+00    3.160000E+06  0.05000  4.845E-02    0   0.9577   age045_m72            0.0000     1.8284E+00     6.9973   3.8456    93.5584
 53      0.0000     0.0000E+00    0.0000E+00    5.010000E+06  0.05000  3.072E-02    0   0.9147   age055_m72            0.0000     1.9402E+00     7.9031   3.2934   101.4258
 54      0.0000     0.0000E+00    0.0000E+00    6.610000E+06  0.05000  1.455E-02    0   0.8877   age061_m72            0.0000     4.9286E+00    13.2245   2.4205   114.6930
 55      0.0000     0.0000E+00    0.0000E+00    1.000000E+07  0.05000  9.074E-03    0   0.8524   age070_m72            0.0000     2.4324E+00     8.6333   3.5048   100.4781
 56      0.0000     0.0000E+00    0.0000E+00    2.512000E+07  0.05000  4.250E-03    0   0.7902   age090_m72            0.0000     2.1375E+00     8.0757   3.1810   103.0223
 57      0.0000     0.0000E+00    0.0000E+00    4.000000E+07  0.05000  3.087E-03    0   0.7618   age104_m72            0.0000     2.2035E+00     8.2075   2.9394   105.3349
 58      0.0000     0.0000E+00    0.0000E+00    1.015200E+08  0.05000  1.700E-03    0   0.7096   age116_m72            0.0000     1.6194E+00     7.0659   2.7022   106.7934
 59      0.0000     0.0000E+00    0.0000E+00    2.861200E+08  0.05000  7.384E-04    0   0.6633   age125_m72            0.0000     1.2266E+00     6.2561   2.2203   109.5722
 60      1.6948     6.4314E-02    8.0387E-02    5.088000E+08  0.05000  3.819E-04    0   0.6372   age130_m72            0.0000     8.9176E-01     5.1678   1.7562   109.8950
 61      0.0000     0.0000E+00    0.0000E+00    9.047900E+08  0.05000  1.676E-04    0   0.6110   age135_m72            0.0000     7.1775E-01     4.4965   1.1021   106.0437
 62      0.0000     0.0000E+00    0.0000E+00    1.434000E+09  0.05000  8.837E-05    0   0.5874   age139_m72            0.0000     6.3387E-01     4.4035   0.6521   105.3556
 63      0.0000     0.0000E+00    0.0000E+00    2.500000E+09  0.05000  4.233E-05    0   0.5598   age150_m72            0.0000     7.8361E-01     5.1344   0.3901   101.9373
 64     18.0927     1.8272E+01    1.8814E+01    6.250000E+09  0.05000  1.435E-05    0   0.5249   age166_m72            0.0000     1.0227E+00     6.2031  -0.0160    98.6013
 65     16.1361     3.5905E+01    3.5469E+01    1.300000E+10  0.05000  6.513E-06    0   0.5036   age193_m72            0.0000     1.3931E+00     7.4582  -0.2511    97.6882
 66      7.4040     2.3702E+01    2.2991E+01    1.800000E+10  0.05000  4.527E-06    0   0.4945   age213_m72            0.0000     1.6731E+00     8.2472  -0.3817    96.2502


## Synthesis Results - Average & Chains ##

# j      x_j: min, <> & last-chain-values for 1 ...  7 chains
  1      3.9955      2.3399      2.1627      1.9344      2.6116      2.9381      3.5411      2.3824      2.5086
  2      0.0000      0.2132      0.0000      0.0000      0.0000      0.0000      0.0000      0.5860      0.4002
  3      0.0000      0.8632      0.3523      1.2461      0.3915      0.7071      0.7454      0.0000      1.0970
  4      0.0000      0.2211      0.0000      0.3901      0.0000      0.4393      0.0000      0.7052      0.0000
  5      0.8913      0.1816      0.0000      0.2332      0.5563      0.1571      0.1804      0.0000      0.2701
  6      1.5747      1.3342      2.5126      1.4485      1.2336      1.6811      1.8237      1.4882      0.0122
  7      2.4507      1.0442      1.5528      2.0971      1.0077      0.8370      1.4216      1.2453      0.6351
  8      2.5519      1.5860      1.4315      1.3468      1.9570      1.6107      1.6460      1.9848      1.7610
  9      0.0000      0.1208      0.4782      0.0000      0.0000      0.0000      0.0000      0.0210      0.2333
 10      0.0000      0.1517      0.6970      0.0000      0.0000      0.0000      0.0000      0.0000      0.0538
 11      0.0000      0.1131      0.0000      0.0000      0.0000      0.0000      0.0029      0.0228      0.0000
 12      0.0000      0.3752      0.0000      0.0000      0.0000      0.2679      0.0000      0.2255      0.0000
 13      0.0000      0.5737      1.7202      1.2118      0.1938      1.1370      1.3872      0.5860      0.0000
 14      0.0000      0.8123      0.0000      0.2161      0.0000      0.9423      0.1471      0.6438      0.0000
 15      0.0000      0.9451      1.4210      1.5917      0.3132      1.0755      0.0000      0.3887      0.0000
 16      0.0000      0.6055      0.0000      0.0378      0.4141      0.0000      0.0000      0.0000      0.6843
 17      0.0000      0.5402      0.0405      0.0000      0.0000      0.0000      0.3128      0.0000      0.0000
 18      3.9230      2.9231      2.1142      2.5930      2.9929      3.2627      3.2999      3.7065      3.2678
 19      0.0000      0.0883      0.6856      0.0000      0.0000      0.0000      0.0000      0.0000      0.2177
 20      0.0000      0.2447      0.5401      0.0000      0.0000      0.3645      0.0000      0.0000      0.0000
 21      0.0096      0.3894      0.5423      1.2583      0.6581      0.0000      0.2339      0.4847      0.8581
 22      0.0000      0.1337      0.0000      0.0673      0.0000      0.0000      0.0000      0.0000      0.5195
 23      4.2871      2.5599      2.6611      1.5107      2.4169      3.0524      2.8170      2.7615      3.8985
 24      2.3350      1.4781      1.2374      1.9361      2.2423      1.8225      0.0000      1.7902      2.3471
 25      3.1103      2.1784      1.6893      1.5357      2.2564      1.3530      2.8448      2.6052      3.4113
 26      0.0000      0.1750      0.0000      0.0000      0.0000      0.0674      1.2610      0.1648      0.0000
 27      0.0000      0.1552      0.0068      0.0000      0.0000      0.0000      0.0000      0.3934      0.0000
 28      0.0000      0.2057      0.0000      0.1005      0.0452      0.1854      0.0000      0.6933      0.0000
 29      0.0000      0.4253      0.0000      0.0000      0.0348      0.0000      0.9532      0.0000      0.0000
 30      0.0000      0.6357      0.0000      0.4670      0.0000      0.0000      0.0000      0.0000      0.5600
 31      0.0000      0.5264      0.0000      0.1344      0.0000      0.0000      0.3120      0.0000      0.0000
 32      0.0000      0.5470      0.5785      0.6549      0.0000      0.0000      0.2343      0.0826      0.0000
 33      0.0000      0.9038      2.3905      0.0000      0.0000      0.0000      0.0000      0.0000      0.0000
 34      0.0013      7.3752      5.8116      7.8706      5.8850      6.6204      7.1333      7.4559      8.2202
 35      2.2845      2.2435      1.5320      3.1967      3.1354      2.3940      3.5612      2.5705      1.9721
 36      0.0209      0.1221      0.0681      0.0000      0.8221      1.0379      0.0000      0.0000      0.0000
 37      0.0000      0.1000      0.3767      0.0000      0.0000      0.0000      0.0000      0.6018      0.0000
 38      6.4533      2.7549      3.1024      3.8257      3.3990      2.6937      3.3739      2.4082      3.2923
 39      0.0000      0.1905      0.0000      0.3051      0.0000      0.0000      0.0000      0.0000      0.0000
 40      2.0166      2.1705      3.0836      2.7637      2.2925      2.2235      2.6339      1.8631      2.9596
 41      0.8893      1.1498      1.3155      1.0411      1.9720      1.5062      0.0000      2.0661      1.8013
 42      0.0000      0.1777      0.4563      0.7285      0.0000      0.0000      0.0000      0.0000      0.0000
 43      0.0000      0.2677      0.0000      0.5520      0.0000      1.0695      0.4325      0.3933      0.0000
 44      0.0000      0.2667      0.0000      0.0000      0.2953      0.0000      0.5985      0.0000      0.0000
 45      0.0000      0.2139      0.1004      0.0000      1.0280      0.0000      0.0245      0.0000      0.0000
 46      0.0000      0.4311      0.0000      0.0000      0.0835      0.9691      0.0000      1.6034      0.0000
