###################################################################
## OUTPUT of StarlightChains_v04.for    [Cid@UFSC - 01/Apr/2007] ##
###################################################################

## Some input info
2009mz.txt                               [arq_obs]
Base.CB07.vall.4m                        [arq_base]
Masks.EmLines.NEW.gm                     [arq_masks]
StCv04.C11.config                        [arq_config]
   66                                    [N_base]
    0                                    [N_YAV_components = # of components with extra extinction!]
    0                                    [i_FitPowerLaw (1/0 = Yes/No)]
-9.99                                    [alpha_PowerLaw]
CCM                                      [red_law_option]
 1.458241                                [q_norm = A(l_norm)/A(V)]

## (Re)Sampling Parameters
 3741.00                                 [l_ini (A)]
 7218.00                                 [l_fin (A)]
    1.00                                 [dl    (A)]     (OBS: dl_cushion =    50.00 A)

## Normalization info
 4020.00                                 [l_norm (A) - for base]
 4010.00                                 [llow_norm (A) - window for f_obs]
 4060.00                                 [lupp_norm (A) - window for f_obs]
2.942258E-16                             [fobs_norm (in input units)]

## S/N
 3691.00                                 [llow_SN (A) - window for S/N]
 7268.00                                 [lupp_SN (A) - window for S/N]
   4.434                                 [S/N in S/N window]
   6.409                                 [S/N in norm. window]
   8.887                                 [S/N_err in S/N window]
  12.845                                 [S/N_err in norm. window]
  1.0000                                 [fscale_chi2]

## etc...
    -2007364                             [idum_orig]
  2383                                   [NOl_eff]
  2377                                   [Nl_eff]
     6    NSIGMA                         [Ntot_cliped & clip_method]
  1295910                                [Nglobal_steps]
   7                                     [N_chains]
  24                                     [NEX0s_base = N_base in EX0s-fits]
 0   0   1        7   2.0   2.275E+01    [Clip-Bug, RC-Crash & Burn-In warning-flags, n_censored_weights, wei_nsig_threshold & wei_limit]
    13     12.309     11.806      0.503  [idt_all, wdt_TotTime, wdt_UsrTime & wdt_SysTime (sec)]

## Synthesis Results - Best model ##

 2.34324E-01                             [chi2/Nl_eff]
     4.00257                             [adev (%)]

   103.01939                             [sum-of-x (%)]
 2.99610E-16                             [Flux_tot (units of input spectrum!)]
 2.04279E-12                             [Mini_tot (???)]
 1.07353E-12                             [Mcor_tot (???)]

-279.95                                  [v0_min  (km/s)]
 132.80                                  [vd_min  (km/s)]
-0.0086                                  [AV_min  (mag)]
 0.0000                                  [YAV_min (mag)]

# j     x_j(%)      Mini_j(%)     Mcor_j(%)     age_j(yr)     Z_j      (L/M)_j    YAV?  Mstars   component_j        a/Fe...       SSP_chi2r SSP_adev(%)   SSP_AV   SSP_x(%)
  1      0.0000     0.0000E+00    0.0000E+00    1.000000E+06  0.00400  1.094E-02    0   1.0000   age020_m42            0.0000     7.0188E-01     6.6840   2.1861    84.2599
  2      0.0000     0.0000E+00    0.0000E+00    3.160000E+06  0.00400  4.007E-02    0   0.9999   age045_m42            0.0000     4.1922E-01     5.4101   1.4041    92.5004
  3      0.0000     0.0000E+00    0.0000E+00    5.010000E+06  0.00400  2.539E-02    0   0.9488   age055_m42            0.0000     4.9234E-01     5.8031   1.7407    89.5388
  4      0.0000     0.0000E+00    0.0000E+00    6.610000E+06  0.00400  2.620E-02    0   0.9220   age061_m42            0.0000     3.7566E-01     5.1632   1.3200    93.2086
  5      0.0000     0.0000E+00    0.0000E+00    1.000000E+07  0.00400  1.322E-02    0   0.8862   age070_m42            0.0000     3.4202E-01     4.6656   1.0341    95.5620
  6      0.0000     0.0000E+00    0.0000E+00    1.445000E+07  0.00400  7.883E-03    0   0.8571   age078_m42            0.0000     4.0243E-01     5.0258   1.3748    92.5111
  7      0.0000     0.0000E+00    0.0000E+00    2.512000E+07  0.00400  5.251E-03    0   0.8174   age090_m42            0.0000     3.3680E-01     4.6172   0.8985    96.3836
  8      0.0000     0.0000E+00    0.0000E+00    4.000000E+07  0.00400  3.649E-03    0   0.7851   age104_m42            0.0000     3.0539E-01     4.4498   0.6654    97.4309
  9      0.0000     0.0000E+00    0.0000E+00    5.500000E+07  0.00400  3.098E-03    0   0.7629   age110_m42            0.0000     2.8690E-01     4.4623   0.8116    97.7172
 10      0.0000     0.0000E+00    0.0000E+00    1.015200E+08  0.00400  2.228E-03    0   0.7207   age116_m42            0.0000     2.9280E-01     4.5654   0.8245    98.2066
 11     43.4118     5.6546E+00    7.1532E+00    2.861200E+08  0.00400  1.093E-03    0   0.6648   age125_m42            0.0000     2.5331E-01     4.1935   0.2436   101.7922
 12      0.0000     0.0000E+00    0.0000E+00    5.088000E+08  0.00400  6.597E-04    0   0.6365   age130_m42            0.0000     2.9351E-01     4.4556   0.2325   102.6272
 13      0.0000     0.0000E+00    0.0000E+00    1.434000E+09  0.00400  2.132E-04    0   0.5798   age139_m42            0.0000     3.0777E-01     4.6865  -0.7257   103.9631
 14      0.0000     0.0000E+00    0.0000E+00    4.250000E+09  0.00400  5.895E-05    0   0.5377   age158_m42            0.0000     4.5282E-01     5.9065  -1.0000    93.1663
 15      0.0000     0.0000E+00    0.0000E+00    7.500000E+09  0.00400  3.510E-05    0   0.5212   age171_m42            0.0000     7.2774E-01     7.6381  -1.0000    85.6315
 16      0.0000     0.0000E+00    0.0000E+00    1.300000E+10  0.00400  2.005E-05    0   0.5034   age193_m42            0.0000     1.0998E+00     9.5756  -1.0000    79.3741
 17      2.1519     2.0090E+01    1.8988E+01    1.800000E+10  0.00400  1.525E-05    0   0.4967   age213_m42            0.0000     1.1518E+00     9.8595  -1.0000    78.2367
 18      0.0000     0.0000E+00    0.0000E+00    1.000000E+06  0.00800  1.238E-02    0   1.0000   age020_m52            0.0000     7.0098E-01     6.6927   2.1833    84.3957
 19      0.0000     0.0000E+00    0.0000E+00    3.160000E+06  0.00800  3.074E-02    0   0.9966   age045_m52            0.0000     6.5139E-01     6.5972   2.0952    85.5996
 20      0.0000     0.0000E+00    0.0000E+00    5.010000E+06  0.00800  2.668E-02    0   0.9443   age055_m52            0.0000     5.1626E-01     5.9461   1.8279    88.5408
 21      4.7416     3.1604E-02    5.5189E-02    6.610000E+06  0.00800  2.136E-02    0   0.9177   age061_m52            0.0000     3.9189E-01     4.8017   0.5589    95.4584
 22      0.0000     0.0000E+00    0.0000E+00    1.000000E+07  0.00800  1.215E-02    0   0.8827   age070_m52            0.0000     3.8425E-01     4.8202   1.2195    95.1182
 23      0.0004     6.4357E-06    1.0473E-05    1.445000E+07  0.00800  8.717E-03    0   0.8552   age078_m52            0.0000     3.7791E-01     4.8872   1.3342    94.0712
 24      0.0000     0.0000E+00    0.0000E+00    2.512000E+07  0.00800  5.592E-03    0   0.8162   age090_m52            0.0000     3.2415E-01     4.5364   0.9583    97.7422
 25      0.0000     0.0000E+00    0.0000E+00    4.000000E+07  0.00800  3.896E-03    0   0.7841   age104_m52            0.0000     2.8659E-01     4.3526   0.8638    98.8109
 26      0.0000     0.0000E+00    0.0000E+00    1.015200E+08  0.00800  2.148E-03    0   0.7226   age116_m52            0.0000     2.6967E-01     4.3532   0.7935    98.9749
 27     10.7740     1.5455E+00    1.9654E+00    2.861200E+08  0.00800  9.925E-04    0   0.6683   age125_m52            0.0000     2.9254E-01     4.4129   0.2944   103.7460
 28      0.0017     7.5008E-04    8.7608E-04    9.047900E+08  0.00800  3.141E-04    0   0.6138   age135_m52            0.0000     3.7563E-01     5.1471  -0.4829   106.9120
 29      0.0000     0.0000E+00    0.0000E+00    1.434000E+09  0.00800  1.719E-04    0   0.5853   age139_m52            0.0000     3.7588E-01     5.2249  -1.0000   101.9977
 30      1.1783     2.1310E+00    2.2709E+00    2.500000E+09  0.00800  7.872E-05    0   0.5600   age150_m52            0.0000     7.2943E-01     7.5897  -1.0000    88.8219
 31      2.0225     6.6408E+00    6.8567E+00    4.250000E+09  0.00800  4.336E-05    0   0.5426   age158_m52            0.0000     7.5957E-01     7.7368  -1.0000    87.3834
 32      0.0000     0.0000E+00    0.0000E+00    6.250000E+09  0.00800  3.159E-05    0   0.5319   age166_m52            0.0000     1.2586E+00    10.1513  -1.0000    80.1568
 33      0.0000     0.0000E+00    0.0000E+00    1.300000E+10  0.00800  1.361E-05    0   0.5073   age193_m52            0.0000     2.9232E+00    16.1310  -1.0000    64.5236
 34      3.7986     5.4703E+01    5.1942E+01    1.800000E+10  0.00800  9.886E-06    0   0.4990   age213_m52            0.0000     3.4214E+00    17.3948  -1.0000    61.0732
 35      0.0000     0.0000E+00    0.0000E+00    1.000000E+06  0.02000  1.544E-02    0   1.0000   age020_m62            0.0000     7.0156E-01     6.7214   2.1788    84.6098
 36      0.5630     2.1307E-03    3.9969E-03    3.160000E+06  0.02000  3.762E-02    0   0.9858   age045_m62            0.0000     6.6937E-01     6.6942   2.1102    85.6574
 37      0.1834     7.9237E-04    1.4086E-03    5.010000E+06  0.02000  3.296E-02    0   0.9342   age055_m62            0.0000     4.4221E-01     5.6211   1.6864    91.2438
 38      0.0000     0.0000E+00    0.0000E+00    8.710000E+06  0.02000  1.154E-02    0   0.8861   age067_m62            0.0000     8.1407E-01     6.8152   0.6823    97.4872
 39      0.0000     0.0000E+00    0.0000E+00    1.445000E+07  0.02000  7.663E-03    0   0.8472   age078_m62            0.0000     4.4538E-01     5.0360   0.8692    97.2337
 40      0.0058     1.8281E-04    2.8173E-04    2.512000E+07  0.02000  4.532E-03    0   0.8099   age090_m62            0.0000     4.3009E-01     5.0340   0.8505    97.5116
 41      0.0000     0.0000E+00    0.0000E+00    5.500000E+07  0.02000  2.733E-03    0   0.7595   age110_m62            0.0000     2.8652E-01     4.3565   0.8477    98.0257
 42      7.6558     7.9616E-01    1.0582E+00    1.609000E+08  0.02000  1.369E-03    0   0.6985   age120_m62            0.0000     2.7581E-01     4.3387   0.6608   101.8824
 43      4.5000     7.1082E-01    9.0814E-01    2.861200E+08  0.02000  9.013E-04    0   0.6714   age125_m62            0.0000     3.3952E-01     4.6549   0.3991   105.3159
 44      0.0000     0.0000E+00    0.0000E+00    5.088000E+08  0.02000  5.028E-04    0   0.6449   age130_m62            0.0000     4.4026E-01     5.3925   0.0346   107.3416
 45      2.8421     1.6665E+00    1.9594E+00    9.047900E+08  0.02000  2.428E-04    0   0.6179   age135_m62            0.0000     4.3196E-01     5.6102  -0.5243   105.3021
 46      0.0000     0.0000E+00    0.0000E+00    1.434000E+09  0.02000  1.263E-04    0   0.5908   age139_m62            0.0000     4.7914E-01     5.9781  -0.9488   102.7596
 47      0.0000     0.0000E+00    0.0000E+00    2.500000E+09  0.02000  5.985E-05    0   0.5673   age150_m62            0.0000     8.5424E-01     8.1956  -1.0000    89.1104
 48      0.0000     0.0000E+00    0.0000E+00    4.250000E+09  0.02000  3.271E-05    0   0.5468   age158_m62            0.0000     1.6675E+00    11.6606  -1.0000    77.4978
 49      0.0000     0.0000E+00    0.0000E+00    1.000000E+10  0.02000  1.360E-05    0   0.5167   age181_m62            0.0000     2.9999E+00    15.9081  -1.0000    65.9863
 50      0.0000     0.0000E+00    0.0000E+00    1.800000E+10  0.02000  7.124E-06    0   0.5013   age213_m62            0.0000     3.9603E+00    18.3594  -1.0000    59.3858
 51      2.3773     1.3057E-02    2.4842E-02    1.000000E+06  0.05000  2.592E-02    0   0.9998   age020_m72            0.0000     7.2205E-01     6.8327   2.1715    84.5764
 52      0.0000     0.0000E+00    0.0000E+00    3.160000E+06  0.05000  4.845E-02    0   0.9577   age045_m72            0.0000     5.6965E-01     6.3281   1.9719    87.6717
 53      0.0000     0.0000E+00    0.0000E+00    5.010000E+06  0.05000  3.072E-02    0   0.9147   age055_m72            0.0000     4.7050E-01     5.3197   1.4753    92.5791
 54      3.7255     3.6453E-02    6.1576E-02    6.610000E+06  0.05000  1.455E-02    0   0.8877   age061_m72            0.0000     1.2509E+00     8.7504   0.7326    98.4153
 55      0.0000     0.0000E+00    0.0000E+00    1.000000E+07  0.05000  9.074E-03    0   0.8524   age070_m72            0.0000     5.4736E-01     5.8633   1.6608    92.3109
 56      0.0000     0.0000E+00    0.0000E+00    2.512000E+07  0.05000  4.250E-03    0   0.7902   age090_m72            0.0000     3.7865E-01     4.9916   1.3274    95.5178
 57      0.0000     0.0000E+00    0.0000E+00    4.000000E+07  0.05000  3.087E-03    0   0.7618   age104_m72            0.0000     3.4862E-01     4.8619   1.0843    97.8483
 58      5.7393     4.8064E-01    6.4900E-01    1.015200E+08  0.05000  1.700E-03    0   0.7096   age116_m72            0.0000     2.6711E-01     4.2727   0.8011   101.6269
 59      5.4099     1.0431E+00    1.3165E+00    2.861200E+08  0.05000  7.384E-04    0   0.6633   age125_m72            0.0000     3.9449E-01     4.9859   0.2719   106.4764
 60      0.6600     2.4603E-01    2.9831E-01    5.088000E+08  0.05000  3.819E-04    0   0.6372   age130_m72            0.0000     4.5122E-01     5.6947  -0.1997   107.0367
 61      0.0000     0.0000E+00    0.0000E+00    9.047900E+08  0.05000  1.676E-04    0   0.6110   age135_m72            0.0000     6.1132E-01     6.8701  -0.8526   102.9407
 62      0.0490     7.9002E-02    8.8304E-02    1.434000E+09  0.05000  8.837E-05    0   0.5874   age139_m72            0.0000     9.1694E-01     8.4697  -1.0000    90.3972
 63      1.2275     4.1283E+00    4.3976E+00    2.500000E+09  0.05000  4.233E-05    0   0.5598   age150_m72            0.0000     1.7299E+00    11.8130  -1.0000    78.1293
 64      0.0000     0.0000E+00    0.0000E+00    6.250000E+09  0.05000  1.435E-05    0   0.5249   age166_m72            0.0000     3.4318E+00    17.1135  -1.0000    62.8291
 65      0.0000     0.0000E+00    0.0000E+00    1.300000E+10  0.05000  6.513E-06    0   0.5036   age193_m72            0.0000     4.7702E+00    20.2977  -1.0000    55.5876
 66      0.0000     0.0000E+00    0.0000E+00    1.800000E+10  0.05000  4.527E-06    0   0.4945   age213_m72            0.0000     5.5894E+00    22.0231  -1.0000    51.3562


## Synthesis Results - Average & Chains ##

# j      x_j: min, <> & last-chain-values for 1 ...  7 chains
  1      0.0000      0.1033      0.0000      0.0000      0.9686      0.0000      0.0000      0.0000      0.0000
  2      0.0000      0.3832      0.0000      0.0000      0.0000      0.2485      0.3021      0.0000      0.1250
  3      0.0000      0.2399      0.0000      0.0000      0.0000      0.0000      0.0000      0.0000      0.0000
  4      0.0000      0.3263      0.0000      0.8156      0.0000      0.3145      0.0000      0.0000      0.0000
  5      0.0000      1.2130      0.0000      0.0000      0.0000      0.9612      0.0000      0.0000      0.0000
  6      0.0000      0.3362      0.0000      0.0000      0.0000      0.4499      0.0000      0.0000      0.5071
  7      0.0000      0.7853      0.0000      0.0000      1.0742      0.4682      0.0000      2.5357      0.0000
  8      0.0000      1.0553      0.0000      0.5705      0.0000      4.0389      0.6301      0.8852      0.0000
  9      0.0000      0.8013      0.4287      0.0000      0.0000      0.0000      0.0000      0.0000      0.0000
 10      0.0000      1.2401      0.0000      0.0000      0.0573      1.5026      0.4877      0.0000      0.0000
 11     43.4118     23.6467     31.1711     28.4211     37.8556     29.9132     20.8142     35.0074     29.6940
 12      0.0000      7.4086      0.4824      0.0000      4.3405      0.0000      3.2431      0.0000      0.0000
 13      0.0000      0.7787      0.0000      1.0710      0.0000      0.3519      0.0000      0.1187      1.7379
 14      0.0000      0.1993      0.0000      0.2082      0.0000      0.8736      0.6058      0.0000      0.0000
 15      0.0000      0.3879      0.0000      0.0000      0.1083      1.8006      0.0000      0.0000      0.0000
 16      0.0000      0.0505      0.0000      0.1927      0.0000      0.0000      0.9368      0.7786      0.0000
 17      2.1519      0.1018      0.6813      0.5137      0.0000      0.0000      0.0000      0.0000      0.0000
 18      0.0000      0.2002      0.7023      0.0000      0.0000      0.0000      0.2281      0.0000      0.0000
 19      0.0000      0.2539      0.0000      0.0000      0.0000      1.7153      0.0000      0.0000      1.1367
 20      0.0000      0.3173      0.0000      0.0000      2.3455      0.0000      0.0000      0.0000      0.0000
 21      4.7416      2.9038      0.8065      2.1255      0.0000      0.0000      4.9502      1.8517      5.0148
 22      0.0000      0.5283      0.0000      5.6986      0.0000      0.0000      0.0000      0.0000      0.0000
 23      0.0004      0.5588      2.1126      0.0000      1.5828      0.0000      0.0000      0.3526      0.6064
 24      0.0000      0.3796      0.0000      0.0000      1.8498      0.0000      0.0000      0.0000      0.0000
 25      0.0000      0.6456      0.0000      0.0000      1.1550      0.0000      0.0000      0.0000      0.6701
 26      0.0000      1.8853      0.0000      6.5046      1.0823      1.3227      0.0000      0.0000      0.0000
 27     10.7740      8.1015     13.3384      8.7008     10.3772     13.8390      9.1938      9.8675      3.8483
 28      0.0017      1.6131      4.9732      0.0000      0.0000      0.0000      0.4777      0.0000      0.0000
 29      0.0000      0.1748      0.0000      0.0000      0.0000      0.0000      0.0000      0.0000      0.0747
 30      1.1783      0.2807      1.7001      0.2219      0.6121      0.0000      0.0000      0.0000      0.3749
 31      2.0225      0.3029      1.5395      1.7211      0.9053      0.0000      0.0000      0.0000      0.0000
 32      0.0000      0.1102      0.0000      0.0000      0.0000      0.0000      0.6691      0.0000      0.0000
 33      0.0000      0.0333      0.0000      0.0000      0.0000      0.0000      0.0000      0.2279      0.0000
 34      3.7986      0.3570      1.6721      1.1618      0.0000      0.0000      1.0128      0.4275      0.7038
 35      0.0000      0.1494      0.0000      0.0000      0.0000      0.0000      0.0000      0.0000      0.0000
 36      0.5630      0.2427      1.1090      0.0000      0.2962      1.2812      0.0000      0.0000      0.0000
 37      0.1834      0.2557      1.0890      1.4282      0.0000      0.0000      0.0000      1.1052      0.0000
 38      0.0000      3.1979      2.3623      0.0000      4.9964      3.8430      6.3344      5.3778      4.9791
 39      0.0000      0.7398      0.0000      1.9156      0.0000      0.0000      0.0000      0.0000      2.1174
 40      0.0058      1.0413      3.6474      0.8634      0.0000      0.0000      5.3565      0.0000      0.0000
 41      0.0000      1.3566      0.0000      1.4840      1.5369      0.0000      0.0000      0.5511      0.0000
 42      7.6558      1.4561      1.3783      0.5952      0.0000      0.0000      5.4841      2.4812      3.9699
 43      4.5000      3.4231      9.4370      6.5914      0.0000      3.8932     11.8607      5.1122      0.0000
 44      0.0000      5.8604      0.0000      0.0000      3.0998      4.4349      0.0000      0.8786      0.0000
 45      2.8421      3.6726      5.5360      4.8042      5.5640      4.1457      5.2004      2.5739      3.8345
 46      0.0000      0.3158      0.0000      1.3019      0.2772      0.0000      0.0000      1.4682      2.4226
