###################################################################
## OUTPUT of StarlightChains_v04.for    [Cid@UFSC - 01/Apr/2007] ##
###################################################################

## Some input info
2009fl.txt                               [arq_obs]
Base.CB07.vall.4m                        [arq_base]
Masks.EmLines.NEW.gm                     [arq_masks]
StCv04.C11.config                        [arq_config]
   66                                    [N_base]
    0                                    [N_YAV_components = # of components with extra extinction!]
    0                                    [i_FitPowerLaw (1/0 = Yes/No)]
-9.99                                    [alpha_PowerLaw]
CCM                                      [red_law_option]
 1.458241                                [q_norm = A(l_norm)/A(V)]

## (Re)Sampling Parameters
 3741.00                                 [l_ini (A)]
 7218.00                                 [l_fin (A)]
    1.00                                 [dl    (A)]     (OBS: dl_cushion =    50.00 A)

## Normalization info
 4020.00                                 [l_norm (A) - for base]
 4010.00                                 [llow_norm (A) - window for f_obs]
 4060.00                                 [lupp_norm (A) - window for f_obs]
1.948062E-17                             [fobs_norm (in input units)]

## S/N
 3691.00                                 [llow_SN (A) - window for S/N]
 7268.00                                 [lupp_SN (A) - window for S/N]
   4.877                                 [S/N in S/N window]
   4.122                                 [S/N in norm. window]
  11.932                                 [S/N_err in S/N window]
  10.085                                 [S/N_err in norm. window]
  1.0000                                 [fscale_chi2]

## etc...
    -2007356                             [idum_orig]
  2322                                   [NOl_eff]
  2320                                   [Nl_eff]
     2    NSIGMA                         [Ntot_cliped & clip_method]
   821660                                [Nglobal_steps]
   7                                     [N_chains]
  14                                     [NEX0s_base = N_base in EX0s-fits]
 0   0   1       18   2.0   1.471E+01    [Clip-Bug, RC-Crash & Burn-In warning-flags, n_censored_weights, wei_nsig_threshold & wei_limit]
    11     11.095     10.592      0.503  [idt_all, wdt_TotTime, wdt_UsrTime & wdt_SysTime (sec)]

## Synthesis Results - Best model ##

 4.42491E-01                             [chi2/Nl_eff]
     5.47473                             [adev (%)]

   104.74580                             [sum-of-x (%)]
 1.49096E-17                             [Flux_tot (units of input spectrum!)]
 7.76393E-13                             [Mini_tot (???)]
 3.99522E-13                             [Mcor_tot (???)]

  48.09                                  [v0_min  (km/s)]
 226.22                                  [vd_min  (km/s)]
-0.2336                                  [AV_min  (mag)]
 0.0000                                  [YAV_min (mag)]

# j     x_j(%)      Mini_j(%)     Mcor_j(%)     age_j(yr)     Z_j      (L/M)_j    YAV?  Mstars   component_j        a/Fe...       SSP_chi2r SSP_adev(%)   SSP_AV   SSP_x(%)
  1      0.0000     0.0000E+00    0.0000E+00    1.000000E+06  0.00400  1.094E-02    0   1.0000   age020_m42            0.0000     1.6424E+00    12.0908   3.5994    89.9527
  2      0.0000     0.0000E+00    0.0000E+00    3.160000E+06  0.00400  4.007E-02    0   0.9999   age045_m42            0.0000     1.4337E+00    10.8189   2.8868    95.4966
  3      0.0000     0.0000E+00    0.0000E+00    5.010000E+06  0.00400  2.539E-02    0   0.9488   age055_m42            0.0000     1.5310E+00    11.3757   3.2011    93.4385
  4      0.0000     0.0000E+00    0.0000E+00    6.610000E+06  0.00400  2.620E-02    0   0.9220   age061_m42            0.0000     1.4480E+00    10.8265   2.8137    95.7072
  5      0.0000     0.0000E+00    0.0000E+00    1.000000E+07  0.00400  1.322E-02    0   0.8862   age070_m42            0.0000     1.6630E+00    11.8635   2.5173    98.2217
  6      0.0000     0.0000E+00    0.0000E+00    1.445000E+07  0.00400  7.883E-03    0   0.8571   age078_m42            0.0000     1.7024E+00    12.1045   2.8434    95.8324
  7      0.0000     0.0000E+00    0.0000E+00    2.512000E+07  0.00400  5.251E-03    0   0.8174   age090_m42            0.0000     1.7123E+00    12.0383   2.3843    98.8362
  8      0.0000     0.0000E+00    0.0000E+00    4.000000E+07  0.00400  3.649E-03    0   0.7851   age104_m42            0.0000     1.6243E+00    11.6456   2.1582    99.6177
  9      0.0000     0.0000E+00    0.0000E+00    5.500000E+07  0.00400  3.098E-03    0   0.7629   age110_m42            0.0000     1.5062E+00    10.9869   2.3222    99.2581
 10      0.0000     0.0000E+00    0.0000E+00    1.015200E+08  0.00400  2.228E-03    0   0.7207   age116_m42            0.0000     1.4328E+00    10.5563   2.3488    99.2257
 11      0.0000     0.0000E+00    0.0000E+00    2.861200E+08  0.00400  1.093E-03    0   0.6648   age125_m42            0.0000     1.4510E+00    10.6231   1.7827   102.2413
 12      0.0000     0.0000E+00    0.0000E+00    5.088000E+08  0.00400  6.597E-04    0   0.6365   age130_m42            0.0000     1.2676E+00     9.8134   1.7777   102.9276
 13      7.2856     6.2650E-01    7.0590E-01    1.434000E+09  0.00400  2.132E-04    0   0.5798   age139_m42            0.0000     9.1160E-01     8.3503   0.7957   105.4807
 14      0.0000     0.0000E+00    0.0000E+00    4.250000E+09  0.00400  5.895E-05    0   0.5377   age158_m42            0.0000     6.6416E-01     7.2075   0.3492   101.9762
 15      0.0000     0.0000E+00    0.0000E+00    7.500000E+09  0.00400  3.510E-05    0   0.5212   age171_m42            0.0000     5.8353E-01     6.6984   0.1625   101.4465
 16      0.0000     0.0000E+00    0.0000E+00    1.300000E+10  0.00400  2.005E-05    0   0.5034   age193_m42            0.0000     5.3111E-01     6.3658  -0.0012   101.0545
 17      5.9891     7.2001E+00    6.9499E+00    1.800000E+10  0.00400  1.525E-05    0   0.4967   age213_m42            0.0000     5.4133E-01     6.4399  -0.0259   100.6429
 18      0.0000     0.0000E+00    0.0000E+00    1.000000E+06  0.00800  1.238E-02    0   1.0000   age020_m52            0.0000     1.6438E+00    12.0972   3.5971    90.0745
 19      0.0000     0.0000E+00    0.0000E+00    3.160000E+06  0.00800  3.074E-02    0   0.9966   age045_m52            0.0000     1.6251E+00    11.9630   3.5204    90.8608
 20      0.0000     0.0000E+00    0.0000E+00    5.010000E+06  0.00800  2.668E-02    0   0.9443   age055_m52            0.0000     1.5606E+00    11.5602   3.2801    92.7296
 21      0.0000     0.0000E+00    0.0000E+00    6.610000E+06  0.00800  2.136E-02    0   0.9177   age061_m52            0.0000     1.4669E+00    11.4443   2.0038    99.9547
 22      0.0000     0.0000E+00    0.0000E+00    1.000000E+07  0.00800  1.215E-02    0   0.8827   age070_m52            0.0000     1.7718E+00    12.3940   2.6932    98.1805
 23      0.0000     0.0000E+00    0.0000E+00    1.445000E+07  0.00800  8.717E-03    0   0.8552   age078_m52            0.0000     1.6739E+00    11.9752   2.8087    97.1407
 24      0.0000     0.0000E+00    0.0000E+00    2.512000E+07  0.00800  5.592E-03    0   0.8162   age090_m52            0.0000     1.7036E+00    11.9821   2.4501    99.9615
 25      0.0000     0.0000E+00    0.0000E+00    4.000000E+07  0.00800  3.896E-03    0   0.7841   age104_m52            0.0000     1.6122E+00    11.5170   2.3688   100.5230
 26      0.0000     0.0000E+00    0.0000E+00    1.015200E+08  0.00800  2.148E-03    0   0.7226   age116_m52            0.0000     1.4537E+00    10.7517   2.3149   100.0630
 27      0.0000     0.0000E+00    0.0000E+00    2.861200E+08  0.00800  9.925E-04    0   0.6683   age125_m52            0.0000     1.2639E+00     9.7953   1.8417   103.8704
 28      4.6309     2.7030E-01    3.2241E-01    9.047900E+08  0.00800  3.141E-04    0   0.6138   age135_m52            0.0000     8.6359E-01     7.9364   1.0442   108.3888
 29      0.0000     0.0000E+00    0.0000E+00    1.434000E+09  0.00800  1.719E-04    0   0.5853   age139_m52            0.0000     7.3581E-01     7.4281   0.4584   106.6844
 30      0.0000     0.0000E+00    0.0000E+00    2.500000E+09  0.00800  7.872E-05    0   0.5600   age150_m52            0.0000     5.5441E-01     6.4268   0.1863   104.1784
 31      0.0000     0.0000E+00    0.0000E+00    4.250000E+09  0.00800  4.336E-05    0   0.5426   age158_m52            0.0000     5.4926E-01     6.4072   0.1691   103.3035
 32      0.0047     2.7382E-03    2.8303E-03    6.250000E+09  0.00800  3.159E-05    0   0.5319   age166_m52            0.0000     4.7900E-01     5.8720  -0.0325   103.4741
 33      0.0000     0.0000E+00    0.0000E+00    1.300000E+10  0.00800  1.361E-05    0   0.5073   age193_m52            0.0000     4.4072E-01     5.4592  -0.5018   103.0821
 34     30.1341     5.5884E+01    5.4191E+01    1.800000E+10  0.00800  9.886E-06    0   0.4990   age213_m52            0.0000     4.5063E-01     5.4113  -0.6073   102.6599
 35      0.0000     0.0000E+00    0.0000E+00    1.000000E+06  0.02000  1.544E-02    0   1.0000   age020_m62            0.0000     1.6521E+00    12.1339   3.5921    90.3311
 36      0.0000     0.0000E+00    0.0000E+00    3.160000E+06  0.02000  3.762E-02    0   0.9858   age045_m62            0.0000     1.6503E+00    12.0700   3.5314    91.1453
 37      0.0000     0.0000E+00    0.0000E+00    5.010000E+06  0.02000  3.296E-02    0   0.9342   age055_m62            0.0000     1.4738E+00    11.0058   3.1639    94.4937
 38      0.0000     0.0000E+00    0.0000E+00    8.710000E+06  0.02000  1.154E-02    0   0.8861   age067_m62            0.0000     2.6596E+00    15.7760   2.1130   102.1275
 39      0.0000     0.0000E+00    0.0000E+00    1.445000E+07  0.02000  7.663E-03    0   0.8472   age078_m62            0.0000     1.9399E+00    13.1751   2.3304   100.8700
 40      0.0000     0.0000E+00    0.0000E+00    2.512000E+07  0.02000  4.532E-03    0   0.8099   age090_m62            0.0000     2.0118E+00    13.3135   2.3259   100.4705
 41      0.0000     0.0000E+00    0.0000E+00    5.500000E+07  0.02000  2.733E-03    0   0.7595   age110_m62            0.0000     1.5997E+00    11.5203   2.3488    99.9375
 42      0.0000     0.0000E+00    0.0000E+00    1.609000E+08  0.02000  1.369E-03    0   0.6985   age120_m62            0.0000     1.4115E+00    10.4432   2.2003   102.1892
 43      0.0000     0.0000E+00    0.0000E+00    2.861200E+08  0.02000  9.013E-04    0   0.6714   age125_m62            0.0000     1.2912E+00     9.8517   1.9527   104.9930
 44      0.0000     0.0000E+00    0.0000E+00    5.088000E+08  0.02000  5.028E-04    0   0.6449   age130_m62            0.0000     1.0209E+00     8.5946   1.5823   107.6477
 45      0.0000     0.0000E+00    0.0000E+00    9.047900E+08  0.02000  2.428E-04    0   0.6179   age135_m62            0.0000     7.3017E-01     7.2829   0.9903   107.5537
 46      0.0000     0.0000E+00    0.0000E+00    1.434000E+09  0.02000  1.263E-04    0   0.5908   age139_m62            0.0000     6.1268E-01     6.6931   0.5389   106.4609
 47      0.0000     0.0000E+00    0.0000E+00    2.500000E+09  0.02000  5.985E-05    0   0.5673   age150_m62            0.0000     5.1033E-01     6.0534   0.1695   105.4415
 48     30.8161     1.7272E+01    1.8353E+01    4.250000E+09  0.02000  3.271E-05    0   0.5468   age158_m62            0.0000     4.5370E-01     5.5150  -0.1364   104.8636
 49      7.5472     1.0174E+01    1.0216E+01    1.000000E+10  0.02000  1.360E-05    0   0.5167   age181_m62            0.0000     5.0308E-01     5.5625  -0.4826   104.6699
 50      0.0000     0.0000E+00    0.0000E+00    1.800000E+10  0.02000  7.124E-06    0   0.5013   age213_m62            0.0000     6.0704E-01     5.9331  -0.6881   103.9056
 51      0.0000     0.0000E+00    0.0000E+00    1.000000E+06  0.05000  2.592E-02    0   0.9998   age020_m72            0.0000     1.6863E+00    12.2982   3.5816    90.4185
 52      0.0000     0.0000E+00    0.0000E+00    3.160000E+06  0.05000  4.845E-02    0   0.9577   age045_m72            0.0000     1.5767E+00    11.6000   3.4199    92.1291
 53      0.0000     0.0000E+00    0.0000E+00    5.010000E+06  0.05000  3.072E-02    0   0.9147   age055_m72            0.0000     1.8107E+00    12.6778   2.9334    96.7018
 54      0.0000     0.0000E+00    0.0000E+00    6.610000E+06  0.05000  1.455E-02    0   0.8877   age061_m72            0.0000     3.5844E+00    18.1178   2.1788   103.1148
 55      0.0000     0.0000E+00    0.0000E+00    1.000000E+07  0.05000  9.074E-03    0   0.8524   age070_m72            0.0000     1.9304E+00    12.9519   3.1379    96.0631
 56      0.0000     0.0000E+00    0.0000E+00    2.512000E+07  0.05000  4.250E-03    0   0.7902   age090_m72            0.0000     1.8388E+00    12.3983   2.8293    97.8032
 57      0.0000     0.0000E+00    0.0000E+00    4.000000E+07  0.05000  3.087E-03    0   0.7618   age104_m72            0.0000     1.8799E+00    12.4214   2.5995    99.4530
 58      0.0000     0.0000E+00    0.0000E+00    1.015200E+08  0.05000  1.700E-03    0   0.7096   age116_m72            0.0000     1.5365E+00    10.9541   2.3428   101.7836
 59      0.0000     0.0000E+00    0.0000E+00    2.861200E+08  0.05000  7.384E-04    0   0.6633   age125_m72            0.0000     1.1572E+00     9.2340   1.8248   106.3460
 60      0.0000     0.0000E+00    0.0000E+00    5.088000E+08  0.05000  3.819E-04    0   0.6372   age130_m72            0.0000     8.4950E-01     7.8461   1.3296   108.3644
 61      0.0000     0.0000E+00    0.0000E+00    9.047900E+08  0.05000  1.676E-04    0   0.6110   age135_m72            0.0000     5.9345E-01     6.4431   0.6298   107.0564
 62      0.0000     0.0000E+00    0.0000E+00    1.434000E+09  0.05000  8.837E-05    0   0.5874   age139_m72            0.0000     5.0792E-01     5.9705   0.1704   106.9511
 63     17.5947     7.6205E+00    8.2900E+00    2.500000E+09  0.05000  4.233E-05    0   0.5598   age150_m72            0.0000     4.6828E-01     5.5745  -0.1353   105.7797
 64      0.7434     9.4978E-01    9.6881E-01    6.250000E+09  0.05000  1.435E-05    0   0.5249   age166_m72            0.0000     5.4164E-01     5.7246  -0.5777   104.2506
 65      0.0000     0.0000E+00    0.0000E+00    1.300000E+10  0.05000  6.513E-06    0   0.5036   age193_m72            0.0000     7.0418E-01     6.2846  -0.8514   105.2943
 66      0.0000     0.0000E+00    0.0000E+00    1.800000E+10  0.05000  4.527E-06    0   0.4945   age213_m72            0.0000     8.4849E-01     6.8204  -1.0000   104.7334


## Synthesis Results - Average & Chains ##

# j      x_j: min, <> & last-chain-values for 1 ...  7 chains
  1      0.0000      0.0175      0.0000      0.0000      0.0168      0.0000      0.0000      0.0000      0.0000
  2      0.0000      0.0380      0.0000      0.0000      0.0000      0.0000      0.0000      0.0029      0.0000
  3      0.0000      0.0125      0.0000      0.0000      0.0000      0.0000      0.0000      0.1656      0.0000
  4      0.0000      0.0192      0.0000      0.0000      0.0000      0.0000      0.0000      0.0000      0.0000
  5      0.0000      0.0114      0.0000      0.0000      0.0000      0.0000      0.0000      0.0000      0.0000
  6      0.0000      0.0288      0.0000      0.0000      0.0000      0.0000      0.0000      0.0000      0.0000
  7      0.0000      0.0400      0.0000      0.0000      0.0000      0.0000      0.0000      0.0000      0.0000
  8      0.0000      0.0240      0.0000      0.0000      0.0000      0.0000      0.0000      0.0000      0.0000
  9      0.0000      0.0500      0.0000      0.0000      0.0000      0.0000      0.0000      0.0000      0.0000
 10      0.0000      0.0326      0.0000      0.0000      0.0000      0.0000      0.0000      0.0000      0.0000
 11      0.0000      0.0633      0.0000      0.0000      0.0000      0.0000      0.0000      1.5004      0.0000
 12      0.0000      0.0914      0.5987      0.0000      0.0000      0.0000      0.0000      0.0000      0.0000
 13      7.2856      0.9211      1.9960      2.4603      0.0044      0.0000      7.2990      0.0000      0.0000
 14      0.0000      0.5228      1.3853      0.4345      0.0000      0.0000      0.0000      2.1570      0.0000
 15      0.0000      1.8953      0.0000      0.0000      0.0000      0.8102      1.5312      2.7599      0.0000
 16      0.0000      4.2586      0.0000      0.0000      7.0350      9.3623      0.0000      3.2385      2.2606
 17      5.9891      2.5163      1.9293      6.2708      3.3229      0.0000      2.2011      0.0000      6.0322
 18      0.0000      0.0103      0.0000      0.0000      0.0000      0.0000      0.0000      0.0000      0.0000
 19      0.0000      0.0044      0.0000      0.0000      0.0000      0.0000      0.0000      0.0000      0.0000
 20      0.0000      0.0528      0.0000      0.0164      0.0000      0.0000      0.0000      0.0000      0.0000
 21      0.0000      0.0305      0.0000      0.0000      0.0000      0.0000      0.0000      0.0000      0.0000
 22      0.0000      0.0299      0.0000      0.0000      0.0000      0.0000      0.0000      0.0000      0.0000
 23      0.0000      0.0112      0.0000      0.0000      0.0000      0.0000      0.0000      0.0000      0.0000
 24      0.0000      0.0357      0.0000      0.0000      0.0000      0.0000      0.0000      0.0000      0.0000
 25      0.0000      0.0432      0.0000      0.0000      0.0000      0.0000      0.0000      0.0000      0.0000
 26      0.0000      0.0367      0.0000      0.0000      0.0000      0.0000      0.0000      0.0000      0.0000
 27      0.0000      0.1842      0.0000      0.0000      0.0000      0.0000      0.0000      0.0000      0.0000
 28      4.6309      1.6931      1.3330      2.4673      0.9465      0.0000      0.6442      4.3364      2.7089
 29      0.0000      0.3696      0.0000      0.0000      0.0000      0.4677      0.0000      0.0000      2.4146
 30      0.0000      1.9761      0.1200      4.6210      0.9836      1.8340      1.1243      0.0189      2.2015
 31      0.0000      1.4345      0.7335      4.1581      0.9093      0.0000      0.0000      0.0078      0.0000
 32      0.0047      5.2400     20.8567      2.9388      2.8492      1.7160      4.0240      2.7784      9.7101
 33      0.0000      0.2883      0.0000      0.0000      0.0000      0.0000      0.0000      0.1383      0.0000
 34     30.1341      0.2753      1.6169      0.0000      0.0000      0.9249      2.1711      0.0000      0.0000
 35      0.0000      0.0170      0.0000      0.0000      0.0000      0.0000      0.0000      0.0000      0.0000
 36      0.0000      0.0162      0.0000      0.0000      0.0000      0.0000      0.0000      0.0000      0.0000
 37      0.0000      0.0216      0.0000      0.0137      0.0000      0.0000      0.0000      0.0000      0.0000
 38      0.0000      0.0192      0.0000      0.0000      0.0000      0.0000      0.0000      0.0000      0.0000
 39      0.0000      0.0414      0.0000      0.0000      0.0000      0.0000      0.0000      0.0000      0.0000
 40      0.0000      0.0267      0.0000      0.0000      0.0000      0.0000      0.0000      0.0000      0.0000
 41      0.0000      0.0200      0.0000      0.1211      0.0000      0.0000      0.0000      0.0000      0.0000
 42      0.0000      0.0365      0.0000      0.0000      0.0000      0.0000      0.0000      0.0000      0.1100
 43      0.0000      0.1686      0.0000      0.0000      0.0000      0.0000      0.0000      0.0000      0.0000
 44      0.0000      0.2112      0.0000      0.0000      0.0000      0.0000      0.0000      0.0000      0.0000
 45      0.0000      2.7844      3.9182      0.0000      5.4009      2.1173      6.3016      2.9523      1.1616
 46      0.0000      1.0919      0.0000      0.0000      0.0000      1.0853      0.4095      0.3878      0.9928
