###################################################################
## OUTPUT of StarlightChains_v04.for    [Cid@UFSC - 01/Apr/2007] ##
###################################################################

## Some input info
2009B.txt                                [arq_obs]
Base.CB07.vall.4m                        [arq_base]
Masks.EmLines.NEW.gm                     [arq_masks]
StCv04.C11.config                        [arq_config]
   66                                    [N_base]
    0                                    [N_YAV_components = # of components with extra extinction!]
    0                                    [i_FitPowerLaw (1/0 = Yes/No)]
-9.99                                    [alpha_PowerLaw]
CCM                                      [red_law_option]
 1.458241                                [q_norm = A(l_norm)/A(V)]

## (Re)Sampling Parameters
 3741.00                                 [l_ini (A)]
 7218.00                                 [l_fin (A)]
    1.00                                 [dl    (A)]     (OBS: dl_cushion =    50.00 A)

## Normalization info
 4020.00                                 [l_norm (A) - for base]
 4010.00                                 [llow_norm (A) - window for f_obs]
 4060.00                                 [lupp_norm (A) - window for f_obs]
1.859012E-16                             [fobs_norm (in input units)]

## S/N
 3691.00                                 [llow_SN (A) - window for S/N]
 7268.00                                 [lupp_SN (A) - window for S/N]
   4.101                                 [S/N in S/N window]
   6.542                                 [S/N in norm. window]
   8.577                                 [S/N_err in S/N window]
  13.684                                 [S/N_err in norm. window]
  1.0000                                 [fscale_chi2]

## etc...
    -2007352                             [idum_orig]
  2383                                   [NOl_eff]
  2375                                   [Nl_eff]
     8    NSIGMA                         [Ntot_cliped & clip_method]
   655410                                [Nglobal_steps]
   7                                     [N_chains]
  12                                     [NEX0s_base = N_base in EX0s-fits]
 0   0   1       23   2.0   2.486E+01    [Clip-Bug, RC-Crash & Burn-In warning-flags, n_censored_weights, wei_nsig_threshold & wei_limit]
    11     10.908     10.402      0.506  [idt_all, wdt_TotTime, wdt_UsrTime & wdt_SysTime (sec)]

## Synthesis Results - Best model ##

 4.85635E-01                             [chi2/Nl_eff]
     6.01731                             [adev (%)]

    93.14871                             [sum-of-x (%)]
 2.78247E-16                             [Flux_tot (units of input spectrum!)]
 1.93472E-13                             [Mini_tot (???)]
 1.27117E-13                             [Mcor_tot (???)]

  -5.83                                  [v0_min  (km/s)]
 132.81                                  [vd_min  (km/s)]
 0.3531                                  [AV_min  (mag)]
 0.0000                                  [YAV_min (mag)]

# j     x_j(%)      Mini_j(%)     Mcor_j(%)     age_j(yr)     Z_j      (L/M)_j    YAV?  Mstars   component_j        a/Fe...       SSP_chi2r SSP_adev(%)   SSP_AV   SSP_x(%)
  1      0.0000     0.0000E+00    0.0000E+00    1.000000E+06  0.00400  1.094E-02    0   1.0000   age020_m42            0.0000     7.5926E-01     6.8237   2.1080    78.9210
  2      4.7544     1.8319E-01    2.7879E-01    3.160000E+06  0.00400  4.007E-02    0   0.9999   age045_m42            0.0000     5.3826E-01     6.2927   1.3214    86.8858
  3      0.0000     0.0000E+00    0.0000E+00    5.010000E+06  0.00400  2.539E-02    0   0.9488   age055_m42            0.0000     5.9170E-01     6.3785   1.6639    83.8334
  4      1.3487     7.9477E-02    1.1153E-01    6.610000E+06  0.00400  2.620E-02    0   0.9220   age061_m42            0.0000     5.3413E-01     6.2359   1.2424    87.3199
  5      0.0000     0.0000E+00    0.0000E+00    1.000000E+07  0.00400  1.322E-02    0   0.8862   age070_m42            0.0000     5.4915E-01     6.3248   0.9796    88.3603
  6      0.0000     0.0000E+00    0.0000E+00    1.445000E+07  0.00400  7.883E-03    0   0.8571   age078_m42            0.0000     5.8703E-01     6.4229   1.3192    85.6044
  7      0.0000     0.0000E+00    0.0000E+00    2.512000E+07  0.00400  5.251E-03    0   0.8174   age090_m42            0.0000     5.5536E-01     6.4056   0.8480    88.9127
  8      0.0000     0.0000E+00    0.0000E+00    4.000000E+07  0.00400  3.649E-03    0   0.7851   age104_m42            0.0000     5.3094E-01     6.2940   0.6092    90.1515
  9      0.0000     0.0000E+00    0.0000E+00    5.500000E+07  0.00400  3.098E-03    0   0.7629   age110_m42            0.0000     5.3062E-01     6.2251   0.7458    90.9252
 10      2.6217     1.8168E+00    1.9929E+00    1.015200E+08  0.00400  2.228E-03    0   0.7207   age116_m42            0.0000     5.6630E-01     6.3209   0.7528    91.6823
 11      0.0000     0.0000E+00    0.0000E+00    2.861200E+08  0.00400  1.093E-03    0   0.6648   age125_m42            0.0000     6.4359E-01     6.7376   0.1772    94.7616
 12      0.0000     0.0000E+00    0.0000E+00    5.088000E+08  0.00400  6.597E-04    0   0.6365   age130_m42            0.0000     7.0730E-01     6.8260   0.1515    96.2645
 13      0.0000     0.0000E+00    0.0000E+00    1.434000E+09  0.00400  2.132E-04    0   0.5798   age139_m42            0.0000     6.9056E-01     6.8536  -0.8335    98.7176
 14      0.0000     0.0000E+00    0.0000E+00    4.250000E+09  0.00400  5.895E-05    0   0.5377   age158_m42            0.0000     9.9042E-01     7.7109  -1.0000    85.3128
 15      0.0000     0.0000E+00    0.0000E+00    7.500000E+09  0.00400  3.510E-05    0   0.5212   age171_m42            0.0000     1.5393E+00     9.3561  -1.0000    78.4621
 16      0.0000     0.0000E+00    0.0000E+00    1.300000E+10  0.00400  2.005E-05    0   0.5034   age193_m42            0.0000     2.1809E+00    11.2276  -1.0000    72.7137
 17      0.0000     0.0000E+00    0.0000E+00    1.800000E+10  0.00400  1.525E-05    0   0.4967   age213_m42            0.0000     2.2482E+00    11.4726  -1.0000    71.6366
 18      0.0000     0.0000E+00    0.0000E+00    1.000000E+06  0.00800  1.238E-02    0   1.0000   age020_m52            0.0000     7.5774E-01     6.8164   2.1043    79.0779
 19      0.0000     0.0000E+00    0.0000E+00    3.160000E+06  0.00800  3.074E-02    0   0.9966   age045_m52            0.0000     7.1081E-01     6.6917   2.0185    80.1286
 20      0.0000     0.0000E+00    0.0000E+00    5.010000E+06  0.00800  2.668E-02    0   0.9443   age055_m52            0.0000     6.0824E-01     6.3823   1.7531    82.8034
 21     52.5336     3.7973E+00    5.3038E+00    6.610000E+06  0.00800  2.136E-02    0   0.9177   age061_m52            0.0000     5.4425E-01     6.1644   0.4906    88.8647
 22      0.0000     0.0000E+00    0.0000E+00    1.000000E+07  0.00800  1.215E-02    0   0.8827   age070_m52            0.0000     6.0381E-01     6.6037   1.1707    87.6283
 23      0.0000     0.0000E+00    0.0000E+00    1.445000E+07  0.00800  8.717E-03    0   0.8552   age078_m52            0.0000     5.6890E-01     6.3561   1.2788    87.0029
 24      0.0000     0.0000E+00    0.0000E+00    2.512000E+07  0.00800  5.592E-03    0   0.8162   age090_m52            0.0000     5.6262E-01     6.4669   0.9070    90.1425
 25      0.0000     0.0000E+00    0.0000E+00    4.000000E+07  0.00800  3.896E-03    0   0.7841   age104_m52            0.0000     5.4662E-01     6.3964   0.8057    91.4893
 26      0.0000     0.0000E+00    0.0000E+00    1.015200E+08  0.00800  2.148E-03    0   0.7226   age116_m52            0.0000     5.4459E-01     6.2934   0.7249    92.2120
 27      0.0000     0.0000E+00    0.0000E+00    2.861200E+08  0.00800  9.925E-04    0   0.6683   age125_m52            0.0000     7.0041E-01     6.7639   0.2129    97.3139
 28      0.0000     0.0000E+00    0.0000E+00    9.047900E+08  0.00800  3.141E-04    0   0.6138   age135_m52            0.0000     8.4360E-01     7.5205  -0.6118   102.6255
 29      0.0000     0.0000E+00    0.0000E+00    1.434000E+09  0.00800  1.719E-04    0   0.5853   age139_m52            0.0000     9.1059E-01     7.6914  -1.0000    93.3049
 30      0.0000     0.0000E+00    0.0000E+00    2.500000E+09  0.00800  7.872E-05    0   0.5600   age150_m52            0.0000     1.5780E+00     9.4505  -1.0000    81.4550
 31      0.0000     0.0000E+00    0.0000E+00    4.250000E+09  0.00800  4.336E-05    0   0.5426   age158_m52            0.0000     1.6383E+00     9.5482  -1.0000    80.1530
 32      0.0000     0.0000E+00    0.0000E+00    6.250000E+09  0.00800  3.159E-05    0   0.5319   age166_m52            0.0000     2.4970E+00    11.7866  -1.0000    73.4796
 33      0.0000     0.0000E+00    0.0000E+00    1.300000E+10  0.00800  1.361E-05    0   0.5073   age193_m52            0.0000     4.9243E+00    17.6289  -1.0000    58.8200
 34      0.0000     0.0000E+00    0.0000E+00    1.800000E+10  0.00800  9.886E-06    0   0.4990   age213_m52            0.0000     5.6697E+00    18.8668  -1.0000    55.6073
 35      0.0000     0.0000E+00    0.0000E+00    1.000000E+06  0.02000  1.544E-02    0   1.0000   age020_m62            0.0000     7.5951E-01     6.8276   2.1006    79.2471
 36      0.0000     0.0000E+00    0.0000E+00    3.160000E+06  0.02000  3.762E-02    0   0.9858   age045_m62            0.0000     7.2993E-01     6.7504   2.0340    80.1666
 37      3.0216     1.4154E-01    2.0125E-01    5.010000E+06  0.02000  3.296E-02    0   0.9342   age055_m62            0.0000     5.5578E-01     6.2658   1.6074    85.5394
 38      0.0000     0.0000E+00    0.0000E+00    8.710000E+06  0.02000  1.154E-02    0   0.8861   age067_m62            0.0000     1.0896E+00     9.1722   0.6699    87.7841
 39      0.0000     0.0000E+00    0.0000E+00    1.445000E+07  0.02000  7.663E-03    0   0.8472   age078_m62            0.0000     7.0579E-01     7.2217   0.8285    89.1034
 40      0.0000     0.0000E+00    0.0000E+00    2.512000E+07  0.02000  4.532E-03    0   0.8099   age090_m62            0.0000     7.2568E-01     7.3887   0.8149    89.1095
 41      0.0000     0.0000E+00    0.0000E+00    5.500000E+07  0.02000  2.733E-03    0   0.7595   age110_m62            0.0000     5.5382E-01     6.3752   0.7915    90.6731
 42      0.0000     0.0000E+00    0.0000E+00    1.609000E+08  0.02000  1.369E-03    0   0.6985   age120_m62            0.0000     6.3168E-01     6.5116   0.5919    94.9464
 43      0.0000     0.0000E+00    0.0000E+00    2.861200E+08  0.02000  9.013E-04    0   0.6714   age125_m62            0.0000     7.6457E-01     6.8238   0.3184    98.7422
 44      0.1431     4.3942E-01    4.3130E-01    5.088000E+08  0.02000  5.028E-04    0   0.6449   age130_m62            0.0000     8.8851E-01     7.4426  -0.0840   102.5874
 45      0.0000     0.0000E+00    0.0000E+00    9.047900E+08  0.02000  2.428E-04    0   0.6179   age135_m62            0.0000     8.4969E-01     7.6355  -0.6699   101.9932
 46      0.0000     0.0000E+00    0.0000E+00    1.434000E+09  0.02000  1.263E-04    0   0.5908   age139_m62            0.0000     9.3310E-01     7.7320  -1.0000    96.1796
 47      0.0000     0.0000E+00    0.0000E+00    2.500000E+09  0.02000  5.985E-05    0   0.5673   age150_m62            0.0000     1.7927E+00     9.8556  -1.0000    81.8585
 48      0.0000     0.0000E+00    0.0000E+00    4.250000E+09  0.02000  3.271E-05    0   0.5468   age158_m62            0.0000     3.1570E+00    13.1603  -1.0000    71.0468
 49      0.0000     0.0000E+00    0.0000E+00    1.000000E+10  0.02000  1.360E-05    0   0.5167   age181_m62            0.0000     5.1832E+00    17.3272  -1.0000    60.2272
 50      0.0000     0.0000E+00    0.0000E+00    1.800000E+10  0.02000  7.124E-06    0   0.5013   age213_m62            0.0000     6.5553E+00    19.7544  -1.0000    54.0351
 51      0.0000     0.0000E+00    0.0000E+00    1.000000E+06  0.05000  2.592E-02    0   0.9998   age020_m72            0.0000     7.8483E-01     6.8965   2.0961    79.1019
 52      0.0000     0.0000E+00    0.0000E+00    3.160000E+06  0.05000  4.845E-02    0   0.9577   age045_m72            0.0000     6.4192E-01     6.5232   1.8942    82.1342
 53      0.0000     0.0000E+00    0.0000E+00    5.010000E+06  0.05000  3.072E-02    0   0.9147   age055_m72            0.0000     7.2253E-01     7.0778   1.4233    85.4829
 54      0.0000     0.0000E+00    0.0000E+00    6.610000E+06  0.05000  1.455E-02    0   0.8877   age061_m72            0.0000     1.6943E+00    11.5185   0.7368    87.8366
 55      0.0000     0.0000E+00    0.0000E+00    1.000000E+07  0.05000  9.074E-03    0   0.8524   age070_m72            0.0000     8.5869E-01     7.6766   1.6114    85.2320
 56      0.0000     0.0000E+00    0.0000E+00    2.512000E+07  0.05000  4.250E-03    0   0.7902   age090_m72            0.0000     7.0739E-01     7.1934   1.2788    88.0639
 57      0.0000     0.0000E+00    0.0000E+00    4.000000E+07  0.05000  3.087E-03    0   0.7618   age104_m72            0.0000     7.2064E-01     7.3153   1.0383    90.0230
 58      0.0000     0.0000E+00    0.0000E+00    1.015200E+08  0.05000  1.700E-03    0   0.7096   age116_m72            0.0000     6.3486E-01     6.6478   0.7422    94.1812
 59     11.5737     2.4200E+01    2.4431E+01    2.861200E+08  0.05000  7.384E-04    0   0.6633   age125_m72            0.0000     8.3744E-01     7.1708   0.1683   100.9526
 60     17.1519     6.9342E+01    6.7249E+01    5.088000E+08  0.05000  3.819E-04    0   0.6372   age130_m72            0.0000     8.5059E-01     7.5470  -0.3392   103.3158
 61      0.0000     0.0000E+00    0.0000E+00    9.047900E+08  0.05000  1.676E-04    0   0.6110   age135_m72            0.0000     1.0163E+00     8.2683  -1.0000   100.1928
 62      0.0000     0.0000E+00    0.0000E+00    1.434000E+09  0.05000  8.837E-05    0   0.5874   age139_m72            0.0000     1.9041E+00    10.1288  -1.0000    83.0453
 63      0.0000     0.0000E+00    0.0000E+00    2.500000E+09  0.05000  4.233E-05    0   0.5598   age150_m72            0.0000     3.2832E+00    13.3227  -1.0000    71.6541
 64      0.0000     0.0000E+00    0.0000E+00    6.250000E+09  0.05000  1.435E-05    0   0.5249   age166_m72            0.0000     5.7646E+00    18.5136  -1.0000    57.2485
 65      0.0000     0.0000E+00    0.0000E+00    1.300000E+10  0.05000  6.513E-06    0   0.5036   age193_m72            0.0000     7.6142E+00    21.6783  -1.0000    50.4239
 66      0.0000     0.0000E+00    0.0000E+00    1.800000E+10  0.05000  4.527E-06    0   0.4945   age213_m72            0.0000     8.6917E+00    23.4187  -1.0000    46.4580


## Synthesis Results - Average & Chains ##

# j      x_j: min, <> & last-chain-values for 1 ...  7 chains
  1      0.0000      0.2756      0.0000      0.5567      2.3899      0.0000      0.0000      0.0000      0.0000
  2      4.7544      1.4835      1.3581      0.0000      1.4516      2.2604      4.0641      6.9931      0.0000
  3      0.0000      0.7285      0.4981      0.0000      0.0000      2.8723      0.0000      0.3042      2.4366
  4      1.3487      2.2902      4.4733      0.0000      0.9747      2.7509      8.0836      6.2212      3.2774
  5      0.0000      0.8041      0.0000      0.1105      0.0000      0.1615      0.0000      3.2688      0.0000
  6      0.0000      0.9078      0.0000      3.7860      0.2737      2.6362      2.1648      0.0000      0.0000
  7      0.0000      0.6710      0.0000      0.2052      3.7370      0.0000      0.0000      0.0000      0.0000
  8      0.0000      2.3463      2.2236      0.0579      1.5119      0.0000      1.5560      1.2667      0.0000
  9      0.0000      2.1434      0.0000      4.0655      6.0633      0.0000      0.0000      0.7152      0.0000
 10      2.6217      2.4265      0.0000      8.5565      1.9074      3.2714      4.9036      0.0000      0.0000
 11      0.0000      0.2222      0.0000      0.0000      0.0000      0.0000      0.0000      0.0000      0.0000
 12      0.0000      0.3958      0.0000      0.0000      0.0000      0.0000      0.0000      0.0000      0.0000
 13      0.0000      0.0355      0.0000      0.0000      0.0000      0.0000      0.4393      0.0000      0.0000
 14      0.0000      0.0452      0.0000      0.3674      0.0000      0.0000      0.0000      0.0000      0.0000
 15      0.0000      0.0064      0.0000      0.0000      0.0000      0.0000      0.0000      0.0000      0.0000
 16      0.0000      0.0096      0.0311      0.0000      0.0000      0.0000      0.0000      0.0000      0.0000
 17      0.0000      0.0082      0.0000      0.0000      0.0000      0.0000      0.0000      0.0000      0.0000
 18      0.0000      0.2935      0.0000      0.0000      0.0000      0.0000      0.0000      0.0000      0.0000
 19      0.0000      0.4407      0.0000      0.0000      0.0000      0.0000      1.4860      0.0000      1.5039
 20      0.0000      0.3144      0.0000      0.1484      0.0000      0.0000      0.7170      3.4998      0.0000
 21     52.5336     40.0381     46.1146     46.2432     42.3320     40.9432     42.7155     32.4042     45.0581
 22      0.0000      0.4937      0.0000      0.0000      0.9572      0.0000      0.6523      0.0000      0.0000
 23      0.0000      0.4910      0.0000      0.0000      0.0647      0.0000      0.3868      2.5545      2.7312
 24      0.0000      0.3436      1.8985      0.0000      0.0000      0.0000      0.0000      0.0000      0.0000
 25      0.0000      0.6917      0.1989      0.2157      0.0000      0.0000      0.0000      2.3563      0.0000
 26      0.0000      1.9477      0.0000      0.0000      0.0000      4.4481      0.0000      0.0000      3.1381
 27      0.0000      0.8314      0.0000      0.0000      0.0000      0.0000      0.0000      0.0000      0.0000
 28      0.0000      0.0397      0.0000      0.0000      0.0000      0.0000      0.0000      0.0000      0.0000
 29      0.0000      0.0161      0.0000      0.0000      0.0000      0.0000      0.0000      0.0000      0.0000
 30      0.0000      0.0194      0.0000      0.0000      0.0000      0.0000      0.0000      0.0000      0.0000
 31      0.0000      0.0269      0.0000      0.0000      0.0000      0.0000      0.0000      0.0000      0.0000
 32      0.0000      0.0114      0.0000      0.0000      0.0000      0.0000      0.0000      0.0000      0.2625
 33      0.0000      0.0014      0.0000      0.0000      0.0000      0.0000      0.0000      0.0000      0.0000
 34      0.0000      0.0019      0.0000      0.0000      0.0000      0.0000      0.0000      0.0000      0.0000
 35      0.0000      0.4790      0.0000      0.0000      0.0368      0.0000      0.0000      0.0000      0.0000
 36      0.0000      0.5629      0.0000      0.0000      0.0000      0.0000      0.0000      0.0000      3.1580
 37      3.0216      0.9949      5.1705      0.1526      1.1516      3.4358      0.0630      0.0000      0.8756
 38      0.0000      0.0890      0.0000      0.0000      0.0000      0.0000      0.0000      0.0000      0.0000
 39      0.0000      0.2016      0.0000      0.0000      0.0000      0.1007      0.0000      0.0000      0.0000
 40      0.0000      0.2150      0.0000      0.0000      0.0000      0.0000      0.0000      0.0000      0.0000
 41      0.0000      1.4447      0.0000      0.0000      0.0000      0.0000      0.0000      0.0000      0.0000
 42      0.0000      1.4612      5.0550      1.6356      0.0000      0.0000      0.0000      0.0000      0.0000
 43      0.0000      4.1740      4.6217      0.2798      5.6339      0.0000      3.4719      0.0000      8.9031
 44      0.1431      6.3991      7.9700      7.9887      9.1686     12.2954      7.9684     11.0641      6.4734
 45      0.0000      0.1078      0.0000      0.0000      0.0000      0.0000      0.0000      2.6533      0.0000
 46      0.0000      0.0497      0.4286      0.0000      0.0000      0.0000      0.0000      0.0000      0.0000
