###################################################################
## OUTPUT of StarlightChains_v04.for    [Cid@UFSC - 01/Apr/2007] ##
###################################################################

## Some input info
2009iz.txt                               [arq_obs]
Base.CB07.vall.4m                        [arq_base]
Masks.EmLines.NEW.gm                     [arq_masks]
StCv04.C11.config                        [arq_config]
   66                                    [N_base]
    0                                    [N_YAV_components = # of components with extra extinction!]
    0                                    [i_FitPowerLaw (1/0 = Yes/No)]
-9.99                                    [alpha_PowerLaw]
CCM                                      [red_law_option]
 1.458241                                [q_norm = A(l_norm)/A(V)]

## (Re)Sampling Parameters
 3741.00                                 [l_ini (A)]
 7218.00                                 [l_fin (A)]
    1.00                                 [dl    (A)]     (OBS: dl_cushion =    50.00 A)

## Normalization info
 4020.00                                 [l_norm (A) - for base]
 4010.00                                 [llow_norm (A) - window for f_obs]
 4060.00                                 [lupp_norm (A) - window for f_obs]
5.219817E-17                             [fobs_norm (in input units)]

## S/N
 3691.00                                 [llow_SN (A) - window for S/N]
 7268.00                                 [lupp_SN (A) - window for S/N]
   1.819                                 [S/N in S/N window]
   3.334                                 [S/N in norm. window]
  10.000                                 [S/N_err in S/N window]
  18.328                                 [S/N_err in norm. window]
  1.0000                                 [fscale_chi2]

## etc...
    -2007362                             [idum_orig]
  2374                                   [NOl_eff]
  1858                                   [Nl_eff]
   516    NSIGMA                         [Ntot_cliped & clip_method]
   734720                                [Nglobal_steps]
   7                                     [N_chains]
  14                                     [NEX0s_base = N_base in EX0s-fits]
 0   0   1       66   2.0   4.254E+01    [Clip-Bug, RC-Crash & Burn-In warning-flags, n_censored_weights, wei_nsig_threshold & wei_limit]
    11     10.989     10.488      0.501  [idt_all, wdt_TotTime, wdt_UsrTime & wdt_SysTime (sec)]

## Synthesis Results - Best model ##

 2.13583E+00                             [chi2/Nl_eff]
    12.19937                             [adev (%)]

    83.47114                             [sum-of-x (%)]
 4.67584E-17                             [Flux_tot (units of input spectrum!)]
 2.93531E-14                             [Mini_tot (???)]
 2.02508E-14                             [Mcor_tot (???)]

-277.47                                  [v0_min  (km/s)]
 221.71                                  [vd_min  (km/s)]
 0.0526                                  [AV_min  (mag)]
 0.0000                                  [YAV_min (mag)]

# j     x_j(%)      Mini_j(%)     Mcor_j(%)     age_j(yr)     Z_j      (L/M)_j    YAV?  Mstars   component_j        a/Fe...       SSP_chi2r SSP_adev(%)   SSP_AV   SSP_x(%)
  1      0.0000     0.0000E+00    0.0000E+00    1.000000E+06  0.00400  1.094E-02    0   1.0000   age020_m42            0.0000     2.5062E+00    12.9706   1.5055    73.0599
  2      0.0000     0.0000E+00    0.0000E+00    3.160000E+06  0.00400  4.007E-02    0   0.9999   age045_m42            0.0000     2.3305E+00    12.6101   0.7825    78.0185
  3      0.0000     0.0000E+00    0.0000E+00    5.010000E+06  0.00400  2.539E-02    0   0.9488   age055_m42            0.0000     2.3795E+00    12.7142   1.0993    76.2077
  4      0.0000     0.0000E+00    0.0000E+00    6.610000E+06  0.00400  2.620E-02    0   0.9220   age061_m42            0.0000     2.2935E+00    12.5338   0.7060    78.3137
  5      0.0000     0.0000E+00    0.0000E+00    1.000000E+07  0.00400  1.322E-02    0   0.8862   age070_m42            0.0000     2.2400E+00    12.4365   0.4107    80.5101
  6      0.0000     0.0000E+00    0.0000E+00    1.445000E+07  0.00400  7.883E-03    0   0.8571   age078_m42            0.0000     2.2690E+00    12.4955   0.7373    78.4971
  7      0.0000     0.0000E+00    0.0000E+00    2.512000E+07  0.00400  5.251E-03    0   0.8174   age090_m42            0.0000     2.2372E+00    12.4349   0.2777    81.0758
  8      0.0000     0.0000E+00    0.0000E+00    4.000000E+07  0.00400  3.649E-03    0   0.7851   age104_m42            0.0000     2.2280E+00    12.4149   0.0515    81.6932
  9      0.0000     0.0000E+00    0.0000E+00    5.500000E+07  0.00400  3.098E-03    0   0.7629   age110_m42            0.0000     2.2170E+00    12.3943   0.2105    81.5085
 10      0.0000     0.0000E+00    0.0000E+00    1.015200E+08  0.00400  2.228E-03    0   0.7207   age116_m42            0.0000     2.2213E+00    12.4004   0.2353    81.4940
 11     32.8791     5.7408E+01    5.5319E+01    2.861200E+08  0.00400  1.093E-03    0   0.6648   age125_m42            0.0000     2.1528E+00    12.2283  -0.3289    83.8538
 12      0.0000     0.0000E+00    0.0000E+00    5.088000E+08  0.00400  6.597E-04    0   0.6365   age130_m42            0.0000     2.1926E+00    12.3133  -0.3315    84.2378
 13      0.0000     0.0000E+00    0.0000E+00    1.434000E+09  0.00400  2.132E-04    0   0.5798   age139_m42            0.0000     2.5967E+00    13.3821  -1.0000    75.6053
 14      0.0000     0.0000E+00    0.0000E+00    4.250000E+09  0.00400  5.895E-05    0   0.5377   age158_m42            0.0000     3.9164E+00    15.9788  -1.0000    59.6608
 15      0.0000     0.0000E+00    0.0000E+00    7.500000E+09  0.00400  3.510E-05    0   0.5212   age171_m42            0.0000     4.6924E+00    17.2896  -1.0000    54.2886
 16      0.0000     0.0000E+00    0.0000E+00    1.300000E+10  0.00400  2.005E-05    0   0.5034   age193_m42            0.0000     5.4472E+00    18.4329  -1.0000    49.9154
 17      0.0000     0.0000E+00    0.0000E+00    1.800000E+10  0.00400  1.525E-05    0   0.4967   age213_m42            0.0000     5.5617E+00    18.6289  -1.0000    49.1343
 18      0.0000     0.0000E+00    0.0000E+00    1.000000E+06  0.00800  1.238E-02    0   1.0000   age020_m52            0.0000     2.5078E+00    12.9743   1.5018    73.2009
 19      0.0000     0.0000E+00    0.0000E+00    3.160000E+06  0.00800  3.074E-02    0   0.9966   age045_m52            0.0000     2.4990E+00    12.9699   1.4242    73.8725
 20      0.0000     0.0000E+00    0.0000E+00    5.010000E+06  0.00800  2.668E-02    0   0.9443   age055_m52            0.0000     2.4014E+00    12.7665   1.1803    75.5718
 21      0.0000     0.0000E+00    0.0000E+00    6.610000E+06  0.00800  2.136E-02    0   0.9177   age061_m52            0.0000     2.3017E+00    12.5369  -0.0848    81.1705
 22      0.0000     0.0000E+00    0.0000E+00    1.000000E+07  0.00800  1.215E-02    0   0.8827   age070_m52            0.0000     2.2410E+00    12.4388   0.5863    80.5085
 23      0.0000     0.0000E+00    0.0000E+00    1.445000E+07  0.00800  8.717E-03    0   0.8552   age078_m52            0.0000     2.2593E+00    12.4764   0.7024    79.5924
 24      0.0000     0.0000E+00    0.0000E+00    2.512000E+07  0.00800  5.592E-03    0   0.8162   age090_m52            0.0000     2.2226E+00    12.4118   0.3393    82.1437
 25      0.0000     0.0000E+00    0.0000E+00    4.000000E+07  0.00800  3.896E-03    0   0.7841   age104_m52            0.0000     2.1981E+00    12.3529   0.2555    82.6515
 26      0.0000     0.0000E+00    0.0000E+00    1.015200E+08  0.00800  2.148E-03    0   0.7226   age116_m52            0.0000     2.2032E+00    12.3518   0.2027    82.1651
 27      0.1022     1.9643E-01    1.9028E-01    2.861200E+08  0.00800  9.925E-04    0   0.6683   age125_m52            0.0000     2.2039E+00    12.3558  -0.2717    85.1775
 28      0.0000     0.0000E+00    0.0000E+00    9.047900E+08  0.00800  3.141E-04    0   0.6138   age135_m52            0.0000     2.3429E+00    12.6411  -1.0000    86.1205
 29      0.0000     0.0000E+00    0.0000E+00    1.434000E+09  0.00800  1.719E-04    0   0.5853   age139_m52            0.0000     3.5143E+00    15.1934  -1.0000    65.6237
 30      0.0000     0.0000E+00    0.0000E+00    2.500000E+09  0.00800  7.872E-05    0   0.5600   age150_m52            0.0000     4.6070E+00    17.1210  -1.0000    56.3567
 31      0.0000     0.0000E+00    0.0000E+00    4.250000E+09  0.00800  4.336E-05    0   0.5426   age158_m52            0.0000     4.6833E+00    17.2160  -1.0000    55.4277
 32      0.0000     0.0000E+00    0.0000E+00    6.250000E+09  0.00800  3.159E-05    0   0.5319   age166_m52            0.0000     5.6268E+00    18.6435  -1.0000    50.3379
 33      0.0000     0.0000E+00    0.0000E+00    1.300000E+10  0.00800  1.361E-05    0   0.5073   age193_m52            0.0000     8.1137E+00    22.0655  -1.0000    39.6596
 34      0.0000     0.0000E+00    0.0000E+00    1.800000E+10  0.00800  9.886E-06    0   0.4990   age213_m52            0.0000     8.6854E+00    22.6971  -1.0000    37.4244
 35      0.0000     0.0000E+00    0.0000E+00    1.000000E+06  0.02000  1.544E-02    0   1.0000   age020_m62            0.0000     2.5128E+00    12.9868   1.4987    73.3450
 36      0.0000     0.0000E+00    0.0000E+00    3.160000E+06  0.02000  3.762E-02    0   0.9858   age045_m62            0.0000     2.5020E+00    12.9693   1.4355    74.0639
 37      0.0000     0.0000E+00    0.0000E+00    5.010000E+06  0.02000  3.296E-02    0   0.9342   age055_m62            0.0000     2.3565E+00    12.6676   1.0592    77.1569
 38      0.0000     0.0000E+00    0.0000E+00    8.710000E+06  0.02000  1.154E-02    0   0.8861   age067_m62            0.0000     2.4862E+00    12.9528   0.0119    83.8091
 39      0.0000     0.0000E+00    0.0000E+00    1.445000E+07  0.02000  7.663E-03    0   0.8472   age078_m62            0.0000     2.2485E+00    12.4445   0.2255    82.6849
 40      0.0000     0.0000E+00    0.0000E+00    2.512000E+07  0.02000  4.532E-03    0   0.8099   age090_m62            0.0000     2.2421E+00    12.4441   0.2163    82.5462
 41      0.0000     0.0000E+00    0.0000E+00    5.500000E+07  0.02000  2.733E-03    0   0.7595   age110_m62            0.0000     2.2078E+00    12.3673   0.2397    81.9890
 42      0.0000     0.0000E+00    0.0000E+00    1.609000E+08  0.02000  1.369E-03    0   0.6985   age120_m62            0.0000     2.1980E+00    12.3454   0.0864    83.9358
 43      0.0056     1.1870E-02    1.1552E-02    2.861200E+08  0.02000  9.013E-04    0   0.6714   age125_m62            0.0000     2.2413E+00    12.4532  -0.1622    86.2353
 44      0.0000     0.0000E+00    0.0000E+00    5.088000E+08  0.02000  5.028E-04    0   0.6449   age130_m62            0.0000     2.3439E+00    12.6380  -0.5248    87.9068
 45      0.0000     0.0000E+00    0.0000E+00    9.047900E+08  0.02000  2.428E-04    0   0.6179   age135_m62            0.0000     2.4684E+00    12.9185  -1.0000    83.4364
 46      0.0000     0.0000E+00    0.0000E+00    1.434000E+09  0.02000  1.263E-04    0   0.5908   age139_m62            0.0000     3.3624E+00    14.8870  -1.0000    67.8638
 47      0.0000     0.0000E+00    0.0000E+00    2.500000E+09  0.02000  5.985E-05    0   0.5673   age150_m62            0.0000     4.7445E+00    17.2801  -1.0000    56.5534
 48      0.0000     0.0000E+00    0.0000E+00    4.250000E+09  0.02000  3.271E-05    0   0.5468   age158_m62            0.0000     6.1975E+00    19.4302  -1.0000    48.4668
 49      0.0000     0.0000E+00    0.0000E+00    1.000000E+10  0.02000  1.360E-05    0   0.5167   age181_m62            0.0000     8.0292E+00    21.7898  -1.0000    40.6763
 50      0.0000     0.0000E+00    0.0000E+00    1.800000E+10  0.02000  7.124E-06    0   0.5013   age213_m62            0.0000     9.1594E+00    23.1087  -1.0000    36.3561
 51      0.0000     0.0000E+00    0.0000E+00    1.000000E+06  0.05000  2.592E-02    0   0.9998   age020_m72            0.0000     2.5341E+00    13.0327   1.4894    73.3748
 52      0.0000     0.0000E+00    0.0000E+00    3.160000E+06  0.05000  4.845E-02    0   0.9577   age045_m72            0.0000     2.4536E+00    12.8775   1.3192    75.0301
 53      0.0000     0.0000E+00    0.0000E+00    5.010000E+06  0.05000  3.072E-02    0   0.9147   age055_m72            0.0000     2.2339E+00    12.3863   0.8266    79.0966
 54      2.2885     3.0017E-01    3.8623E-01    6.610000E+06  0.05000  1.455E-02    0   0.8877   age061_m72            0.0000     2.6662E+00    13.2389   0.0620    84.9858
 55      1.4375     3.0232E-01    3.7353E-01    1.000000E+07  0.05000  9.074E-03    0   0.8524   age070_m72            0.0000     2.2211E+00    12.3215   1.0177    78.8474
 56      0.0000     0.0000E+00    0.0000E+00    2.512000E+07  0.05000  4.250E-03    0   0.7902   age090_m72            0.0000     2.1637E+00    12.2462   0.7088    80.4861
 57     40.2102     2.4858E+01    2.7449E+01    4.000000E+07  0.05000  3.087E-03    0   0.7618   age104_m72            0.0000     2.1502E+00    12.2298   0.4782    81.9334
 58      0.0000     0.0000E+00    0.0000E+00    1.015200E+08  0.05000  1.700E-03    0   0.7096   age116_m72            0.0000     2.1697E+00    12.2859   0.2245    83.8035
 59      6.5480     1.6923E+01    1.6271E+01    2.861200E+08  0.05000  7.384E-04    0   0.6633   age125_m72            0.0000     2.2876E+00    12.5362  -0.2886    87.1861
 60      0.0000     0.0000E+00    0.0000E+00    5.088000E+08  0.05000  3.819E-04    0   0.6372   age130_m72            0.0000     2.4270E+00    12.7860  -0.7690    88.0153
 61      0.0000     0.0000E+00    0.0000E+00    9.047900E+08  0.05000  1.676E-04    0   0.6110   age135_m72            0.0000     3.2517E+00    14.6405  -1.0000    70.9703
 62      0.0000     0.0000E+00    0.0000E+00    1.434000E+09  0.05000  8.837E-05    0   0.5874   age139_m72            0.0000     4.8043E+00    17.3733  -1.0000    57.3534
 63      0.0000     0.0000E+00    0.0000E+00    2.500000E+09  0.05000  4.233E-05    0   0.5598   age150_m72            0.0000     6.2348E+00    19.4361  -1.0000    48.8798
 64      0.0000     0.0000E+00    0.0000E+00    6.250000E+09  0.05000  1.435E-05    0   0.5249   age166_m72            0.0000     8.5713E+00    22.4714  -1.0000    38.5890
 65      0.0000     0.0000E+00    0.0000E+00    1.300000E+10  0.05000  6.513E-06    0   0.5036   age193_m72            0.0000     1.0089E+01    24.2186  -1.0000    33.8515
 66      0.0000     0.0000E+00    0.0000E+00    1.800000E+10  0.05000  4.527E-06    0   0.4945   age213_m72            0.0000     1.0966E+01    25.2006  -1.0000    31.1405


## Synthesis Results - Average & Chains ##

# j      x_j: min, <> & last-chain-values for 1 ...  7 chains
  1      0.0000      0.0845      0.0000      0.0000      0.0000      0.0000      0.0000      0.0000      0.0000
  2      0.0000      0.2873      0.0000      0.0000      0.0000      0.0000      0.0000      0.0000      0.0000
  3      0.0000      0.2060      0.0000      2.2769      0.0000      0.4681      0.0000      0.0000      0.0000
  4      0.0000      0.6698      3.6740      0.4612      0.0000      0.0563      0.0000      4.9545      0.7931
  5      0.0000      0.4548      0.0000      0.0000      0.0000      0.0000      0.0000      0.0000      0.0000
  6      0.0000      0.3337      0.0000      0.0000      2.2635      0.0000      0.0000      0.0000      0.0000
  7      0.0000      0.4599      0.0000      0.0000      0.0000      0.0000      0.2790      0.0000      0.0000
  8      0.0000      0.6212      0.0000      0.0000      0.7712      0.0000      0.0000      0.0000      0.0000
  9      0.0000      1.7827      0.0000      0.0000      0.0401      1.9003      1.7979      0.0000      0.0000
 10      0.0000      3.8760      1.9352      0.0000      2.0211     13.9563      3.6851     10.7125      2.2642
 11     32.8791      3.6698      6.4807      5.0157      2.6466      4.4373      5.7461      7.9964      8.0544
 12      0.0000      2.6648      0.0000      5.9578      2.3625      4.9854      3.5341      3.7609      4.8553
 13      0.0000      0.0168      0.0000      0.0000      0.0000      0.0000      0.0000      0.0000      0.0000
 14      0.0000      0.0092      0.0000      0.0000      0.0000      0.0000      0.0000      0.0000      0.0000
 15      0.0000      0.0049      0.0000      0.0000      0.0000      0.0000      0.0000      0.0000      0.0000
 16      0.0000      0.0049      0.1498      0.0000      0.0000      0.0000      0.0000      0.0000      0.0000
 17      0.0000      0.0009      0.0000      0.0000      0.0000      0.0000      0.0000      0.0000      0.0000
 18      0.0000      0.0769      0.0000      0.0000      0.0000      0.7231      0.0000      0.9132      0.0000
 19      0.0000      0.1081      0.0000      0.0000      0.0000      0.0000      0.0000      0.0000      1.8032
 20      0.0000      0.1393      0.0000      0.0000      0.8458      0.0000      0.0000      0.0000      0.0000
 21      0.0000      0.1813      0.0000      0.0000      0.0000      0.0000      0.0000      0.0000      0.0000
 22      0.0000      0.2185      0.5960      0.0000      0.0000      0.0000      0.4443      0.0000      0.0000
 23      0.0000      0.4358      0.0343      0.0000      0.0000      0.0000      0.0000      0.0000      0.0000
 24      0.0000      0.4992      0.0000      0.0000      0.0000      0.0000      0.0000      0.0000      0.0000
 25      0.0000      1.3989      0.0000      0.0000      0.0000      0.0000      0.0000      0.0000      0.0000
 26      0.0000      2.1632      2.8023      2.8181      0.0000      0.0000      0.0000      0.0000      0.0000
 27      0.1022      5.8210     14.2715      4.6517      4.8805      7.1452      2.5795      8.0407     11.4282
 28      0.0000      0.0596      0.0000      0.0000      0.2239      0.0000      0.0000      0.0000      0.0000
 29      0.0000      0.0597      0.0000      0.0000      0.0000      0.0000      0.0000      0.0000      0.0000
 30      0.0000      0.0013      0.0000      0.0000      0.0000      0.0000      0.0000      0.1130      0.0000
 31      0.0000      0.0081      0.0000      0.0000      0.0000      0.0000      0.0000      0.0000      0.0000
 32      0.0000      0.0068      0.0000      0.0000      0.0000      0.0000      0.0000      0.0000      0.0000
 33      0.0000      0.0009      0.0000      0.0000      0.0000      0.0000      0.0000      0.0000      0.0000
 34      0.0000      0.0034      0.0000      0.0000      0.0000      0.0000      0.0000      0.0000      0.0000
 35      0.0000      0.0501      0.0000      0.0000      0.0000      0.0000      0.0000      0.0000      1.4505
 36      0.0000      0.0762      0.0000      0.0000      0.0000      0.0000      0.0000      0.0000      0.0000
 37      0.0000      0.3232      0.0000      0.8055      0.0000      0.0000      1.0965      1.4853      0.0000
 38      0.0000      0.1110      0.0000      0.0000      0.0000      0.1080      0.0000      0.0000      0.0000
 39      0.0000      0.4300      0.0000      0.0000      0.0000      0.0000      0.0462      0.0000      0.0000
 40      0.0000      0.4868      0.0000      0.0000      0.0000      0.0000      0.0000      0.0000      0.0000
 41      0.0000      0.5453      0.0000      0.0000      0.0000      1.2190      0.0000      0.0000      0.0000
 42      0.0000      9.5308      4.3740      3.0170     13.1988      6.2988     10.2403      6.4975      6.7916
 43      0.0056      5.0162      0.6566      8.6954     10.0119      4.1183      3.9641      7.1950     12.5118
 44      0.0000      0.6569      0.3485      0.0000      1.2333      1.1824      2.4063      0.0000      2.5589
 45      0.0000      0.0593      0.0000      0.0000      0.0000      0.0000      0.0000      0.0000      0.0000
 46      0.0000      0.0063      0.0000      0.0000      0.0000      0.0000      0.0000      0.0000      0.0000
