###################################################################
## OUTPUT of StarlightChains_v04.for    [Cid@UFSC - 01/Apr/2007] ##
###################################################################

## Some input info
2010ie.txt                               [arq_obs]
Base.CB07.vall.4m                        [arq_base]
Masks.EmLines.NEW.gm                     [arq_masks]
StCv04.C11.config                        [arq_config]
   66                                    [N_base]
    0                                    [N_YAV_components = # of components with extra extinction!]
    0                                    [i_FitPowerLaw (1/0 = Yes/No)]
-9.99                                    [alpha_PowerLaw]
CCM                                      [red_law_option]
 1.458241                                [q_norm = A(l_norm)/A(V)]

## (Re)Sampling Parameters
 3741.00                                 [l_ini (A)]
 7218.00                                 [l_fin (A)]
    1.00                                 [dl    (A)]     (OBS: dl_cushion =    50.00 A)

## Normalization info
 4020.00                                 [l_norm (A) - for base]
 4010.00                                 [llow_norm (A) - window for f_obs]
 4060.00                                 [lupp_norm (A) - window for f_obs]
1.876320E-17                             [fobs_norm (in input units)]

## S/N
 3691.00                                 [llow_SN (A) - window for S/N]
 7268.00                                 [lupp_SN (A) - window for S/N]
   2.014                                 [S/N in S/N window]
   1.932                                 [S/N in norm. window]
   1.356                                 [S/N_err in S/N window]
   1.301                                 [S/N_err in norm. window]
  1.0000                                 [fscale_chi2]

## etc...
    -2007367                             [idum_orig]
  2332                                   [NOl_eff]
  2311                                   [Nl_eff]
    21    NSIGMA                         [Ntot_cliped & clip_method]
   531160                                [Nglobal_steps]
   7                                     [N_chains]
  10                                     [NEX0s_base = N_base in EX0s-fits]
 0   0   1       72   2.0   7.487E+00    [Clip-Bug, RC-Crash & Burn-In warning-flags, n_censored_weights, wei_nsig_threshold & wei_limit]
    11     10.883     10.377      0.506  [idt_all, wdt_TotTime, wdt_UsrTime & wdt_SysTime (sec)]

## Synthesis Results - Best model ##

 3.82986E-01                             [chi2/Nl_eff]
    98.63095                             [adev (%)]

   130.00000                             [sum-of-x (%)]
 2.21089E-16                             [Flux_tot (units of input spectrum!)]
 1.05468E-14                             [Mini_tot (???)]
 1.02159E-14                             [Mcor_tot (???)]

 121.18                                  [v0_min  (km/s)]
  52.29                                  [vd_min  (km/s)]
 1.6412                                  [AV_min  (mag)]
 0.0000                                  [YAV_min (mag)]

# j     x_j(%)      Mini_j(%)     Mcor_j(%)     age_j(yr)     Z_j      (L/M)_j    YAV?  Mstars   component_j        a/Fe...       SSP_chi2r SSP_adev(%)   SSP_AV   SSP_x(%)
  1      0.0000     0.0000E+00    0.0000E+00    1.000000E+06  0.00400  1.094E-02    0   1.0000   age020_m42            0.0000     3.8599E-01    99.4062   2.1559   128.1099
  2      0.0000     0.0000E+00    0.0000E+00    3.160000E+06  0.00400  4.007E-02    0   0.9999   age045_m42            0.0000     3.8345E-01   102.6385   1.4301   137.1557
  3      0.0000     0.0000E+00    0.0000E+00    5.010000E+06  0.00400  2.539E-02    0   0.9488   age055_m42            0.0000     3.8484E-01   101.1935   1.7472   133.8694
  4      0.0000     0.0000E+00    0.0000E+00    6.610000E+06  0.00400  2.620E-02    0   0.9220   age061_m42            0.0000     3.8326E-01   103.2396   1.3443   138.2837
  5      0.0000     0.0000E+00    0.0000E+00    1.000000E+07  0.00400  1.322E-02    0   0.8862   age070_m42            0.0000     3.8192E-01   106.8578   0.9829   146.5995
  6      0.0000     0.0000E+00    0.0000E+00    1.445000E+07  0.00400  7.883E-03    0   0.8571   age078_m42            0.0000     3.8305E-01   105.3576   1.3169   142.4053
  7      0.0000     0.0000E+00    0.0000E+00    2.512000E+07  0.00400  5.251E-03    0   0.8174   age090_m42            0.0000     3.8150E-01   107.8603   0.8367   148.5742
  8      0.0000     0.0000E+00    0.0000E+00    4.000000E+07  0.00400  3.649E-03    0   0.7851   age104_m42            0.0000     3.8094E-01   108.1128   0.6171   149.3196
  9      0.0000     0.0000E+00    0.0000E+00    5.500000E+07  0.00400  3.098E-03    0   0.7629   age110_m42            0.0000     3.8188E-01   107.1252   0.8029   147.1147
 10      0.0000     0.0000E+00    0.0000E+00    1.015200E+08  0.00400  2.228E-03    0   0.7207   age116_m42            0.0000     3.8230E-01   106.4331   0.8463   145.7961
 11      0.0000     0.0000E+00    0.0000E+00    2.861200E+08  0.00400  1.093E-03    0   0.6648   age125_m42            0.0000     3.8563E-01   109.1754   0.2470   152.3528
 12      0.0000     0.0000E+00    0.0000E+00    5.088000E+08  0.00400  6.597E-04    0   0.6365   age130_m42            0.0000     3.8433E-01   107.8538   0.2777   150.7128
 13      0.0000     0.0000E+00    0.0000E+00    1.434000E+09  0.00400  2.132E-04    0   0.5798   age139_m42            0.0000     3.7889E-01   107.8846  -0.6757   152.4869
 14      0.0000     0.0000E+00    0.0000E+00    4.250000E+09  0.00400  5.895E-05    0   0.5377   age158_m42            0.0000     3.7886E-01   101.5222  -1.0000   138.8318
 15      0.0000     0.0000E+00    0.0000E+00    7.500000E+09  0.00400  3.510E-05    0   0.5212   age171_m42            0.0000     3.8405E-01    95.4373  -1.0000   126.1399
 16      0.0000     0.0000E+00    0.0000E+00    1.300000E+10  0.00400  2.005E-05    0   0.5034   age193_m42            0.0000     3.9286E-01    90.6773  -1.0000   115.8627
 17      0.0000     0.0000E+00    0.0000E+00    1.800000E+10  0.00400  1.525E-05    0   0.4967   age213_m42            0.0000     3.9403E-01    89.9258  -1.0000   114.0325
 18     27.1077     3.5308E+01    3.6452E+01    1.000000E+06  0.00800  1.238E-02    0   1.0000   age020_m52            0.0000     3.8589E-01    99.4526   2.1514   128.4048
 19     25.7266     1.3495E+01    1.3885E+01    3.160000E+06  0.00800  3.074E-02    0   0.9966   age045_m52            0.0000     3.8526E-01    99.3784   2.0783   129.3415
 20     38.0726     2.3011E+01    2.2433E+01    5.010000E+06  0.00800  2.668E-02    0   0.9443   age055_m52            0.0000     3.8364E-01   101.0525   1.8197   133.2937
 21     29.1052     2.1972E+01    2.0817E+01    6.610000E+06  0.00800  2.136E-02    0   0.9177   age061_m52            0.0000     3.7769E-01   106.7814   0.4852   148.1850
 22      0.0000     0.0000E+00    0.0000E+00    1.000000E+07  0.00800  1.215E-02    0   0.8827   age070_m52            0.0000     3.8247E-01   107.6495   1.1326   148.3262
 23      0.0000     0.0000E+00    0.0000E+00    1.445000E+07  0.00800  8.717E-03    0   0.8552   age078_m52            0.0000     3.8183E-01   106.0615   1.2743   144.9142
 24      0.0000     0.0000E+00    0.0000E+00    2.512000E+07  0.00800  5.592E-03    0   0.8162   age090_m52            0.0000     3.8125E-01   108.8365   0.8824   151.6351
 25      0.0000     0.0000E+00    0.0000E+00    4.000000E+07  0.00800  3.896E-03    0   0.7841   age104_m52            0.0000     3.8156E-01   108.8367   0.8093   151.8594
 26      0.0000     0.0000E+00    0.0000E+00    1.015200E+08  0.00800  2.148E-03    0   0.7226   age116_m52            0.0000     3.8094E-01   107.7944   0.7837   149.1187
 27      0.0000     0.0000E+00    0.0000E+00    2.861200E+08  0.00800  9.925E-04    0   0.6683   age125_m52            0.0000     3.8244E-01   108.9531   0.3182   153.9512
 28      0.0000     0.0000E+00    0.0000E+00    9.047900E+08  0.00800  3.141E-04    0   0.6138   age135_m52            0.0000     3.8146E-01   108.9289  -0.4427   157.7103
 29      0.0000     0.0000E+00    0.0000E+00    1.434000E+09  0.00800  1.719E-04    0   0.5853   age139_m52            0.0000     3.8182E-01   107.1338  -1.0000   152.8029
 30      0.0000     0.0000E+00    0.0000E+00    2.500000E+09  0.00800  7.872E-05    0   0.5600   age150_m52            0.0000     3.8456E-01    96.2672  -1.0000   130.9642
 31      0.0000     0.0000E+00    0.0000E+00    4.250000E+09  0.00800  4.336E-05    0   0.5426   age158_m52            0.0000     3.8517E-01    95.5678  -1.0000   128.8467
 32      0.0000     0.0000E+00    0.0000E+00    6.250000E+09  0.00800  3.159E-05    0   0.5319   age166_m52            0.0000     3.9497E-01    89.7842  -1.0000   116.9361
 33      0.0000     0.0000E+00    0.0000E+00    1.300000E+10  0.00800  1.361E-05    0   0.5073   age193_m52            0.0000     4.3141E-01    78.9056  -1.0000    92.1633
 34      0.0000     0.0000E+00    0.0000E+00    1.800000E+10  0.00800  9.886E-06    0   0.4990   age213_m52            0.0000     4.4104E-01    76.7997  -1.0000    87.0126
 35      0.0000     0.0000E+00    0.0000E+00    1.000000E+06  0.02000  1.544E-02    0   1.0000   age020_m62            0.0000     3.8602E-01    99.3593   2.1486   128.6133
 36      0.0000     0.0000E+00    0.0000E+00    3.160000E+06  0.02000  3.762E-02    0   0.9858   age045_m62            0.0000     3.8617E-01    99.1414   2.0910   129.5536
 37      0.0000     0.0000E+00    0.0000E+00    5.010000E+06  0.02000  3.296E-02    0   0.9342   age055_m62            0.0000     3.8421E-01   101.6339   1.7088   135.4630
 38      0.0000     0.0000E+00    0.0000E+00    8.710000E+06  0.02000  1.154E-02    0   0.8861   age067_m62            0.0000     3.9024E-01   114.1503   0.4429   162.9000
 39      0.0000     0.0000E+00    0.0000E+00    1.445000E+07  0.02000  7.663E-03    0   0.8472   age078_m62            0.0000     3.8448E-01   110.6818   0.7258   155.6590
 40      0.0000     0.0000E+00    0.0000E+00    2.512000E+07  0.02000  4.532E-03    0   0.8099   age090_m62            0.0000     3.8605E-01   111.2871   0.7074   156.0414
 41      0.0000     0.0000E+00    0.0000E+00    5.500000E+07  0.02000  2.733E-03    0   0.7595   age110_m62            0.0000     3.8133E-01   108.6337   0.7887   151.0189
 42      0.0000     0.0000E+00    0.0000E+00    1.609000E+08  0.02000  1.369E-03    0   0.6985   age120_m62            0.0000     3.8198E-01   108.3928   0.6682   152.2897
 43      0.0000     0.0000E+00    0.0000E+00    2.861200E+08  0.02000  9.013E-04    0   0.6714   age125_m62            0.0000     3.8144E-01   108.8473   0.4358   155.3530
 44      0.0000     0.0000E+00    0.0000E+00    5.088000E+08  0.02000  5.028E-04    0   0.6449   age130_m62            0.0000     3.8118E-01   108.0752   0.1073   156.0018
 45      0.0000     0.0000E+00    0.0000E+00    9.047900E+08  0.02000  2.428E-04    0   0.6179   age135_m62            0.0000     3.8010E-01   106.3451  -0.4571   153.6022
 46      0.0000     0.0000E+00    0.0000E+00    1.434000E+09  0.02000  1.263E-04    0   0.5908   age139_m62            0.0000     3.8040E-01   104.1196  -0.8785   149.6675
 47      0.0000     0.0000E+00    0.0000E+00    2.500000E+09  0.02000  5.985E-05    0   0.5673   age150_m62            0.0000     3.8566E-01    95.3313  -1.0000   131.6004
 48      0.0000     0.0000E+00    0.0000E+00    4.250000E+09  0.02000  3.271E-05    0   0.5468   age158_m62            0.0000     4.0066E-01    86.7177  -1.0000   112.6700
 49      0.0000     0.0000E+00    0.0000E+00    1.000000E+10  0.02000  1.360E-05    0   0.5167   age181_m62            0.0000     4.2819E-01    78.6338  -1.0000    94.6246
 50      0.0000     0.0000E+00    0.0000E+00    1.800000E+10  0.02000  7.124E-06    0   0.5013   age213_m62            0.0000     4.4890E-01    74.4151  -1.0000    84.6426
 51      9.9878     6.2135E+00    6.4135E+00    1.000000E+06  0.05000  2.592E-02    0   0.9998   age020_m72            0.0000     3.8585E-01    99.1047   2.1404   128.5917
 52      0.0000     0.0000E+00    0.0000E+00    3.160000E+06  0.05000  4.845E-02    0   0.9577   age045_m72            0.0000     3.8559E-01    99.8399   1.9733   131.4209
 53      0.0000     0.0000E+00    0.0000E+00    5.010000E+06  0.05000  3.072E-02    0   0.9147   age055_m72            0.0000     3.8771E-01   106.7919   1.3629   146.2027
 54      0.0000     0.0000E+00    0.0000E+00    6.610000E+06  0.05000  1.455E-02    0   0.8877   age061_m72            0.0000     4.2220E-01   118.9974   0.4192   170.4864
 55      0.0000     0.0000E+00    0.0000E+00    1.000000E+07  0.05000  9.074E-03    0   0.8524   age070_m72            0.0000     4.0046E-01   107.5234   1.5402   146.5405
 56      0.0000     0.0000E+00    0.0000E+00    2.512000E+07  0.05000  4.250E-03    0   0.7902   age090_m72            0.0000     3.9210E-01   109.1013   1.2277   150.0018
 57      0.0000     0.0000E+00    0.0000E+00    4.000000E+07  0.05000  3.087E-03    0   0.7618   age104_m72            0.0000     3.9238E-01   110.8126   0.9815   153.8073
 58      0.0000     0.0000E+00    0.0000E+00    1.015200E+08  0.05000  1.700E-03    0   0.7096   age116_m72            0.0000     3.8386E-01   109.5841   0.7805   153.7780
 59      0.0000     0.0000E+00    0.0000E+00    2.861200E+08  0.05000  7.384E-04    0   0.6633   age125_m72            0.0000     3.8070E-01   108.6386   0.3192   156.4426
 60      0.0000     0.0000E+00    0.0000E+00    5.088000E+08  0.05000  3.819E-04    0   0.6372   age130_m72            0.0000     3.7853E-01   106.9653  -0.1285   155.8132
 61      0.0000     0.0000E+00    0.0000E+00    9.047900E+08  0.05000  1.676E-04    0   0.6110   age135_m72            0.0000     3.8003E-01   102.9349  -0.7608   148.7820
 62      0.0000     0.0000E+00    0.0000E+00    1.434000E+09  0.05000  8.837E-05    0   0.5874   age139_m72            0.0000     3.8581E-01    95.7342  -1.0000   133.5170
 63      0.0000     0.0000E+00    0.0000E+00    2.500000E+09  0.05000  4.233E-05    0   0.5598   age150_m72            0.0000     4.0179E-01    86.2910  -1.0000   113.6595
 64      0.0000     0.0000E+00    0.0000E+00    6.250000E+09  0.05000  1.435E-05    0   0.5249   age166_m72            0.0000     4.3775E-01    76.4674  -1.0000    89.7782
 65      0.0000     0.0000E+00    0.0000E+00    1.300000E+10  0.05000  6.513E-06    0   0.5036   age193_m72            0.0000     4.6760E-01    71.3198  -1.0000    78.8774
 66      0.0000     0.0000E+00    0.0000E+00    1.800000E+10  0.05000  4.527E-06    0   0.4945   age213_m72            0.0000     4.8663E-01    68.7919  -1.0000    72.6175


## Synthesis Results - Average & Chains ##

# j      x_j: min, <> & last-chain-values for 1 ...  7 chains
  1      0.0000      0.5990      0.0000      0.0000      0.0630      0.0000      0.0000      0.0000      0.0000
  2      0.0000      2.4145      7.7096     25.9322      0.0988      5.7831      0.0000      0.0000      0.0000
  3      0.0000      0.6736      0.0000      0.0000      0.0000      0.3243      0.3370      0.0000      0.0000
  4      0.0000      2.1951      1.8618      8.4690      6.6423      5.6824      0.5099     17.7768      0.0000
  5      0.0000      3.7811      0.0000      6.8626      0.0000      0.0000     14.6574      0.0000      0.7443
  6      0.0000      2.0116      0.0528      0.0000      0.0000      0.0000      0.0000     18.7653      0.0000
  7      0.0000      5.5689      0.0000      9.3007      0.0000      0.0000      0.0000     21.9478      0.0000
  8      0.0000     11.3350      0.6477      0.0000      0.0000      9.6404     18.7139     19.5207      2.3440
  9      0.0000      5.5620      1.2622      0.0000     36.3250      1.5614      0.0000      0.0000      0.0000
 10      0.0000      7.1217      0.0000     29.7939      6.0669      5.7652      3.3374     16.5513      0.0000
 11      0.0000      3.3494      1.4221      0.0000      0.0000      0.0000      6.6257      0.4426      1.1226
 12      0.0000      3.9299     10.0751      0.6762      0.0000      0.9509      3.7443      0.7417      8.1836
 13      0.0000      0.3814      0.0000      0.0000      4.0347      0.0000      0.0000      0.0000      3.2763
 14      0.0000      0.0649      0.0000      0.0000      0.0000      0.0000      0.0000      0.0000      0.0000
 15      0.0000      0.0419      0.7864      0.0000      0.0000      0.0000      0.0000      0.0000      0.0000
 16      0.0000      0.0329      0.0000      0.0000      0.0000      0.0000      0.0000      0.0000      0.0000
 17      0.0000      0.0846      0.0000      0.0000      0.8230      0.0000      0.0000      0.0000      0.0000
 18     27.1077      0.7044      0.0000      0.0000      0.0000      0.0000     10.6717      0.0730      5.8105
 19     25.7266      0.5907      0.9459      0.0000      0.0000      6.9618      0.0000      4.2996     19.6953
 20     38.0726      0.5040      0.0000      0.0000      0.0000      0.0000      0.0355      0.0000      1.2499
 21     29.1052     14.4563     40.4467      1.6458     28.1360     40.7523     47.2645      8.9021     76.4894
 22      0.0000      1.9412      0.0000      0.0000      0.0000      0.0000      0.0000      5.9361      0.0000
 23      0.0000      1.2253      0.0000      0.0000      0.0000      0.0000      0.0000      0.0000      0.0000
 24      0.0000      4.2457      8.1627     14.1057      6.6965      0.0000      0.0000      3.8913      0.0000
 25      0.0000      4.6199      0.0000      5.5194     23.3161     13.0336      0.0000      0.0000      0.0000
 26      0.0000      4.7381     19.6468      9.6479      0.3975     10.6046      4.2166      0.0000      0.0000
 27      0.0000      5.0178      0.3096      5.3360      6.7065      0.8592      0.0000      0.0000      0.0000
 28      0.0000      0.2566      0.0000      0.0000      0.0000      0.0000      0.0000      0.0000      0.0000
 29      0.0000      0.1321      0.0000      0.0000      0.0000      0.0000      0.0000      0.0000      0.0000
 30      0.0000      0.0686      0.0000      0.0000      0.0000      0.0000      0.0000      0.0000      0.0000
 31      0.0000      0.0464      0.0000      0.0000      0.0000      0.0000      0.0000      0.0000      0.0000
 32      0.0000      0.0362      0.0000      0.0000      0.0000      0.0000      0.0000      0.0000      0.0000
 33      0.0000      0.0094      0.0000      0.0000      0.0000      0.0000      0.0000      0.0000      0.0000
 34      0.0000      0.0073      0.0000      0.0000      0.0000      0.0000      0.0000      0.0000      0.0000
 35      0.0000      0.5898      0.0000      0.0000      0.0000      0.0000      0.0000      2.0178      0.0000
 36      0.0000      0.5996      1.5783      7.0924      1.5586      0.0000      0.0000      0.0000      0.0000
 37      0.0000      0.6516      0.0000      0.0000      0.0000      2.9083      0.0000      0.0000      0.0000
 38      0.0000      1.2379      0.1300      0.0000      0.0000      0.0000      0.0000      0.1614      0.0000
 39      0.0000      3.2842      0.0000      0.0000      2.3209     12.4779      0.0000      0.4813      0.0000
 40      0.0000      2.0827      0.0000      0.0000      0.0000      0.0000      0.0000      0.0000      0.2185
 41      0.0000      3.5870      0.0000      0.0000      0.0000      0.0000      0.0000      0.0000      0.0000
 42      0.0000      4.9018      0.0000      0.0000      1.0399      0.0000      7.2296      0.0000      0.0000
 43      0.0000      7.4206      0.0000      0.0000      3.3424      4.5785      0.0000      0.7165      6.1664
 44      0.0000      3.1535      9.3844      2.5855      0.0000      0.0000      0.0000      0.5056      0.0000
 45      0.0000      0.5638      0.6166      0.0000      0.0000      0.0000      1.1681      0.0000      0.0000
 46      0.0000      0.1212      0.0000      0.0000      0.0000      0.0000      0.0000      0.0000      0.0000
