###################################################################
## OUTPUT of StarlightChains_v04.for    [Cid@UFSC - 01/Apr/2007] ##
###################################################################

## Some input info
2010fv.txt                               [arq_obs]
Base.CB07.vall.4m                        [arq_base]
Masks.EmLines.NEW.gm                     [arq_masks]
StCv04.C11.config                        [arq_config]
   66                                    [N_base]
    0                                    [N_YAV_components = # of components with extra extinction!]
    0                                    [i_FitPowerLaw (1/0 = Yes/No)]
-9.99                                    [alpha_PowerLaw]
CCM                                      [red_law_option]
 1.458241                                [q_norm = A(l_norm)/A(V)]

## (Re)Sampling Parameters
 3741.00                                 [l_ini (A)]
 7218.00                                 [l_fin (A)]
    1.00                                 [dl    (A)]     (OBS: dl_cushion =    50.00 A)

## Normalization info
 4020.00                                 [l_norm (A) - for base]
 4010.00                                 [llow_norm (A) - window for f_obs]
 4060.00                                 [lupp_norm (A) - window for f_obs]
1.946862E-17                             [fobs_norm (in input units)]

## S/N
 3691.00                                 [llow_SN (A) - window for S/N]
 7268.00                                 [lupp_SN (A) - window for S/N]
   7.482                                 [S/N in S/N window]
   7.015                                 [S/N in norm. window]
  15.885                                 [S/N_err in S/N window]
  14.893                                 [S/N_err in norm. window]
  1.0000                                 [fscale_chi2]

## etc...
    -2007366                             [idum_orig]
  2324                                   [NOl_eff]
  2324                                   [Nl_eff]
     0    NSIGMA                         [Ntot_cliped & clip_method]
  1695540                                [Nglobal_steps]
   7                                     [N_chains]
  30                                     [NEX0s_base = N_base in EX0s-fits]
 0   0   1        0   2.0   2.026E+01    [Clip-Bug, RC-Crash & Burn-In warning-flags, n_censored_weights, wei_nsig_threshold & wei_limit]
    16     15.532     15.024      0.508  [idt_all, wdt_TotTime, wdt_UsrTime & wdt_SysTime (sec)]

## Synthesis Results - Best model ##

 5.60705E-01                             [chi2/Nl_eff]
     3.89970                             [adev (%)]

   106.07271                             [sum-of-x (%)]
 4.91488E-17                             [Flux_tot (units of input spectrum!)]
 5.60193E-13                             [Mini_tot (???)]
 3.03593E-13                             [Mcor_tot (???)]

 209.87                                  [v0_min  (km/s)]
 150.27                                  [vd_min  (km/s)]
 0.6456                                  [AV_min  (mag)]
 0.0000                                  [YAV_min (mag)]

# j     x_j(%)      Mini_j(%)     Mcor_j(%)     age_j(yr)     Z_j      (L/M)_j    YAV?  Mstars   component_j        a/Fe...       SSP_chi2r SSP_adev(%)   SSP_AV   SSP_x(%)
  1      0.0000     0.0000E+00    0.0000E+00    1.000000E+06  0.00400  1.094E-02    0   1.0000   age020_m42            0.0000     1.4743E+00     6.6372   3.3089    90.0001
  2      0.0000     0.0000E+00    0.0000E+00    3.160000E+06  0.00400  4.007E-02    0   0.9999   age045_m42            0.0000     1.1284E+00     5.4414   2.5995    95.5531
  3      0.0000     0.0000E+00    0.0000E+00    5.010000E+06  0.00400  2.539E-02    0   0.9488   age055_m42            0.0000     1.2328E+00     5.8792   2.9106    93.5745
  4      0.1788     5.6444E-04    9.6026E-04    6.610000E+06  0.00400  2.620E-02    0   0.9220   age061_m42            0.0000     1.0755E+00     5.3020   2.5232    95.9142
  5      0.8727     5.4599E-03    8.9281E-03    1.000000E+07  0.00400  1.322E-02    0   0.8862   age070_m42            0.0000     1.0492E+00     5.6822   2.2195    99.0078
  6      2.4902     2.6128E-02    4.1322E-02    1.445000E+07  0.00400  7.883E-03    0   0.8571   age078_m42            0.0000     1.1326E+00     5.9223   2.5456    96.5158
  7      6.2738     9.8823E-02    1.4905E-01    2.512000E+07  0.00400  5.251E-03    0   0.8174   age090_m42            0.0000     1.0616E+00     5.7482   2.0865    99.7110
  8      2.9329     6.6481E-02    9.6309E-02    4.000000E+07  0.00400  3.649E-03    0   0.7851   age104_m42            0.0000     9.8605E-01     5.4690   1.8626   100.4054
  9      0.0000     0.0000E+00    0.0000E+00    5.500000E+07  0.00400  3.098E-03    0   0.7629   age110_m42            0.0000     9.5076E-01     5.1030   2.0289    99.8108
 10      0.0000     0.0000E+00    0.0000E+00    1.015200E+08  0.00400  2.228E-03    0   0.7207   age116_m42            0.0000     9.4774E-01     4.9828   2.0591    99.5538
 11      0.0000     0.0000E+00    0.0000E+00    2.861200E+08  0.00400  1.093E-03    0   0.6648   age125_m42            0.0000     9.7759E-01     5.1797   1.4908   102.6742
 12      0.0000     0.0000E+00    0.0000E+00    5.088000E+08  0.00400  6.597E-04    0   0.6365   age130_m42            0.0000     9.1703E-01     5.0480   1.4931   102.9630
 13      7.5364     2.9238E+00    3.1280E+00    1.434000E+09  0.00400  2.132E-04    0   0.5798   age139_m42            0.0000     6.6284E-01     4.2815   0.5279   104.8592
 14      0.0000     0.0000E+00    0.0000E+00    4.250000E+09  0.00400  5.895E-05    0   0.5377   age158_m42            0.0000     7.2215E-01     4.5044   0.0970   100.4353
 15      0.0000     0.0000E+00    0.0000E+00    7.500000E+09  0.00400  3.510E-05    0   0.5212   age171_m42            0.0000     8.2309E-01     4.8202  -0.0830    99.4931
 16      0.0000     0.0000E+00    0.0000E+00    1.300000E+10  0.00400  2.005E-05    0   0.5034   age193_m42            0.0000     9.5886E-01     5.1900  -0.2410    98.7310
 17      0.0000     0.0000E+00    0.0000E+00    1.800000E+10  0.00400  1.525E-05    0   0.4967   age213_m42            0.0000     9.4401E-01     5.1514  -0.2661    98.3764
 18      0.0000     0.0000E+00    0.0000E+00    1.000000E+06  0.00800  1.238E-02    0   1.0000   age020_m52            0.0000     1.4743E+00     6.6457   3.3052    90.1774
 19      0.0000     0.0000E+00    0.0000E+00    3.160000E+06  0.00800  3.074E-02    0   0.9966   age045_m52            0.0000     1.4401E+00     6.5381   3.2299    90.9377
 20      0.6084     1.8863E-03    3.2867E-03    5.010000E+06  0.00800  2.668E-02    0   0.9443   age055_m52            0.0000     1.2532E+00     6.0164   2.9896    92.8837
 21      0.0000     0.0000E+00    0.0000E+00    6.610000E+06  0.00800  2.136E-02    0   0.9177   age061_m52            0.0000     9.0133E-01     5.4388   1.7156   100.3609
 22      0.0000     0.0000E+00    0.0000E+00    1.000000E+07  0.00800  1.215E-02    0   0.8827   age070_m52            0.0000     1.1259E+00     6.0258   2.3925    99.1124
 23      0.0000     0.0000E+00    0.0000E+00    1.445000E+07  0.00800  8.717E-03    0   0.8552   age078_m52            0.0000     1.0817E+00     5.7914   2.5108    97.8735
 24      3.5923     5.3135E-02    8.0024E-02    2.512000E+07  0.00800  5.592E-03    0   0.8162   age090_m52            0.0000     1.0343E+00     5.6575   2.1523   100.8646
 25      2.0318     4.3134E-02    6.2408E-02    4.000000E+07  0.00800  3.896E-03    0   0.7841   age104_m52            0.0000     9.7370E-01     5.3435   2.0732   101.2649
 26      0.0000     0.0000E+00    0.0000E+00    1.015200E+08  0.00800  2.148E-03    0   0.7226   age116_m52            0.0000     9.0439E-01     4.9497   2.0235   100.5295
 27      0.0000     0.0000E+00    0.0000E+00    2.861200E+08  0.00800  9.925E-04    0   0.6683   age125_m52            0.0000     8.4753E-01     4.9111   1.5580   103.9348
 28      0.0000     0.0000E+00    0.0000E+00    9.047900E+08  0.00800  3.141E-04    0   0.6138   age135_m52            0.0000     7.5378E-01     4.7240   0.7833   107.2727
 29      0.0000     0.0000E+00    0.0000E+00    1.434000E+09  0.00800  1.719E-04    0   0.5853   age139_m52            0.0000     6.9574E-01     4.3968   0.2023   105.2838
 30      0.0000     0.0000E+00    0.0000E+00    2.500000E+09  0.00800  7.872E-05    0   0.5600   age150_m52            0.0000     8.1587E-01     4.7849  -0.0548   101.9549
 31      0.0000     0.0000E+00    0.0000E+00    4.250000E+09  0.00800  4.336E-05    0   0.5426   age158_m52            0.0000     8.6830E-01     4.9180  -0.0704   100.9921
 32      0.0000     0.0000E+00    0.0000E+00    6.250000E+09  0.00800  3.159E-05    0   0.5319   age166_m52            0.0000     1.0669E+00     5.4631  -0.2618   100.5844
 33      0.0000     0.0000E+00    0.0000E+00    1.300000E+10  0.00800  1.361E-05    0   0.5073   age193_m52            0.0000     1.4001E+00     6.2990  -0.7163    99.4438
 34      0.0000     0.0000E+00    0.0000E+00    1.800000E+10  0.00800  9.886E-06    0   0.4990   age213_m52            0.0000     1.7037E+00     6.9997  -0.8120    98.4815
 35      0.0000     0.0000E+00    0.0000E+00    1.000000E+06  0.02000  1.544E-02    0   1.0000   age020_m62            0.0000     1.4880E+00     6.6905   3.2993    90.4645
 36      0.0000     0.0000E+00    0.0000E+00    3.160000E+06  0.02000  3.762E-02    0   0.9858   age045_m62            0.0000     1.4790E+00     6.6506   3.2395    91.2558
 37      0.7327     1.8386E-03    3.1693E-03    5.010000E+06  0.02000  3.296E-02    0   0.9342   age055_m62            0.0000     1.1643E+00     5.5899   2.8744    94.5867
 38     10.6635     7.6431E-02    1.2497E-01    8.710000E+06  0.02000  1.154E-02    0   0.8861   age067_m62            0.0000     1.9986E+00     8.5480   1.8005   104.1556
 39      0.0000     0.0000E+00    0.0000E+00    1.445000E+07  0.02000  7.663E-03    0   0.8472   age078_m62            0.0000     1.2532E+00     6.5497   2.0281   102.0361
 40      0.3422     6.2457E-03    9.3337E-03    2.512000E+07  0.02000  4.532E-03    0   0.8099   age090_m62            0.0000     1.3214E+00     6.6561   2.0207   101.7702
 41      1.0889     3.2956E-02    4.6185E-02    5.500000E+07  0.02000  2.733E-03    0   0.7595   age110_m62            0.0000     9.5655E-01     5.3422   2.0532   100.6650
 42      0.0000     0.0000E+00    0.0000E+00    1.609000E+08  0.02000  1.369E-03    0   0.6985   age120_m62            0.0000     8.8775E-01     4.9998   1.9106   102.5694
 43      0.0000     0.0000E+00    0.0000E+00    2.861200E+08  0.02000  9.013E-04    0   0.6714   age125_m62            0.0000     8.8324E-01     5.1125   1.6690   105.1144
 44      1.0043     1.6521E-01    1.9659E-01    5.088000E+08  0.02000  5.028E-04    0   0.6449   age130_m62            0.0000     8.6661E-01     5.1147   1.3127   106.9566
 45      0.0000     0.0000E+00    0.0000E+00    9.047900E+08  0.02000  2.428E-04    0   0.6179   age135_m62            0.0000     7.2544E-01     4.6394   0.7368   105.9953
 46      0.0042     2.7406E-03    2.9877E-03    1.434000E+09  0.02000  1.263E-04    0   0.5908   age139_m62            0.0000     7.5308E-01     4.5733   0.2948   104.4073
 47      0.0000     0.0000E+00    0.0000E+00    2.500000E+09  0.02000  5.985E-05    0   0.5673   age150_m62            0.0000     9.9128E-01     5.2759  -0.0601   102.5662
 48      2.1687     5.4839E+00    5.5330E+00    4.250000E+09  0.02000  3.271E-05    0   0.5468   age158_m62            0.0000     1.3638E+00     6.2719  -0.3509   101.1532
 49      1.5646     9.5159E+00    9.0726E+00    1.000000E+10  0.02000  1.360E-05    0   0.5167   age181_m62            0.0000     1.9441E+00     7.5822  -0.6771    99.8925
 50      1.2004     1.3937E+01    1.2892E+01    1.800000E+10  0.02000  7.124E-06    0   0.5013   age213_m62            0.0000     2.4519E+00     8.6267  -0.8684    98.3891
 51      0.0000     0.0000E+00    0.0000E+00    1.000000E+06  0.05000  2.592E-02    0   0.9998   age020_m72            0.0000     1.5308E+00     6.8216   3.2897    90.5318
 52      0.0000     0.0000E+00    0.0000E+00    3.160000E+06  0.05000  4.845E-02    0   0.9577   age045_m72            0.0000     1.3710E+00     6.2444   3.1285    92.2326
 53      0.0000     0.0000E+00    0.0000E+00    5.010000E+06  0.05000  3.072E-02    0   0.9147   age055_m72            0.0000     1.2826E+00     6.4502   2.6333    97.3753
 54      0.0000     0.0000E+00    0.0000E+00    6.610000E+06  0.05000  1.455E-02    0   0.8877   age061_m72            0.0000     3.2886E+00    10.7991   1.8558   105.4361
 55      0.0000     0.0000E+00    0.0000E+00    1.000000E+07  0.05000  9.074E-03    0   0.8524   age070_m72            0.0000     1.5107E+00     6.8460   2.8352    96.6652
 56      0.0000     0.0000E+00    0.0000E+00    2.512000E+07  0.05000  4.250E-03    0   0.7902   age090_m72            0.0000     1.2964E+00     6.2368   2.5269    98.5765
 57      0.0000     0.0000E+00    0.0000E+00    4.000000E+07  0.05000  3.087E-03    0   0.7618   age104_m72            0.0000     1.3126E+00     6.2272   2.2980   100.2884
 58      1.1215     5.4566E-02    7.1446E-02    1.015200E+08  0.05000  1.700E-03    0   0.7096   age116_m72            0.0000     9.7178E-01     5.2095   2.0481   102.4164
 59      0.9917     1.1109E-01    1.3597E-01    2.861200E+08  0.05000  7.384E-04    0   0.6633   age125_m72            0.0000     8.5080E-01     5.0750   1.5490   106.0102
 60     19.4156     4.2051E+00    4.9442E+00    5.088000E+08  0.05000  3.819E-04    0   0.6372   age130_m72            0.0000     7.3587E-01     4.7226   1.0707   107.1249
 61     25.8047     1.2735E+01    1.4358E+01    9.047900E+08  0.05000  1.676E-04    0   0.6110   age135_m72            0.0000     9.1701E-01     5.1143   0.3935   104.5340
 62      4.2217     3.9514E+00    4.2828E+00    1.434000E+09  0.05000  8.837E-05    0   0.5874   age139_m72            0.0000     1.0515E+00     5.4173  -0.0559   103.8825
 63      5.1523     1.0067E+01    1.0399E+01    2.500000E+09  0.05000  4.233E-05    0   0.5598   age150_m72            0.0000     1.4995E+00     6.6010  -0.3452   101.7669
 64      2.2150     1.2767E+01    1.2366E+01    6.250000E+09  0.05000  1.435E-05    0   0.5249   age166_m72            0.0000     2.1065E+00     7.9272  -0.7678    99.2587
 65      1.8636     2.3666E+01    2.1992E+01    1.300000E+10  0.05000  6.513E-06    0   0.5036   age193_m72            0.0000     2.8173E+00     9.2868  -1.0000    98.3313
 66      0.0000     0.0000E+00    0.0000E+00    1.800000E+10  0.05000  4.527E-06    0   0.4945   age213_m72            0.0000     3.5150E+00    10.2687  -1.0000    91.9452


## Synthesis Results - Average & Chains ##

# j      x_j: min, <> & last-chain-values for 1 ...  7 chains
  1      0.0000      0.2164      0.1361      0.0000      2.5414      0.0000      0.4625      0.0000      0.0000
  2      0.0000      0.3518      0.0000      0.0000      0.3203      0.0000      0.0443      0.6273      0.0000
  3      0.0000      0.8707      1.0919      1.7730      0.4473      0.0000      0.3997      0.0000      1.0378
  4      0.1788      0.8331      0.0000      0.8215      1.3229      1.5848      0.6562      0.9130      0.6366
  5      0.8727      0.4259      1.1531      0.0000      0.0000      1.6348      2.8712      0.7246      1.3279
  6      2.4902      0.4635      0.0000      0.0000      2.6792      0.2562      0.0000      1.7054      0.5755
  7      6.2738      3.1584      5.1331      1.5432      3.2333      2.3655      3.7432      3.8131      3.0945
  8      2.9329      1.2315      2.5758      0.0000      1.3438      2.7620      0.0000      1.9156      0.0000
  9      0.0000      0.2921      0.6088      1.0100      0.9247      0.2657      0.0000      0.0000      1.8033
 10      0.0000      1.1528      3.8571      2.3883      2.3863      0.3260      2.0703      0.0000      0.5261
 11      0.0000      0.4138      0.8898      0.2915      0.0028      0.0000      0.0000      0.0000      0.0000
 12      0.0000      0.5245      0.5138      0.0000      0.0000      0.0000      0.0000      0.4511      0.0000
 13      7.5364      9.5049      3.8600     13.4420      9.5427     10.6322      9.2030      9.9729      8.7386
 14      0.0000      0.4671      0.0000      0.0000      0.1600      0.0000      0.1031      0.0000      0.4091
 15      0.0000      0.1907      0.0000      0.0000      0.0000      0.0000      0.0917      0.1749      0.3302
 16      0.0000      0.2463      0.0000      0.0000      1.2724      0.0000      0.0285      0.0731      0.0000
 17      0.0000      0.1104      0.0000      0.0054      0.0000      0.0000      0.2352      0.0000      0.0000
 18      0.0000      0.5353      0.1300      0.1727      0.2783      0.0000      0.4354      0.0000      0.0000
 19      0.0000      0.2844      0.0000      0.5025      0.0000      0.0000      0.0000      0.0000      0.0000
 20      0.6084      1.8923      2.3829      0.4343      2.0617      2.8228      1.3671      2.6866      1.1124
 21      0.0000      0.4667      0.0187      0.4458      0.0000      0.6478      0.0000      0.0000      0.0000
 22      0.0000      0.5217      0.0000      0.0000      0.0000      1.3984      1.0597      0.0000      0.0000
 23      0.0000      0.3498      0.0000      0.0000      0.0000      1.4358      1.3358      0.0000      0.0705
 24      3.5923      0.9811      0.3444      0.7863      1.9352      0.9764      1.1955      2.8599      0.2362
 25      2.0318      0.5864      0.0000      0.0000      0.2679      0.2117      1.3368      0.5165      1.2955
 26      0.0000      0.5726      0.1729      1.3996      0.0000      0.8969      0.2435      0.0000      0.0000
 27      0.0000      0.9684      0.6160      0.8352      0.0000      0.0000      0.0000      1.3566      1.5229
 28      0.0000      1.1169      0.0000      0.0000      0.1045      0.0000      0.0000      0.4957      0.0000
 29      0.0000      0.4438      2.0170      0.0000      1.2745      0.0000      0.0000      0.0000      0.0000
 30      0.0000      1.0339      0.7537      0.0000      0.0000      2.6892      0.0000      1.4235      0.8845
 31      0.0000      0.3278      0.0000      0.0000      0.0000      0.0000      0.0000      0.0000      0.0000
 32      0.0000      0.1777      0.0000      0.0767      0.0000      0.0000      0.0000      0.0055      0.0000
 33      0.0000      0.2553      0.6685      0.2827      0.0000      0.0000      0.0000      0.0000      0.0000
 34      0.0000      0.1071      0.0000      0.0000      0.0000      0.0036      0.5785      0.0000      0.0000
 35      0.0000      0.1342      0.0000      1.0741      0.0000      0.0000      1.0742      0.2445      0.0000
 36      0.0000      0.8096      1.0631      0.0000      0.0000      0.6617      0.0000      0.0000      1.1833
 37      0.7327      0.2374      0.0000      0.0000      0.0000      0.6101      0.2041      0.9971      0.0000
 38     10.6635      5.7064      6.8899      6.8503      6.1495      5.8605      7.6191      6.9989      9.0155
 39      0.0000      0.4686      0.0000      0.0000      0.0000      0.0000      0.2625      0.2961      0.1460
 40      0.3422      1.0000      1.5213      1.6624      0.4109      0.0000      0.8778      1.7129      1.8219
 41      1.0889      0.7109      0.6893      0.0000      0.0000      1.2628      1.4716      0.6341      0.3389
 42      0.0000      0.7056      0.0000      1.4292      2.3186      0.0000      0.5634      0.0000      0.5959
 43      0.0000      1.1779      1.5859      0.0000      1.3017      1.0203      1.6340      0.0000      1.8721
 44      1.0043      0.7767      0.0000      0.0000      0.7224      1.1091      2.1008      1.2801      0.8262
 45      0.0000      1.5576      0.6305      0.0000      0.0000      0.4519      0.0000      0.0000      0.0000
 46      0.0042      3.2232      0.0000      0.9965      2.8959      1.3849      3.4053      2.6084      3.7555
