###################################################################
## OUTPUT of StarlightChains_v04.for    [Cid@UFSC - 01/Apr/2007] ##
###################################################################

## Some input info
2010dr.txt                               [arq_obs]
Base.CB07.vall.4m                        [arq_base]
Masks.EmLines.NEW.gm                     [arq_masks]
StCv04.C11.config                        [arq_config]
   66                                    [N_base]
    0                                    [N_YAV_components = # of components with extra extinction!]
    0                                    [i_FitPowerLaw (1/0 = Yes/No)]
-9.99                                    [alpha_PowerLaw]
CCM                                      [red_law_option]
 1.458241                                [q_norm = A(l_norm)/A(V)]

## (Re)Sampling Parameters
 3741.00                                 [l_ini (A)]
 7218.00                                 [l_fin (A)]
    1.00                                 [dl    (A)]     (OBS: dl_cushion =    50.00 A)

## Normalization info
 4020.00                                 [l_norm (A) - for base]
 4010.00                                 [llow_norm (A) - window for f_obs]
 4060.00                                 [lupp_norm (A) - window for f_obs]
2.589330E-17                             [fobs_norm (in input units)]

## S/N
 3691.00                                 [llow_SN (A) - window for S/N]
 7268.00                                 [lupp_SN (A) - window for S/N]
   2.850                                 [S/N in S/N window]
   3.620                                 [S/N in norm. window]
  10.000                                 [S/N_err in S/N window]
  12.700                                 [S/N_err in norm. window]
  1.0000                                 [fscale_chi2]

## etc...
    -2007365                             [idum_orig]
  2377                                   [NOl_eff]
  1988                                   [Nl_eff]
   389    NSIGMA                         [Ntot_cliped & clip_method]
   280770                                [Nglobal_steps]
   7                                     [N_chains]
   7                                     [NEX0s_base = N_base in EX0s-fits]
 0   0   1       14   2.0   4.132E+01    [Clip-Bug, RC-Crash & Burn-In warning-flags, n_censored_weights, wei_nsig_threshold & wei_limit]
     9      9.350      8.842      0.508  [idt_all, wdt_TotTime, wdt_UsrTime & wdt_SysTime (sec)]

## Synthesis Results - Best model ##

 1.78524E+00                             [chi2/Nl_eff]
    10.93234                             [adev (%)]

    98.13496                             [sum-of-x (%)]
 1.22420E-17                             [Flux_tot (units of input spectrum!)]
 7.30431E-14                             [Mini_tot (???)]
 4.46293E-14                             [Mcor_tot (???)]

 114.67                                  [v0_min  (km/s)]
 232.73                                  [vd_min  (km/s)]
-0.5437                                  [AV_min  (mag)]
 0.0000                                  [YAV_min (mag)]

# j     x_j(%)      Mini_j(%)     Mcor_j(%)     age_j(yr)     Z_j      (L/M)_j    YAV?  Mstars   component_j        a/Fe...       SSP_chi2r SSP_adev(%)   SSP_AV   SSP_x(%)
  1      0.0000     0.0000E+00    0.0000E+00    1.000000E+06  0.00400  1.094E-02    0   1.0000   age020_m42            0.0000     2.4849E+00    12.3465   2.4642    80.7546
  2      0.0000     0.0000E+00    0.0000E+00    3.160000E+06  0.00400  4.007E-02    0   0.9999   age045_m42            0.0000     2.2998E+00    12.0996   1.7229    86.9595
  3      0.0000     0.0000E+00    0.0000E+00    5.010000E+06  0.00400  2.539E-02    0   0.9488   age055_m42            0.0000     2.3757E+00    12.2241   2.0495    84.5339
  4      0.0000     0.0000E+00    0.0000E+00    6.610000E+06  0.00400  2.620E-02    0   0.9220   age061_m42            0.0000     2.3137E+00    12.1522   1.6453    87.2654
  5      0.0000     0.0000E+00    0.0000E+00    1.000000E+07  0.00400  1.322E-02    0   0.8862   age070_m42            0.0000     2.5736E+00    12.7595   1.3488    89.3781
  6      0.0000     0.0000E+00    0.0000E+00    1.445000E+07  0.00400  7.883E-03    0   0.8571   age078_m42            0.0000     2.5850E+00    12.7572   1.6836    86.8216
  7      0.0000     0.0000E+00    0.0000E+00    2.512000E+07  0.00400  5.251E-03    0   0.8174   age090_m42            0.0000     2.6281E+00    12.8965   1.2181    89.8589
  8      0.0000     0.0000E+00    0.0000E+00    4.000000E+07  0.00400  3.649E-03    0   0.7851   age104_m42            0.0000     2.5685E+00    12.7824   0.9897    90.7031
  9      0.0000     0.0000E+00    0.0000E+00    5.500000E+07  0.00400  3.098E-03    0   0.7629   age110_m42            0.0000     2.4243E+00    12.4627   1.1456    90.7611
 10      0.0000     0.0000E+00    0.0000E+00    1.015200E+08  0.00400  2.228E-03    0   0.7207   age116_m42            0.0000     2.3372E+00    12.2605   1.1661    91.0316
 11      0.0000     0.0000E+00    0.0000E+00    2.861200E+08  0.00400  1.093E-03    0   0.6648   age125_m42            0.0000     2.4241E+00    12.5261   0.5787    94.4107
 12      0.0000     0.0000E+00    0.0000E+00    5.088000E+08  0.00400  6.597E-04    0   0.6365   age130_m42            0.0000     2.2677E+00    12.1401   0.5731    95.2268
 13      0.0000     0.0000E+00    0.0000E+00    1.434000E+09  0.00400  2.132E-04    0   0.5798   age139_m42            0.0000     2.1050E+00    11.7804  -0.3948    97.2134
 14      0.0000     0.0000E+00    0.0000E+00    4.250000E+09  0.00400  5.895E-05    0   0.5377   age158_m42            0.0000     1.9363E+00    11.3112  -0.8185    93.0469
 15      0.0000     0.0000E+00    0.0000E+00    7.500000E+09  0.00400  3.510E-05    0   0.5212   age171_m42            0.0000     1.8972E+00    11.1899  -1.0000    92.2923
 16      0.0000     0.0000E+00    0.0000E+00    1.300000E+10  0.00400  2.005E-05    0   0.5034   age193_m42            0.0000     1.9857E+00    11.5639  -1.0000    85.7965
 17      0.0000     0.0000E+00    0.0000E+00    1.800000E+10  0.00400  1.525E-05    0   0.4967   age213_m42            0.0000     2.0238E+00    11.6811  -1.0000    84.5768
 18      0.0000     0.0000E+00    0.0000E+00    1.000000E+06  0.00800  1.238E-02    0   1.0000   age020_m52            0.0000     2.4856E+00    12.3478   2.4611    80.8946
 19      0.0000     0.0000E+00    0.0000E+00    3.160000E+06  0.00800  3.074E-02    0   0.9966   age045_m52            0.0000     2.4597E+00    12.3144   2.3843    81.6344
 20      0.0000     0.0000E+00    0.0000E+00    5.010000E+06  0.00800  2.668E-02    0   0.9443   age055_m52            0.0000     2.4117E+00    12.2945   2.1345    83.6620
 21      0.0000     0.0000E+00    0.0000E+00    6.610000E+06  0.00800  2.136E-02    0   0.9177   age061_m52            0.0000     2.5007E+00    12.6022   0.8531    90.3321
 22      0.0000     0.0000E+00    0.0000E+00    1.000000E+07  0.00800  1.215E-02    0   0.8827   age070_m52            0.0000     2.6935E+00    13.0248   1.5256    89.1641
 23      0.0000     0.0000E+00    0.0000E+00    1.445000E+07  0.00800  8.717E-03    0   0.8552   age078_m52            0.0000     2.5808E+00    12.7616   1.6461    88.1355
 24      0.0000     0.0000E+00    0.0000E+00    2.512000E+07  0.00800  5.592E-03    0   0.8162   age090_m52            0.0000     2.6503E+00    12.9639   1.2794    90.9990
 25      0.0000     0.0000E+00    0.0000E+00    4.000000E+07  0.00800  3.896E-03    0   0.7841   age104_m52            0.0000     2.5632E+00    12.7856   1.1899    91.8399
 26      0.0000     0.0000E+00    0.0000E+00    1.015200E+08  0.00800  2.148E-03    0   0.7226   age116_m52            0.0000     2.3994E+00    12.4294   1.1332    91.6780
 27      0.0000     0.0000E+00    0.0000E+00    2.861200E+08  0.00800  9.925E-04    0   0.6683   age125_m52            0.0000     2.2777E+00    12.1591   0.6394    96.0181
 28      0.0000     0.0000E+00    0.0000E+00    9.047900E+08  0.00800  3.141E-04    0   0.6138   age135_m52            0.0000     2.0316E+00    11.6170  -0.1583   100.3230
 29      0.0000     0.0000E+00    0.0000E+00    1.434000E+09  0.00800  1.719E-04    0   0.5853   age139_m52            0.0000     2.0038E+00    11.5281  -0.7290    97.9550
 30      0.0000     0.0000E+00    0.0000E+00    2.500000E+09  0.00800  7.872E-05    0   0.5600   age150_m52            0.0000     1.8677E+00    11.1317  -0.9861    95.1534
 31      0.0000     0.0000E+00    0.0000E+00    4.250000E+09  0.00800  4.336E-05    0   0.5426   age158_m52            0.0000     1.8568E+00    11.0911  -1.0000    94.2352
 32      0.0000     0.0000E+00    0.0000E+00    6.250000E+09  0.00800  3.159E-05    0   0.5319   age166_m52            0.0000     1.9698E+00    11.5371  -1.0000    86.7775
 33      0.0000     0.0000E+00    0.0000E+00    1.300000E+10  0.00800  1.361E-05    0   0.5073   age193_m52            0.0000     3.2538E+00    14.6571  -1.0000    70.0417
 34      0.0000     0.0000E+00    0.0000E+00    1.800000E+10  0.00800  9.886E-06    0   0.4990   age213_m52            0.0000     3.6664E+00    15.4631  -1.0000    66.3728
 35      0.0000     0.0000E+00    0.0000E+00    1.000000E+06  0.02000  1.544E-02    0   1.0000   age020_m62            0.0000     2.4902E+00    12.3545   2.4574    81.0757
 36      0.0000     0.0000E+00    0.0000E+00    3.160000E+06  0.02000  3.762E-02    0   0.9858   age045_m62            0.0000     2.4756E+00    12.3396   2.3953    81.8409
 37      0.0000     0.0000E+00    0.0000E+00    5.010000E+06  0.02000  3.296E-02    0   0.9342   age055_m62            0.0000     2.3231E+00    12.1369   2.0075    85.6973
 38      0.0000     0.0000E+00    0.0000E+00    8.710000E+06  0.02000  1.154E-02    0   0.8861   age067_m62            0.0000     3.6194E+00    15.0349   0.9527    91.9655
 39      0.0000     0.0000E+00    0.0000E+00    1.445000E+07  0.02000  7.663E-03    0   0.8472   age078_m62            0.0000     2.9324E+00    13.5643   1.1633    91.3470
 40      0.0000     0.0000E+00    0.0000E+00    2.512000E+07  0.02000  4.532E-03    0   0.8099   age090_m62            0.0000     2.9908E+00    13.7218   1.1537    91.1185
 41      0.0000     0.0000E+00    0.0000E+00    5.500000E+07  0.02000  2.733E-03    0   0.7595   age110_m62            0.0000     2.5572E+00    12.7666   1.1743    91.1291
 42      0.0000     0.0000E+00    0.0000E+00    1.609000E+08  0.02000  1.369E-03    0   0.6985   age120_m62            0.0000     2.3620E+00    12.3442   1.0081    94.0746
 43      0.0000     0.0000E+00    0.0000E+00    2.861200E+08  0.02000  9.013E-04    0   0.6714   age125_m62            0.0000     2.2838E+00    12.1364   0.7545    97.0400
 44      0.0000     0.0000E+00    0.0000E+00    5.088000E+08  0.02000  5.028E-04    0   0.6449   age130_m62            0.0000     2.0865E+00    11.6877   0.3807    99.7520
 45      0.0000     0.0000E+00    0.0000E+00    9.047900E+08  0.02000  2.428E-04    0   0.6179   age135_m62            0.0000     1.9108E+00    11.2902  -0.2012    99.1954
 46      0.0000     0.0000E+00    0.0000E+00    1.434000E+09  0.02000  1.263E-04    0   0.5908   age139_m62            0.0000     1.8632E+00    11.1378  -0.6389    97.5928
 47      0.0000     0.0000E+00    0.0000E+00    2.500000E+09  0.02000  5.985E-05    0   0.5673   age150_m62            0.0000     1.8054E+00    10.9537  -0.9981    96.2198
 48      0.0000     0.0000E+00    0.0000E+00    4.250000E+09  0.02000  3.271E-05    0   0.5468   age158_m62            0.0000     2.1112E+00    11.9214  -1.0000    84.1895
 49      0.0000     0.0000E+00    0.0000E+00    1.000000E+10  0.02000  1.360E-05    0   0.5167   age181_m62            0.0000     3.1378E+00    14.2860  -1.0000    71.8590
 50      0.0000     0.0000E+00    0.0000E+00    1.800000E+10  0.02000  7.124E-06    0   0.5013   age213_m62            0.0000     3.9918E+00    15.9239  -1.0000    64.7249
 51      0.0000     0.0000E+00    0.0000E+00    1.000000E+06  0.05000  2.592E-02    0   0.9998   age020_m72            0.0000     2.5207E+00    12.3907   2.4493    81.0742
 52      0.0000     0.0000E+00    0.0000E+00    3.160000E+06  0.05000  4.845E-02    0   0.9577   age045_m72            0.0000     2.3964E+00    12.2329   2.2770    83.0116
 53      0.0000     0.0000E+00    0.0000E+00    5.010000E+06  0.05000  3.072E-02    0   0.9147   age055_m72            0.0000     2.7374E+00    13.0849   1.7627    87.5815
 54      0.0000     0.0000E+00    0.0000E+00    6.610000E+06  0.05000  1.455E-02    0   0.8877   age061_m72            0.0000     4.4427E+00    16.7488   0.9815    93.1351
 55      0.0000     0.0000E+00    0.0000E+00    1.000000E+07  0.05000  9.074E-03    0   0.8524   age070_m72            0.0000     2.8579E+00    13.3456   1.9445    87.4184
 56      0.0000     0.0000E+00    0.0000E+00    2.512000E+07  0.05000  4.250E-03    0   0.7902   age090_m72            0.0000     2.7614E+00    13.2190   1.6385    89.2213
 57      0.0000     0.0000E+00    0.0000E+00    4.000000E+07  0.05000  3.087E-03    0   0.7618   age104_m72            0.0000     2.8085E+00    13.3496   1.4027    90.9794
 58      0.0000     0.0000E+00    0.0000E+00    1.015200E+08  0.05000  1.700E-03    0   0.7096   age116_m72            0.0000     2.4838E+00    12.6218   1.1478    93.6538
 59      0.0000     0.0000E+00    0.0000E+00    2.861200E+08  0.05000  7.384E-04    0   0.6633   age125_m72            0.0000     2.1757E+00    11.8829   0.6239    98.4534
 60      0.0000     0.0000E+00    0.0000E+00    5.088000E+08  0.05000  3.819E-04    0   0.6372   age130_m72            0.0000     1.9569E+00    11.3872   0.1380   100.0854
 61     98.1348     1.0000E+02    1.0000E+02    9.047900E+08  0.05000  1.676E-04    0   0.6110   age135_m72            0.0000     1.7854E+00    10.9345  -0.5441    98.1492
 62      0.0001     2.3115E-04    2.2222E-04    1.434000E+09  0.05000  8.837E-05    0   0.5874   age139_m72            0.0000     1.7986E+00    10.9243  -1.0000    97.7485
 63      0.0000     0.0000E+00    0.0000E+00    2.500000E+09  0.05000  4.233E-05    0   0.5598   age150_m72            0.0000     2.1106E+00    11.8938  -1.0000    84.9654
 64      0.0000     0.0000E+00    0.0000E+00    6.250000E+09  0.05000  1.435E-05    0   0.5249   age166_m72            0.0000     3.5121E+00    15.0572  -1.0000    68.4698
 65      0.0000     0.0000E+00    0.0000E+00    1.300000E+10  0.05000  6.513E-06    0   0.5036   age193_m72            0.0000     4.7752E+00    17.3475  -1.0000    60.6046
 66      0.0000     0.0000E+00    0.0000E+00    1.800000E+10  0.05000  4.527E-06    0   0.4945   age213_m72            0.0000     5.5898E+00    18.6709  -1.0000    55.9836


## Synthesis Results - Average & Chains ##

# j      x_j: min, <> & last-chain-values for 1 ...  7 chains
  1      0.0000      0.1273      0.0000      0.0000      0.0000      0.0000      0.0000      0.0000      0.0000
  2      0.0000      0.0483      0.0000      0.0000      0.2166      0.0000      0.0000      0.0000      0.0000
  3      0.0000      0.0362      0.0000      0.0000      0.0000      0.0000      0.0000      0.0000      0.0000
  4      0.0000      0.1113      0.0000      0.0000      0.0000      0.0000      0.0000      0.0000      0.3109
  5      0.0000      0.0529      0.0000      0.0000      0.1531      0.0000      0.2184      0.0000      0.0000
  6      0.0000      0.0447      0.0000      0.0000      0.0000      0.0000      0.0000      0.0000      0.0000
  7      0.0000      0.0520      0.0000      0.0000      0.0000      0.0000      0.0000      0.0000      0.0000
  8      0.0000      0.1418      0.0000      0.2918      0.0000      0.0000      0.0000      0.0000      0.0000
  9      0.0000      0.1298      0.1028      0.3705      0.0000      0.0000      0.0058      0.0000      0.0000
 10      0.0000      0.2635      0.0000      0.0000      0.0000      0.0000      0.0000      0.0000      0.0000
 11      0.0000      0.1739      0.0000      0.0000      0.0000      0.0161      0.0000      0.0000      0.0000
 12      0.0000      0.1473      0.0000      0.0000      0.0751      0.0000      0.0000      0.0328      0.0000
 13      0.0000      0.1302      0.0000      0.0000      0.0000      0.0000      0.0000      0.0000      0.0000
 14      0.0000      0.2123      0.0000      0.0000      0.0000      0.0000      0.0000      0.0000      0.3383
 15      0.0000      0.1290      0.0000      0.0000      0.0000      0.0000      0.0000      0.5969      0.2567
 16      0.0000      0.0511      0.0887      0.0000      0.4155      0.0000      0.0000      0.0000      0.0000
 17      0.0000      0.1923      0.0000      0.0000      0.0000      0.0000      0.0000      0.0000      0.0000
 18      0.0000      0.0307      0.0000      0.0000      0.0000      0.0000      0.0000      0.0000      0.0000
 19      0.0000      0.0682      0.0000      0.0000      0.0000      0.2315      0.0000      0.0000      0.0000
 20      0.0000      0.0603      0.0000      0.0000      0.0000      0.0000      0.0000      0.0000      0.1535
 21      0.0000      0.0824      0.0000      0.0000      0.0000      0.0963      0.0000      0.0000      0.0000
 22      0.0000      0.0628      0.0000      0.0000      0.0000      0.0000      0.0000      0.0000      0.0000
 23      0.0000      0.0459      0.0000      0.0000      0.0000      0.0000      0.0000      0.4209      0.2306
 24      0.0000      0.0619      0.0000      0.0000      0.0000      0.0000      0.0130      0.0000      0.0000
 25      0.0000      0.0991      0.0000      0.0000      0.0000      0.0000      0.0000      0.0000      0.0000
 26      0.0000      0.0601      0.0000      0.0000      0.0000      0.0000      0.0000      0.0000      0.0000
 27      0.0000      1.0891      3.0006      0.0000      0.0000      0.0000      0.0000      0.1277      1.2751
 28      0.0000      0.4834      0.4558      0.0000      1.0811      0.0000      0.0000      0.0000      1.0899
 29      0.0000      0.2483      0.0000      0.0224      0.0000      0.0000      0.0000      0.0000      0.0000
 30      0.0000      0.1280      0.0000      0.0000      0.1037      0.0000      0.0000      0.0000      0.0000
 31      0.0000      0.2122      0.0000      0.0000      0.1999      0.0000      0.0000      0.0000      0.0000
 32      0.0000      0.1415      0.0000      0.0000      0.0000      0.0435      0.8007      0.0000      0.0000
 33      0.0000      0.0291      0.0000      0.0000      0.2259      0.1917      0.0000      0.0000      0.0000
 34      0.0000      0.0086      0.0000      0.0000      0.0000      0.0000      0.0000      0.0000      0.0000
 35      0.0000      0.0189      0.0000      0.0000      0.0000      0.0000      0.0000      0.0000      0.0000
 36      0.0000      0.0088      0.0000      0.0000      0.0000      0.0000      0.0000      0.0000      0.0937
 37      0.0000      0.0605      0.0000      0.0000      0.1358      0.0000      0.0000      0.0000      0.0000
 38      0.0000      0.0212      0.0372      0.0000      0.0000      0.0000      0.0000      0.0000      0.0000
 39      0.0000      0.0514      0.0000      0.0000      0.0000      0.0000      0.0000      0.0000      0.0000
 40      0.0000      0.0324      0.0000      0.0000      0.0000      0.0000      0.0000      0.0000      0.0000
 41      0.0000      0.0945      0.0000      0.9520      0.0000      0.0000      0.0000      0.0000      0.0000
 42      0.0000      0.1926      0.0000      0.0000      0.0000      0.0000      0.0000      0.0000      0.2151
 43      0.0000      0.3247      0.0000      0.0000      0.0000      2.7692      0.5881      0.0000      0.0000
 44      0.0000      0.7498      1.6421      0.0000      0.0000      0.0000      0.0000      0.0253      0.0000
 45      0.0000      1.4078      0.9592      1.3345      2.9040      1.2848      0.9681      3.9498      2.3991
 46      0.0000      0.4390      0.0000      0.0000      0.0000      1.3482      0.0000      0.8539      0.6168
