###################################################################
## OUTPUT of StarlightChains_v04.for    [Cid@UFSC - 01/Apr/2007] ##
###################################################################

## Some input info
2010iz.txt                               [arq_obs]
Base.CB07.vall.4m                        [arq_base]
Masks.EmLines.NEW.gm                     [arq_masks]
StCv04.C11.config                        [arq_config]
   66                                    [N_base]
    0                                    [N_YAV_components = # of components with extra extinction!]
    0                                    [i_FitPowerLaw (1/0 = Yes/No)]
-9.99                                    [alpha_PowerLaw]
CCM                                      [red_law_option]
 1.458241                                [q_norm = A(l_norm)/A(V)]

## (Re)Sampling Parameters
 3741.00                                 [l_ini (A)]
 7218.00                                 [l_fin (A)]
    1.00                                 [dl    (A)]     (OBS: dl_cushion =    50.00 A)

## Normalization info
 4020.00                                 [l_norm (A) - for base]
 4010.00                                 [llow_norm (A) - window for f_obs]
 4060.00                                 [lupp_norm (A) - window for f_obs]
1.435993E-16                             [fobs_norm (in input units)]

## S/N
 3691.00                                 [llow_SN (A) - window for S/N]
 7268.00                                 [lupp_SN (A) - window for S/N]
   3.899                                 [S/N in S/N window]
   6.114                                 [S/N in norm. window]
   6.913                                 [S/N_err in S/N window]
  10.841                                 [S/N_err in norm. window]
  1.0000                                 [fscale_chi2]

## etc...
    -2007368                             [idum_orig]
  2384                                   [NOl_eff]
  2384                                   [Nl_eff]
     0    NSIGMA                         [Ntot_cliped & clip_method]
   920150                                [Nglobal_steps]
   7                                     [N_chains]
  14                                     [NEX0s_base = N_base in EX0s-fits]
 0   0   1        0   2.0   3.348E+01    [Clip-Bug, RC-Crash & Burn-In warning-flags, n_censored_weights, wei_nsig_threshold & wei_limit]
    10     10.621     10.115      0.506  [idt_all, wdt_TotTime, wdt_UsrTime & wdt_SysTime (sec)]

## Synthesis Results - Best model ##

 3.42804E-01                             [chi2/Nl_eff]
     6.41991                             [adev (%)]

    97.29884                             [sum-of-x (%)]
 1.41244E-16                             [Flux_tot (units of input spectrum!)]
 2.63974E-13                             [Mini_tot (???)]
 1.67121E-13                             [Mcor_tot (???)]

 -38.71                                  [v0_min  (km/s)]
 143.74                                  [vd_min  (km/s)]
 0.0081                                  [AV_min  (mag)]
 0.0000                                  [YAV_min (mag)]

# j     x_j(%)      Mini_j(%)     Mcor_j(%)     age_j(yr)     Z_j      (L/M)_j    YAV?  Mstars   component_j        a/Fe...       SSP_chi2r SSP_adev(%)   SSP_AV   SSP_x(%)
  1      0.0000     0.0000E+00    0.0000E+00    1.000000E+06  0.00400  1.094E-02    0   1.0000   age020_m42            0.0000     5.4202E-01     8.2840   2.1094    80.0150
  2      0.0000     0.0000E+00    0.0000E+00    3.160000E+06  0.00400  4.007E-02    0   0.9999   age045_m42            0.0000     4.7067E-01     7.3911   1.3671    86.2235
  3      0.0000     0.0000E+00    0.0000E+00    5.010000E+06  0.00400  2.539E-02    0   0.9488   age055_m42            0.0000     4.9504E-01     7.7121   1.6896    83.9777
  4      0.0000     0.0000E+00    0.0000E+00    6.610000E+06  0.00400  2.620E-02    0   0.9220   age061_m42            0.0000     4.5335E-01     7.2731   1.2808    86.9135
  5      0.0000     0.0000E+00    0.0000E+00    1.000000E+07  0.00400  1.322E-02    0   0.8862   age070_m42            0.0000     4.0369E-01     7.1289   0.9158    92.1169
  6      0.0000     0.0000E+00    0.0000E+00    1.445000E+07  0.00400  7.883E-03    0   0.8571   age078_m42            0.0000     4.3071E-01     7.4045   1.2556    89.2499
  7     11.2667     1.1799E+00    1.5234E+00    2.512000E+07  0.00400  5.251E-03    0   0.8174   age090_m42            0.0000     3.9555E-01     7.0956   0.7701    93.2907
  8      0.0565     8.5216E-03    1.0568E-02    4.000000E+07  0.00400  3.649E-03    0   0.7851   age104_m42            0.0000     3.8397E-01     6.9282   0.5482    93.8551
  9      0.0000     0.0000E+00    0.0000E+00    5.500000E+07  0.00400  3.098E-03    0   0.7629   age110_m42            0.0000     3.9430E-01     6.8594   0.7340    92.5415
 10      0.0000     0.0000E+00    0.0000E+00    1.015200E+08  0.00400  2.228E-03    0   0.7207   age116_m42            0.0000     4.0041E-01     6.8842   0.7755    91.8570
 11      0.0000     0.0000E+00    0.0000E+00    2.861200E+08  0.00400  1.093E-03    0   0.6648   age125_m42            0.0000     4.2003E-01     6.8892   0.1629    96.5069
 12      0.0000     0.0000E+00    0.0000E+00    5.088000E+08  0.00400  6.597E-04    0   0.6365   age130_m42            0.0000     4.0803E-01     6.8822   0.1906    95.7178
 13      0.0000     0.0000E+00    0.0000E+00    1.434000E+09  0.00400  2.132E-04    0   0.5798   age139_m42            0.0000     3.5509E-01     6.4243  -0.7558    96.5605
 14      0.0000     0.0000E+00    0.0000E+00    4.250000E+09  0.00400  5.895E-05    0   0.5377   age158_m42            0.0000     4.3273E-01     7.2949  -1.0000    84.6311
 15      0.0000     0.0000E+00    0.0000E+00    7.500000E+09  0.00400  3.510E-05    0   0.5212   age171_m42            0.0000     5.8571E-01     8.8496  -1.0000    76.7446
 16      0.0000     0.0000E+00    0.0000E+00    1.300000E+10  0.00400  2.005E-05    0   0.5034   age193_m42            0.0000     8.0034E-01    10.5782  -1.0000    70.3747
 17      0.0000     0.0000E+00    0.0000E+00    1.800000E+10  0.00400  1.525E-05    0   0.4967   age213_m42            0.0000     8.3907E-01    10.8369  -1.0000    69.2311
 18      0.0000     0.0000E+00    0.0000E+00    1.000000E+06  0.00800  1.238E-02    0   1.0000   age020_m52            0.0000     5.4129E-01     8.2815   2.1071    80.1180
 19      2.0197     3.6131E-02    5.6876E-02    3.160000E+06  0.00800  3.074E-02    0   0.9966   age045_m52            0.0000     5.3794E-01     8.2195   2.0326    80.7550
 20      0.0088     1.8198E-04    2.7144E-04    5.010000E+06  0.00800  2.668E-02    0   0.9443   age055_m52            0.0000     4.9522E-01     7.7879   1.7717    83.2229
 21      9.0604     2.3326E-01    3.3812E-01    6.610000E+06  0.00800  2.136E-02    0   0.9177   age061_m52            0.0000     3.7472E-01     7.0022   0.4311    92.5277
 22      0.0000     0.0000E+00    0.0000E+00    1.000000E+07  0.00800  1.215E-02    0   0.8827   age070_m52            0.0000     4.2252E-01     7.3867   1.0719    92.8531
 23      0.0000     0.0000E+00    0.0000E+00    1.445000E+07  0.00800  8.717E-03    0   0.8552   age078_m52            0.0000     4.1825E-01     7.2916   1.2159    90.7012
 24      2.1936     2.1572E-01    2.7811E-01    2.512000E+07  0.00800  5.592E-03    0   0.8162   age090_m52            0.0000     3.9824E-01     7.1014   0.8249    94.7884
 25      0.0000     0.0000E+00    0.0000E+00    4.000000E+07  0.00800  3.896E-03    0   0.7841   age104_m52            0.0000     3.9617E-01     6.9525   0.7486    95.0638
 26      0.0000     0.0000E+00    0.0000E+00    1.015200E+08  0.00800  2.148E-03    0   0.7226   age116_m52            0.0000     3.8915E-01     6.7881   0.7230    93.4192
 27      0.0000     0.0000E+00    0.0000E+00    2.861200E+08  0.00800  9.925E-04    0   0.6683   age125_m52            0.0000     3.9193E-01     6.8080   0.2517    96.7566
 28      0.0000     0.0000E+00    0.0000E+00    9.047900E+08  0.00800  3.141E-04    0   0.6138   age135_m52            0.0000     4.0229E-01     6.9106  -0.5008    98.8117
 29      0.0000     0.0000E+00    0.0000E+00    1.434000E+09  0.00800  1.719E-04    0   0.5853   age139_m52            0.0000     4.3450E-01     7.0285  -1.0000    93.1197
 30      0.0000     0.0000E+00    0.0000E+00    2.500000E+09  0.00800  7.872E-05    0   0.5600   age150_m52            0.0000     5.8120E-01     8.8447  -1.0000    79.7163
 31      0.0000     0.0000E+00    0.0000E+00    4.250000E+09  0.00800  4.336E-05    0   0.5426   age158_m52            0.0000     5.9458E-01     8.9628  -1.0000    78.3956
 32      0.0000     0.0000E+00    0.0000E+00    6.250000E+09  0.00800  3.159E-05    0   0.5319   age166_m52            0.0000     8.4197E-01    11.0289  -1.0000    71.0092
 33      0.0000     0.0000E+00    0.0000E+00    1.300000E+10  0.00800  1.361E-05    0   0.5073   age193_m52            0.0000     1.7223E+00    16.5472  -1.0000    55.6584
 34      0.0000     0.0000E+00    0.0000E+00    1.800000E+10  0.00800  9.886E-06    0   0.4990   age213_m52            0.0000     1.9390E+00    17.7297  -1.0000    52.5197
 35      0.0000     0.0000E+00    0.0000E+00    1.000000E+06  0.02000  1.544E-02    0   1.0000   age020_m62            0.0000     5.4408E-01     8.3188   2.1034    80.2929
 36      0.0000     0.0000E+00    0.0000E+00    3.160000E+06  0.02000  3.762E-02    0   0.9858   age045_m62            0.0000     5.5048E-01     8.3444   2.0450    80.9045
 37      0.0000     0.0000E+00    0.0000E+00    5.010000E+06  0.02000  3.296E-02    0   0.9342   age055_m62            0.0000     4.8580E-01     7.5651   1.6562    84.7748
 38     18.2020     8.6739E-01    1.2140E+00    8.710000E+06  0.02000  1.154E-02    0   0.8861   age067_m62            0.0000     5.9072E-01     9.2038   0.3794   101.7546
 39      0.0000     0.0000E+00    0.0000E+00    1.445000E+07  0.02000  7.663E-03    0   0.8472   age078_m62            0.0000     4.6394E-01     7.7975   0.6670    97.1954
 40      0.0000     0.0000E+00    0.0000E+00    2.512000E+07  0.02000  4.532E-03    0   0.8099   age090_m62            0.0000     4.8660E-01     7.8950   0.6476    97.4414
 41      0.0130     2.6214E-03    3.1448E-03    5.500000E+07  0.02000  2.733E-03    0   0.7595   age110_m62            0.0000     3.9324E-01     6.9686   0.7340    94.2558
 42      0.0085     3.4284E-03    3.7826E-03    1.609000E+08  0.02000  1.369E-03    0   0.6985   age120_m62            0.0000     3.8469E-01     6.8012   0.6063    95.4666
 43      3.9119     2.3868E+00    2.5312E+00    2.861200E+08  0.02000  9.013E-04    0   0.6714   age125_m62            0.0000     3.7816E-01     6.8347   0.3703    97.6079
 44      0.0000     0.0000E+00    0.0000E+00    5.088000E+08  0.02000  5.028E-04    0   0.6449   age130_m62            0.0000     4.0392E-01     7.1254   0.0434    98.0292
 45      0.0000     0.0000E+00    0.0000E+00    9.047900E+08  0.02000  2.428E-04    0   0.6179   age135_m62            0.0000     4.0622E-01     7.0907  -0.5075    95.9429
 46      0.0000     0.0000E+00    0.0000E+00    1.434000E+09  0.02000  1.263E-04    0   0.5908   age139_m62            0.0000     4.2837E-01     7.2740  -0.9268    93.4691
 47      0.0000     0.0000E+00    0.0000E+00    2.500000E+09  0.02000  5.985E-05    0   0.5673   age150_m62            0.0000     6.0081E-01     9.1461  -1.0000    80.1241
 48      0.0000     0.0000E+00    0.0000E+00    4.250000E+09  0.02000  3.271E-05    0   0.5468   age158_m62            0.0000     9.7129E-01    12.1601  -1.0000    68.4362
 49      0.0000     0.0000E+00    0.0000E+00    1.000000E+10  0.02000  1.360E-05    0   0.5167   age181_m62            0.0000     1.6103E+00    16.1571  -1.0000    57.2622
 50      0.0000     0.0000E+00    0.0000E+00    1.800000E+10  0.02000  7.124E-06    0   0.5013   age213_m62            0.0000     2.0621E+00    18.5090  -1.0000    51.1301
 51      0.0000     0.0000E+00    0.0000E+00    1.000000E+06  0.05000  2.592E-02    0   0.9998   age020_m72            0.0000     5.4751E-01     8.4170   2.0924    80.3994
 52      0.0000     0.0000E+00    0.0000E+00    3.160000E+06  0.05000  4.845E-02    0   0.9577   age045_m72            0.0000     5.3492E-01     8.0618   1.9326    81.8276
 53      0.0000     0.0000E+00    0.0000E+00    5.010000E+06  0.05000  3.072E-02    0   0.9147   age055_m72            0.0000     5.2703E-01     8.0955   1.3118    91.1101
 54      0.0000     0.0000E+00    0.0000E+00    6.610000E+06  0.05000  1.455E-02    0   0.8877   age061_m72            0.0000     1.2405E+00    12.0134   0.3527   106.2555
 55      0.0000     0.0000E+00    0.0000E+00    1.000000E+07  0.05000  9.074E-03    0   0.8524   age070_m72            0.0000     7.3088E-01     8.9106   1.4840    91.4303
 56      0.0000     0.0000E+00    0.0000E+00    2.512000E+07  0.05000  4.250E-03    0   0.7902   age090_m72            0.0000     5.7972E-01     8.0539   1.1757    93.4117
 57      0.0000     0.0000E+00    0.0000E+00    4.000000E+07  0.05000  3.087E-03    0   0.7618   age104_m72            0.0000     5.8268E-01     7.9753   0.9285    95.8021
 58      0.0000     0.0000E+00    0.0000E+00    1.015200E+08  0.05000  1.700E-03    0   0.7096   age116_m72            0.0000     4.1273E-01     6.9446   0.7216    96.2155
 59      0.0000     0.0000E+00    0.0000E+00    2.861200E+08  0.05000  7.384E-04    0   0.6633   age125_m72            0.0000     3.8434E-01     6.9486   0.2620    97.9318
 60     38.4649     5.5388E+01    5.5747E+01    5.088000E+08  0.05000  3.819E-04    0   0.6372   age130_m72            0.0000     3.9157E-01     7.0143  -0.1742    97.0871
 61     12.0927     3.9678E+01    3.8293E+01    9.047900E+08  0.05000  1.676E-04    0   0.6110   age135_m72            0.0000     4.7651E-01     7.8414  -0.7848    91.8302
 62      0.0000     0.0000E+00    0.0000E+00    1.434000E+09  0.05000  8.837E-05    0   0.5874   age139_m72            0.0000     6.1692E-01     9.2943  -1.0000    81.2882
 63      0.0000     0.0000E+00    0.0000E+00    2.500000E+09  0.05000  4.233E-05    0   0.5598   age150_m72            0.0000     9.8880E-01    12.2928  -1.0000    69.0686
 64      0.0000     0.0000E+00    0.0000E+00    6.250000E+09  0.05000  1.435E-05    0   0.5249   age166_m72            0.0000     1.8227E+00    17.2675  -1.0000    54.3077
 65      0.0000     0.0000E+00    0.0000E+00    1.300000E+10  0.05000  6.513E-06    0   0.5036   age193_m72            0.0000     2.4741E+00    20.3876  -1.0000    47.5754
 66      0.0000     0.0000E+00    0.0000E+00    1.800000E+10  0.05000  4.527E-06    0   0.4945   age213_m72            0.0000     2.8828E+00    22.0987  -1.0000    43.7398


## Synthesis Results - Average & Chains ##

# j      x_j: min, <> & last-chain-values for 1 ...  7 chains
  1      0.0000      0.2395      0.0000      0.0000      0.0000      0.0000      0.0000      1.1687      0.0000
  2      0.0000      0.3907      1.9900      0.2267      0.3038      1.2030      0.9372      0.0000      0.5407
  3      0.0000      0.3378      0.4757      0.0000      0.0000      3.2074      1.3333      0.9690      0.5713
  4      0.0000      0.4744      0.0000      0.0000      0.1665      0.0000      0.0000      0.0000      0.0000
  5      0.0000      0.6597      0.0000      0.0000      0.0933      0.0000      0.0000      0.0000      2.8141
  6      0.0000      0.7092      0.1575      0.0000      1.0367      0.0000      2.8993      0.0000      1.2787
  7     11.2667      5.2468      3.4112      9.2099      0.3805      9.2173     11.1459      5.5443      5.1981
  8      0.0565      3.2493      4.8525      6.5135      0.0000      4.3613      1.5727      8.0933      2.9249
  9      0.0000      1.1168      0.5417      0.0000      0.0000      0.3950      0.0000      1.9210      0.3262
 10      0.0000      1.2755      0.0000      0.0000      0.0000      0.0000      0.0000      0.0000      2.5926
 11      0.0000      0.6081      0.1196      0.0000      0.0000      0.0000      0.0000      0.0000      0.0000
 12      0.0000      0.8693      0.3959      0.0000      0.0000      0.5128      0.0000      0.0000      0.0000
 13      0.0000      0.2027      0.0000      0.0000      0.0000      0.0000      1.0130      0.0000      0.0000
 14      0.0000      0.0272      0.3579      0.0000      0.0000      0.0000      0.0000      0.3764      0.0000
 15      0.0000      0.0696      0.0000      0.0000      0.0000      0.6684      0.2719      0.0000      0.0000
 16      0.0000      0.0168      0.1125      0.0000      0.0000      0.0000      0.0000      0.0000      0.0000
 17      0.0000      0.0748      0.0000      0.0000      0.0000      0.0000      0.0000      0.9436      0.0000
 18      0.0000      0.7024      1.7324      0.0000      0.0000      0.0000      0.0000      2.1744      0.0000
 19      2.0197      0.3270      0.0000      1.1155      0.0000      0.0483      0.0000      0.0982      0.0000
 20      0.0088      0.3728      0.6939      1.8169      0.0000      0.0000      2.1402      0.4402      0.0000
 21      9.0604     12.6735     10.2474     19.6674     19.1798     21.7245     12.0961     14.9251     22.2439
 22      0.0000      0.7097      0.0000      0.0000      3.2906      0.0000      0.2499      0.0000      0.2087
 23      0.0000      0.5025      0.0000      0.0000      0.0000      0.0000      0.0000      0.6895      0.0000
 24      2.1936      1.1396      3.0337      2.2652      0.3190      2.1739      0.0000      0.0105      0.0000
 25      0.0000      0.7270      3.1895      0.3281      0.0000      0.0000      0.0000      0.9247      0.0000
 26      0.0000      1.0758      0.0000      0.0000      0.0000      0.4185      0.0000      1.7266      0.0000
 27      0.0000      1.2994      0.1852      0.0000      0.0000      0.0335      0.0000      0.5254      0.0000
 28      0.0000      0.5669      0.0000      0.0000      0.0000      0.0000      0.0000      0.0000      0.0000
 29      0.0000      0.0437      0.0000      0.3577      0.0000      0.0000      0.0000      0.0000      0.0000
 30      0.0000      0.0530      0.0000      0.0000      0.0000      0.0000      0.0000      0.0000      0.0746
 31      0.0000      0.0234      0.0000      0.0000      0.0000      0.0000      0.0000      0.0000      0.0000
 32      0.0000      0.0894      0.0000      0.5161      0.0000      0.0000      0.0000      0.0000      0.0000
 33      0.0000      0.0677      0.0000      0.0000      0.0000      0.0000      0.0000      0.0000      0.7439
 34      0.0000      0.0167      0.0000      0.0000      0.0000      0.0000      0.0000      0.0000      0.0000
 35      0.0000      0.8323      0.3647      0.0000      1.1518      0.7911      0.0000      0.2049      1.4727
 36      0.0000      0.4144      0.0000      2.1227      0.3445      0.0000      0.0000      0.0000      0.0000
 37      0.0000      0.6712      1.4193      0.0000      2.3416      0.0000      2.4981      0.6747      0.0000
 38     18.2020      5.4960      6.2558      5.1388      9.5652      3.2501      6.4861      3.2461      6.5365
 39      0.0000      0.9835      0.0000      0.0000      0.0000      2.5850      1.6651      0.0000      0.9281
 40      0.0000      0.7175      0.0000      0.0000      0.0000      0.3548      0.0000      0.9427      0.0000
 41      0.0130      1.2575      2.5668      1.4770      3.3948      3.5350      3.8102      0.8874      3.4931
 42      0.0085      1.4443      0.0000      1.4921      0.0000      0.0000      0.0000      2.0252      0.8244
 43      3.9119      9.5682     11.0869     10.0522      8.4183      9.1844     11.2123      8.8990     10.0462
 44      0.0000      2.6263      1.5796      0.0000      0.0000      0.0000      0.0000      1.6754      0.0000
 45      0.0000      0.5286      3.0982      0.0000      0.0000      0.0000      0.0000      0.0000      2.9925
 46      0.0000      0.1079      0.0000      0.2140      0.3409      0.0000      0.0000      0.1624      0.0000
