###################################################################
## OUTPUT of StarlightChains_v04.for    [Cid@UFSC - 01/Apr/2007] ##
###################################################################

## Some input info
2011fs.txt                               [arq_obs]
Base.CB07.vall.4m                        [arq_base]
Masks.EmLines.NEW.gm                     [arq_masks]
StCv04.C11.config                        [arq_config]
   66                                    [N_base]
    0                                    [N_YAV_components = # of components with extra extinction!]
    0                                    [i_FitPowerLaw (1/0 = Yes/No)]
-9.99                                    [alpha_PowerLaw]
CCM                                      [red_law_option]
 1.458241                                [q_norm = A(l_norm)/A(V)]

## (Re)Sampling Parameters
 3741.00                                 [l_ini (A)]
 7218.00                                 [l_fin (A)]
    1.00                                 [dl    (A)]     (OBS: dl_cushion =    50.00 A)

## Normalization info
 4020.00                                 [l_norm (A) - for base]
 4010.00                                 [llow_norm (A) - window for f_obs]
 4060.00                                 [lupp_norm (A) - window for f_obs]
1.570947E-16                             [fobs_norm (in input units)]

## S/N
 3691.00                                 [llow_SN (A) - window for S/N]
 7268.00                                 [lupp_SN (A) - window for S/N]
  10.692                                 [S/N in S/N window]
  12.739                                 [S/N in norm. window]
  21.756                                 [S/N_err in S/N window]
  25.922                                 [S/N_err in norm. window]
  1.0000                                 [fscale_chi2]

## etc...
    -2007375                             [idum_orig]
  2371                                   [NOl_eff]
  2369                                   [Nl_eff]
     2    NSIGMA                         [Ntot_cliped & clip_method]
  2173850                                [Nglobal_steps]
   7                                     [N_chains]
  29                                     [NEX0s_base = N_base in EX0s-fits]
 0   0   1        4   2.0   7.034E+01    [Clip-Bug, RC-Crash & Burn-In warning-flags, n_censored_weights, wei_nsig_threshold & wei_limit]
    21     21.106     20.600      0.505  [idt_all, wdt_TotTime, wdt_UsrTime & wdt_SysTime (sec)]

## Synthesis Results - Best model ##

 5.86022E-01                             [chi2/Nl_eff]
     2.70727                             [adev (%)]

    98.01280                             [sum-of-x (%)]
 3.94606E-16                             [Flux_tot (units of input spectrum!)]
 2.17945E-12                             [Mini_tot (???)]
 1.18526E-12                             [Mcor_tot (???)]

  21.14                                  [v0_min  (km/s)]
 161.95                                  [vd_min  (km/s)]
 0.7007                                  [AV_min  (mag)]
 0.0000                                  [YAV_min (mag)]

# j     x_j(%)      Mini_j(%)     Mcor_j(%)     age_j(yr)     Z_j      (L/M)_j    YAV?  Mstars   component_j        a/Fe...       SSP_chi2r SSP_adev(%)   SSP_AV   SSP_x(%)
  1      1.7969     3.0341E-02    5.5792E-02    1.000000E+06  0.00400  1.094E-02    0   1.0000   age020_m42            0.0000     2.4518E+00     6.0750   3.0097    76.5133
  2      0.0000     0.0000E+00    0.0000E+00    3.160000E+06  0.00400  4.007E-02    0   0.9999   age045_m42            0.0000     1.9324E+00     5.1976   2.2514    83.2053
  3      0.0000     0.0000E+00    0.0000E+00    5.010000E+06  0.00400  2.539E-02    0   0.9488   age055_m42            0.0000     2.0268E+00     5.3410   2.5771    80.8805
  4      0.0009     6.1208E-06    1.0377E-05    6.610000E+06  0.00400  2.620E-02    0   0.9220   age061_m42            0.0000     1.7257E+00     4.8937   2.1596    84.1449
  5      2.8919     4.0410E-02    6.5850E-02    1.000000E+07  0.00400  1.322E-02    0   0.8862   age070_m42            0.0000     9.8023E-01     3.4435   1.7717    90.4319
  6      0.6150     1.4412E-02    2.2714E-02    1.445000E+07  0.00400  7.883E-03    0   0.8571   age078_m42            0.0000     1.1838E+00     3.8689   2.1212    87.1584
  7      5.0286     1.7691E-01    2.6589E-01    2.512000E+07  0.00400  5.251E-03    0   0.8174   age090_m42            0.0000     8.7611E-01     3.2116   1.6201    91.8958
  8      4.0872     2.0691E-01    2.9871E-01    4.000000E+07  0.00400  3.649E-03    0   0.7851   age104_m42            0.0000     8.3608E-01     3.1382   1.3982    92.4408
  9      2.6656     1.5895E-01    2.2297E-01    5.500000E+07  0.00400  3.098E-03    0   0.7629   age110_m42            0.0000     1.0392E+00     3.6177   1.5927    90.6790
 10      0.0000     0.0000E+00    0.0000E+00    1.015200E+08  0.00400  2.228E-03    0   0.7207   age116_m42            0.0000     1.2124E+00     4.0521   1.6385    89.7783
 11      0.0000     0.0000E+00    0.0000E+00    2.861200E+08  0.00400  1.093E-03    0   0.6648   age125_m42            0.0000     1.1369E+00     3.7091   1.0208    94.8818
 12      0.0000     0.0000E+00    0.0000E+00    5.088000E+08  0.00400  6.597E-04    0   0.6365   age130_m42            0.0000     1.2997E+00     4.2683   1.0569    93.5785
 13     13.1106     1.1360E+01    1.2111E+01    1.434000E+09  0.00400  2.132E-04    0   0.5798   age139_m42            0.0000     1.1315E+00     4.3471   0.1114    94.2179
 14      0.5224     1.6371E+00    1.6187E+00    4.250000E+09  0.00400  5.895E-05    0   0.5377   age158_m42            0.0000     1.5813E+00     5.5124  -0.2377    86.6923
 15      0.0000     0.0000E+00    0.0000E+00    7.500000E+09  0.00400  3.510E-05    0   0.5212   age171_m42            0.0000     1.8433E+00     6.0534  -0.3935    84.8668
 16      0.0000     0.0000E+00    0.0000E+00    1.300000E+10  0.00400  2.005E-05    0   0.5034   age193_m42            0.0000     2.1436E+00     6.5718  -0.5293    83.3097
 17      0.0000     0.0000E+00    0.0000E+00    1.800000E+10  0.00400  1.525E-05    0   0.4967   age213_m42            0.0000     2.0998E+00     6.4727  -0.5580    83.1488
 18      0.0000     0.0000E+00    0.0000E+00    1.000000E+06  0.00800  1.238E-02    0   1.0000   age020_m52            0.0000     2.4498E+00     6.0748   3.0060    76.6598
 19      0.0000     0.0000E+00    0.0000E+00    3.160000E+06  0.00800  3.074E-02    0   0.9966   age045_m52            0.0000     2.4187E+00     6.0080   2.9306    77.2936
 20      0.0000     0.0000E+00    0.0000E+00    5.010000E+06  0.00800  2.668E-02    0   0.9443   age055_m52            0.0000     2.0153E+00     5.3742   2.6593    80.1381
 21      0.0009     7.8136E-06    1.3185E-05    6.610000E+06  0.00800  2.136E-02    0   0.9177   age061_m52            0.0000     9.6098E-01     3.6364   1.2918    90.5295
 22      0.0000     0.0000E+00    0.0000E+00    1.000000E+07  0.00800  1.215E-02    0   0.8827   age070_m52            0.0000     9.4483E-01     3.3933   1.9284    91.2388
 23      0.5912     1.2530E-02    1.9703E-02    1.445000E+07  0.00800  8.717E-03    0   0.8552   age078_m52            0.0000     1.0532E+00     3.6601   2.0783    88.7303
 24     10.5195     3.4751E-01    5.2155E-01    2.512000E+07  0.00800  5.592E-03    0   0.8162   age090_m52            0.0000     7.7921E-01     3.0511   1.6754    93.4134
 25      3.6802     1.7449E-01    2.5159E-01    4.000000E+07  0.00800  3.896E-03    0   0.7841   age104_m52            0.0000     8.1804E-01     3.1039   1.6018    93.5664
 26      0.0000     0.0000E+00    0.0000E+00    1.015200E+08  0.00800  2.148E-03    0   0.7226   age116_m52            0.0000     1.0215E+00     3.6468   1.5823    91.5569
 27      0.0006     1.0476E-04    1.2874E-04    2.861200E+08  0.00800  9.925E-04    0   0.6683   age125_m52            0.0000     1.1649E+00     4.0755   1.1159    94.6773
 28      0.0000     0.0000E+00    0.0000E+00    9.047900E+08  0.00800  3.141E-04    0   0.6138   age135_m52            0.0000     1.4496E+00     5.0041   0.3799    95.8183
 29      0.0000     0.0000E+00    0.0000E+00    1.434000E+09  0.00800  1.719E-04    0   0.5853   age139_m52            0.0000     1.5781E+00     5.2589  -0.1801    93.0067
 30      0.0000     0.0000E+00    0.0000E+00    2.500000E+09  0.00800  7.872E-05    0   0.5600   age150_m52            0.0000     2.0246E+00     6.3661  -0.3648    86.9431
 31      0.0000     0.0000E+00    0.0000E+00    4.250000E+09  0.00800  4.336E-05    0   0.5426   age158_m52            0.0000     2.0358E+00     6.4242  -0.3734    85.8478
 32      0.0000     0.0000E+00    0.0000E+00    6.250000E+09  0.00800  3.159E-05    0   0.5319   age166_m52            0.0000     2.5094E+00     7.2120  -0.5341    84.2307
 33      0.8005     1.0866E+01    1.0136E+01    1.300000E+10  0.00800  1.361E-05    0   0.5073   age193_m52            0.0000     3.2432E+00     8.2622  -0.9498    81.6620
 34      0.0000     0.0000E+00    0.0000E+00    1.800000E+10  0.00800  9.886E-06    0   0.4990   age213_m52            0.0000     3.8525E+00     9.0963  -1.0000    79.1244
 35      0.0009     1.0517E-05    1.9338E-05    1.000000E+06  0.02000  1.544E-02    0   1.0000   age020_m62            0.0000     2.4704E+00     6.1100   3.0042    76.7558
 36      0.0000     0.0000E+00    0.0000E+00    3.160000E+06  0.02000  3.762E-02    0   0.9858   age045_m62            0.0000     2.4785E+00     6.1014   2.9453    77.3580
 37      0.0000     0.0000E+00    0.0000E+00    5.010000E+06  0.02000  3.296E-02    0   0.9342   age055_m62            0.0000     1.9881E+00     5.3781   2.5433    81.6623
 38     24.5911     3.9365E-01    6.4139E-01    8.710000E+06  0.02000  1.154E-02    0   0.8861   age067_m62            0.0000     1.8534E+00     4.7749   1.2077   101.9803
 39      0.0000     0.0000E+00    0.0000E+00    1.445000E+07  0.02000  7.663E-03    0   0.8472   age078_m62            0.0000     1.0015E+00     3.3942   1.5168    96.0766
 40      0.0000     0.0000E+00    0.0000E+00    2.512000E+07  0.02000  4.532E-03    0   0.8099   age090_m62            0.0000     1.0911E+00     3.4797   1.4931    96.6155
 41      0.0023     1.5326E-04    2.1404E-04    5.500000E+07  0.02000  2.733E-03    0   0.7595   age110_m62            0.0000     7.8588E-01     3.1236   1.5863    92.7983
 42      0.0074     9.9941E-04    1.2836E-03    1.609000E+08  0.02000  1.369E-03    0   0.6985   age120_m62            0.0000     1.0321E+00     3.7799   1.4634    93.6907
 43      1.4094     2.8887E-01    3.5663E-01    2.861200E+08  0.02000  9.013E-04    0   0.6714   age125_m62            0.0000     1.2009E+00     4.1798   1.2297    95.6400
 44      0.0000     0.0000E+00    0.0000E+00    5.088000E+08  0.02000  5.028E-04    0   0.6449   age130_m62            0.0000     1.6250E+00     5.1908   0.9203    95.1061
 45      0.0000     0.0000E+00    0.0000E+00    9.047900E+08  0.02000  2.428E-04    0   0.6179   age135_m62            0.0000     1.6445E+00     5.6193   0.3805    92.5406
 46      0.0008     1.1628E-03    1.2632E-03    1.434000E+09  0.02000  1.263E-04    0   0.5908   age139_m62            0.0000     1.8177E+00     6.0495  -0.0348    89.9287
 47      0.0000     0.0000E+00    0.0000E+00    2.500000E+09  0.02000  5.985E-05    0   0.5673   age150_m62            0.0000     2.4505E+00     7.1722  -0.3344    85.9833
 48      0.0000     0.0000E+00    0.0000E+00    4.250000E+09  0.02000  3.271E-05    0   0.5468   age158_m62            0.0000     3.3235E+00     8.4120  -0.5734    82.6785
 49      0.9124     1.2393E+01    1.1775E+01    1.000000E+10  0.02000  1.360E-05    0   0.5167   age181_m62            0.0000     4.3946E+00     9.7292  -0.8541    79.8568
 50      0.0000     0.0000E+00    0.0000E+00    1.800000E+10  0.02000  7.124E-06    0   0.5013   age213_m62            0.0000     5.2995E+00    10.7461  -1.0000    76.9489
 51      0.0019     1.3687E-05    2.5162E-05    1.000000E+06  0.05000  2.592E-02    0   0.9998   age020_m72            0.0000     2.5039E+00     6.1659   2.9936    76.8389
 52      0.0000     0.0000E+00    0.0000E+00    3.160000E+06  0.05000  4.845E-02    0   0.9577   age045_m72            0.0000     2.3662E+00     5.8943   2.8279    78.4425
 53      0.0000     0.0000E+00    0.0000E+00    5.010000E+06  0.05000  3.072E-02    0   0.9147   age055_m72            0.0000     1.5662E+00     4.2966   2.1907    88.6966
 54      0.0000     0.0000E+00    0.0000E+00    6.610000E+06  0.05000  1.455E-02    0   0.8877   age061_m72            0.0000     6.7052E+00     7.7692   1.1981   106.6361
 55      0.0000     0.0000E+00    0.0000E+00    1.000000E+07  0.05000  9.074E-03    0   0.8524   age070_m72            0.0000     2.8323E+00     5.1028   2.3821    88.4745
 56      0.0000     0.0000E+00    0.0000E+00    2.512000E+07  0.05000  4.250E-03    0   0.7902   age090_m72            0.0000     1.8132E+00     4.1101   2.0495    91.3636
 57      0.0000     0.0000E+00    0.0000E+00    4.000000E+07  0.05000  3.087E-03    0   0.7618   age104_m72            0.0000     1.8210E+00     3.9627   1.7946    94.1376
 58      0.0011     1.1426E-04    1.4908E-04    1.015200E+08  0.05000  1.700E-03    0   0.7096   age116_m72            0.0000     9.9699E-01     3.5340   1.5767    94.6669
 59      1.5661     3.9178E-01    4.7785E-01    2.861200E+08  0.05000  7.384E-04    0   0.6633   age125_m72            0.0000     1.3469E+00     4.6016   1.1300    95.5014
 60     14.8729     7.1941E+00    8.4292E+00    5.088000E+08  0.05000  3.819E-04    0   0.6372   age130_m72            0.0000     1.6258E+00     5.4892   0.7074    93.8663
 61      5.2157     5.7487E+00    6.4587E+00    9.047900E+08  0.05000  1.676E-04    0   0.6110   age135_m72            0.0000     2.4130E+00     7.1443   0.1130    87.9283
 62      0.0000     0.0000E+00    0.0000E+00    1.434000E+09  0.05000  8.837E-05    0   0.5874   age139_m72            0.0000     2.6307E+00     7.4147  -0.3293    87.0193
 63      0.0000     0.0000E+00    0.0000E+00    2.500000E+09  0.05000  4.233E-05    0   0.5598   age150_m72            0.0000     3.6504E+00     8.8293  -0.5537    82.6181
 64      2.5756     3.3156E+01    3.2001E+01    6.250000E+09  0.05000  1.435E-05    0   0.5249   age166_m72            0.0000     4.8499E+00    10.1903  -0.9273    78.6592
 65      0.5432     1.5407E+01    1.4267E+01    1.300000E+10  0.05000  6.513E-06    0   0.5036   age193_m72            0.0000     6.3306E+00    11.8827  -1.0000    71.9636
 66      0.0000     0.0000E+00    0.0000E+00    1.800000E+10  0.05000  4.527E-06    0   0.4945   age213_m72            0.0000     7.7352E+00    13.1909  -1.0000    66.4702


## Synthesis Results - Average & Chains ##

# j      x_j: min, <> & last-chain-values for 1 ...  7 chains
  1      1.7969      2.1778      2.2217      2.1130      2.4037      2.0478      2.0197      1.9260      3.2489
  2      0.0000      0.1446      0.0000      0.0000      0.0000      0.0000      0.0000      0.0822      0.8388
  3      0.0000      0.2516      0.2383      0.0000      0.0000      0.0335      0.0000      0.4310      0.0615
  4      0.0009      0.1278      0.1069      0.4034      0.0000      0.0000      0.0000      0.1066      0.0000
  5      2.8919      2.1114      2.5383      3.0154      2.1287      2.1250      2.0588      2.1818      1.4741
  6      0.6150      0.5684      0.8135      1.2289      0.9701      0.8136      0.2883      0.8679      0.6904
  7      5.0286      2.3952      2.9069      2.4180      3.1440      2.2790      4.1855      2.4777      2.7785
  8      4.0872      2.9842      3.0072      2.0030      3.0905      3.5358      1.3542      4.1804      2.6750
  9      2.6656      1.1613      1.7311      0.8931      1.0688      0.0079      1.2273      1.4878      0.0000
 10      0.0000      0.7262      0.1773      0.2519      0.1599      0.7832      0.7229      0.5802      0.3640
 11      0.0000      0.2081      0.3146      0.0000      0.2406      0.0000      0.0838      0.0000      0.0000
 12      0.0000      0.2678      0.0000      0.0000      0.0404      0.0000      0.0000      0.0000      0.0000
 13     13.1106     12.7716     12.8702     13.0488     13.8808     12.4538     13.6308     12.9660     11.8801
 14      0.5224      2.4210      2.5513      2.6237      2.3639      2.6201      2.6859      2.7002      2.8870
 15      0.0000      0.0437      0.0000      0.0000      0.0000      0.0000      0.0000      0.0765      0.0000
 16      0.0000      0.0711      0.0000      0.0000      0.0000      0.0000      0.0000      0.0389      0.0000
 17      0.0000      0.0386      0.0000      0.0000      0.0000      0.0000      0.0000      0.0680      0.0000
 18      0.0000      0.2105      0.0000      0.0000      0.5701      0.0560      0.0000      0.3962      0.3390
 19      0.0000      0.3084      0.0000      0.3496      0.2930      0.4232      0.1604      0.0000      0.1109
 20      0.0000      0.2448      0.2261      0.0000      0.0000      0.0000      0.6060      0.0000      0.6192
 21      0.0009      0.4406      0.0200      0.6046      0.7149      0.8602      0.2503      0.6055      0.0000
 22      0.0000      0.5750      0.3214      0.3266      0.3255      1.3388      0.5652      0.1579      0.0000
 23      0.5912      1.3440      1.5159      1.2270      1.6920      1.3112      1.4889      1.2094      1.1530
 24     10.5195      7.7505      8.9179     10.1143      8.1985      8.6657      9.3321      8.1879      5.4587
 25      3.6802      3.4391      3.9095      3.3837      3.2929      6.8641      2.8411      3.2715      2.3675
 26      0.0000      0.2372      0.3485      0.2093      0.0000      0.0000      0.0000      0.0000      0.0000
 27      0.0006      0.4078      0.0000      0.8672      0.0000      0.7849      0.0000      0.0000      0.0000
 28      0.0000      0.1627      0.0000      0.0000      0.0008      0.0000      0.0000      0.0000      0.0000
 29      0.0000      0.0808      0.0000      0.0000      0.0000      0.0000      0.0651      0.0000      0.0000
 30      0.0000      0.0353      0.0000      0.0000      0.0000      0.0000      0.0000      0.0843      0.0000
 31      0.0000      0.0362      0.0000      0.0000      0.0000      0.0000      0.0282      0.0000      0.0000
 32      0.0000      0.3138      0.2608      0.0000      0.0000      0.0000      0.2777      0.1832      0.0000
 33      0.8005      0.7661      0.7521      0.8278      0.9580      0.7182      0.6458      0.9341      0.7676
 34      0.0000      0.0166      0.0000      0.0000      0.0000      0.0000      0.0000      0.0000      0.0318
 35      0.0009      0.3485      0.0000      0.6459      0.0000      0.0000      0.3414      0.4674      1.1529
 36      0.0000      0.1781      0.2594      0.0000      0.0000      0.0000      0.0000      0.1356      0.3539
 37      0.0000      0.1866      0.0000      0.2079      0.2123      0.0000      0.3686      0.0000      0.0000
 38     24.5911     19.9201     20.6695     20.8639     21.3466     20.2489     21.6398     20.9216     21.6167
 39      0.0000      0.3557      0.0407      0.1323      0.0089      0.0071      0.5137      0.0000      0.1157
 40      0.0000      0.2345      0.0000      0.2268      0.2637      0.0697      0.0000      0.0675      0.4778
 41      0.0023      0.6735      0.0000      0.6577      1.1797      0.4963      1.0134      0.6523      0.5504
 42      0.0074      1.4121      1.3511      1.3152      2.2303      1.1822      1.4070      1.8196      0.6044
 43      1.4094      4.0129      4.2582      3.5036      0.0000      3.4802      4.2982      4.4955      4.3411
 44      0.0000      0.4476      0.0000      0.0000      0.0000      0.3318      0.0000      0.0000      0.0000
 45      0.0000      0.1956      0.0000      0.0000      0.0000      0.0000      0.3594      0.0000      0.0000
 46      0.0008      2.7646      3.0897      2.7604      2.5688      3.0747      2.9690      2.3877      2.5986
