###################################################################
## OUTPUT of StarlightChains_v04.for    [Cid@UFSC - 01/Apr/2007] ##
###################################################################

## Some input info
2011it.txt                               [arq_obs]
Base.CB07.vall.4m                        [arq_base]
Masks.EmLines.NEW.gm                     [arq_masks]
StCv04.C11.config                        [arq_config]
   66                                    [N_base]
    0                                    [N_YAV_components = # of components with extra extinction!]
    0                                    [i_FitPowerLaw (1/0 = Yes/No)]
-9.99                                    [alpha_PowerLaw]
CCM                                      [red_law_option]
 1.458241                                [q_norm = A(l_norm)/A(V)]

## (Re)Sampling Parameters
 3741.00                                 [l_ini (A)]
 7218.00                                 [l_fin (A)]
    1.00                                 [dl    (A)]     (OBS: dl_cushion =    50.00 A)

## Normalization info
 4020.00                                 [l_norm (A) - for base]
 4010.00                                 [llow_norm (A) - window for f_obs]
 4060.00                                 [lupp_norm (A) - window for f_obs]
2.173559E-16                             [fobs_norm (in input units)]

## S/N
 3691.00                                 [llow_SN (A) - window for S/N]
 7268.00                                 [lupp_SN (A) - window for S/N]
   7.543                                 [S/N in S/N window]
   9.331                                 [S/N in norm. window]
  17.087                                 [S/N_err in S/N window]
  21.137                                 [S/N_err in norm. window]
  1.0000                                 [fscale_chi2]

## etc...
    -2007382                             [idum_orig]
  2383                                   [NOl_eff]
  2373                                   [Nl_eff]
    10    NSIGMA                         [Ntot_cliped & clip_method]
  1661310                                [Nglobal_steps]
   7                                     [N_chains]
  26                                     [NEX0s_base = N_base in EX0s-fits]
 0   0   1        0   2.0   4.589E+01    [Clip-Bug, RC-Crash & Burn-In warning-flags, n_censored_weights, wei_nsig_threshold & wei_limit]
    16     15.726     15.222      0.505  [idt_all, wdt_TotTime, wdt_UsrTime & wdt_SysTime (sec)]

## Synthesis Results - Best model ##

 3.41918E-01                             [chi2/Nl_eff]
     2.58862                             [adev (%)]

   102.11830                             [sum-of-x (%)]
 5.92813E-16                             [Flux_tot (units of input spectrum!)]
 1.38549E-12                             [Mini_tot (???)]
 8.18669E-13                             [Mcor_tot (???)]

 -83.31                                  [v0_min  (km/s)]
 146.86                                  [vd_min  (km/s)]
 0.7314                                  [AV_min  (mag)]
 0.0000                                  [YAV_min (mag)]

# j     x_j(%)      Mini_j(%)     Mcor_j(%)     age_j(yr)     Z_j      (L/M)_j    YAV?  Mstars   component_j        a/Fe...       SSP_chi2r SSP_adev(%)   SSP_AV   SSP_x(%)
  1      5.9035     2.2610E-01    3.8265E-01    1.000000E+06  0.00400  1.094E-02    0   1.0000   age020_m42            0.0000     1.1502E+00     5.2795   2.6652    84.2272
  2      7.0312     7.3523E-02    1.2442E-01    3.160000E+06  0.00400  4.007E-02    0   0.9999   age045_m42            0.0000     7.4278E-01     3.9927   1.9084    91.5353
  3      0.7981     1.3171E-02    2.1149E-02    5.010000E+06  0.00400  2.539E-02    0   0.9488   age055_m42            0.0000     8.5406E-01     4.4037   2.2373    88.8497
  4      1.6883     2.6999E-02    4.2129E-02    6.610000E+06  0.00400  2.620E-02    0   0.9220   age061_m42            0.0000     6.7480E-01     3.7957   1.8248    92.2219
  5      0.0000     0.0000E+00    0.0000E+00    1.000000E+07  0.00400  1.322E-02    0   0.8862   age070_m42            0.0000     5.1976E-01     3.1363   1.4891    96.8190
  6      0.0000     0.0000E+00    0.0000E+00    1.445000E+07  0.00400  7.883E-03    0   0.8571   age078_m42            0.0000     6.1173E-01     3.5191   1.8321    93.5927
  7      1.0699     8.5370E-02    1.1810E-01    2.512000E+07  0.00400  5.251E-03    0   0.8174   age090_m42            0.0000     5.1406E-01     3.0622   1.3452    98.0571
  8      1.5760     1.8097E-01    2.4045E-01    4.000000E+07  0.00400  3.649E-03    0   0.7851   age104_m42            0.0000     4.5776E-01     2.8811   1.1173    98.8971
  9      0.0000     0.0000E+00    0.0000E+00    5.500000E+07  0.00400  3.098E-03    0   0.7629   age110_m42            0.0000     4.6365E-01     2.9614   1.2912    97.9143
 10      0.0000     0.0000E+00    0.0000E+00    1.015200E+08  0.00400  2.228E-03    0   0.7207   age116_m42            0.0000     5.1893E-01     3.1619   1.3228    97.5527
 11      5.5348     2.1218E+00    2.3872E+00    2.861200E+08  0.00400  1.093E-03    0   0.6648   age125_m42            0.0000     5.0078E-01     3.1047   0.7334   101.7632
 12      6.3369     4.0248E+00    4.3354E+00    5.088000E+08  0.00400  6.597E-04    0   0.6365   age130_m42            0.0000     5.6652E-01     3.2530   0.7444   101.5041
 13      0.0000     0.0000E+00    0.0000E+00    1.434000E+09  0.00400  2.132E-04    0   0.5798   age139_m42            0.0000     5.8995E-01     3.3453  -0.2204   103.0570
 14      0.0000     0.0000E+00    0.0000E+00    4.250000E+09  0.00400  5.895E-05    0   0.5377   age158_m42            0.0000     8.1883E-01     4.2312  -0.5999    96.0727
 15      3.3820     4.0371E+01    3.5610E+01    7.500000E+09  0.00400  3.510E-05    0   0.5212   age171_m42            0.0000     1.0412E+00     4.8014  -0.7625    94.3184
 16      0.0000     0.0000E+00    0.0000E+00    1.300000E+10  0.00400  2.005E-05    0   0.5034   age193_m42            0.0000     1.2855E+00     5.3654  -0.9032    92.7664
 17      0.0000     0.0000E+00    0.0000E+00    1.800000E+10  0.00400  1.525E-05    0   0.4967   age213_m42            0.0000     1.2398E+00     5.2633  -0.9311    92.5520
 18      3.8415     1.3002E-01    2.2003E-01    1.000000E+06  0.00800  1.238E-02    0   1.0000   age020_m52            0.0000     1.1492E+00     5.2833   2.6616    84.3870
 19      1.7607     2.3999E-02    4.0477E-02    3.160000E+06  0.00800  3.074E-02    0   0.9966   age045_m52            0.0000     1.1056E+00     5.1887   2.5831    85.2035
 20      0.1523     2.3921E-03    3.8228E-03    5.010000E+06  0.00800  2.668E-02    0   0.9443   age055_m52            0.0000     8.7949E-01     4.5209   2.3200    88.0142
 21      4.8901     9.5925E-02    1.4898E-01    6.610000E+06  0.00800  2.136E-02    0   0.9177   age061_m52            0.0000     4.8385E-01     3.1436   1.0007    97.2674
 22      0.0000     0.0000E+00    0.0000E+00    1.000000E+07  0.00800  1.215E-02    0   0.8827   age070_m52            0.0000     5.8024E-01     3.3378   1.6608    97.0332
 23      0.0000     0.0000E+00    0.0000E+00    1.445000E+07  0.00800  8.717E-03    0   0.8552   age078_m52            0.0000     5.6045E-01     3.3314   1.7909    95.2007
 24      0.0083     6.2173E-04    8.5880E-04    2.512000E+07  0.00800  5.592E-03    0   0.8162   age090_m52            0.0000     4.9493E-01     2.9890   1.4045    99.4989
 25      3.3444     3.5967E-01    4.7728E-01    4.000000E+07  0.00800  3.896E-03    0   0.7841   age104_m52            0.0000     4.3995E-01     2.8393   1.3232   100.0067
 26      0.0099     1.9269E-03    2.3564E-03    1.015200E+08  0.00800  2.148E-03    0   0.7226   age116_m52            0.0000     4.4285E-01     2.9087   1.2802    98.8937
 27      0.0043     1.8285E-03    2.0681E-03    2.861200E+08  0.00800  9.925E-04    0   0.6683   age125_m52            0.0000     5.4908E-01     3.1712   0.8062   102.6113
 28      7.0924     9.4610E+00    9.8278E+00    9.047900E+08  0.00800  3.141E-04    0   0.6138   age135_m52            0.0000     7.5474E-01     3.8370   0.0431   105.0940
 29      0.0000     0.0000E+00    0.0000E+00    1.434000E+09  0.00800  1.719E-04    0   0.5853   age139_m52            0.0000     8.4618E-01     4.1812  -0.5188   101.9970
 30      0.0000     0.0000E+00    0.0000E+00    2.500000E+09  0.00800  7.872E-05    0   0.5600   age150_m52            0.0000     1.2014E+00     5.1509  -0.7350    96.6750
 31      0.0000     0.0000E+00    0.0000E+00    4.250000E+09  0.00800  4.336E-05    0   0.5426   age158_m52            0.0000     1.2176E+00     5.1892  -0.7446    95.4958
 32      0.0000     0.0000E+00    0.0000E+00    6.250000E+09  0.00800  3.159E-05    0   0.5319   age166_m52            0.0000     1.5930E+00     5.9946  -0.9172    94.1766
 33      0.0000     0.0000E+00    0.0000E+00    1.300000E+10  0.00800  1.361E-05    0   0.5073   age193_m52            0.0000     3.2098E+00     9.2210  -1.0000    78.6267
 34      0.0000     0.0000E+00    0.0000E+00    1.800000E+10  0.00800  9.886E-06    0   0.4990   age213_m52            0.0000     4.0872E+00    10.5188  -1.0000    74.4409
 35      0.0000     0.0000E+00    0.0000E+00    1.000000E+06  0.02000  1.544E-02    0   1.0000   age020_m62            0.0000     1.1603E+00     5.3207   2.6584    84.5437
 36      0.0000     0.0000E+00    0.0000E+00    3.160000E+06  0.02000  3.762E-02    0   0.9858   age045_m62            0.0000     1.1467E+00     5.3033   2.5986    85.2395
 37      0.0000     0.0000E+00    0.0000E+00    5.010000E+06  0.02000  3.296E-02    0   0.9342   age055_m62            0.0000     8.1095E-01     4.2908   2.1966    89.9840
 38      4.0952     1.4869E-01    2.2298E-01    8.710000E+06  0.02000  1.154E-02    0   0.8861   age067_m62            0.0000     1.7859E+00     5.8925   1.0318   104.1096
 39      4.9954     2.7314E-01    3.9162E-01    1.445000E+07  0.02000  7.663E-03    0   0.8472   age078_m62            0.0000     7.3348E-01     3.7466   1.2822   100.6730
 40      0.0000     0.0000E+00    0.0000E+00    2.512000E+07  0.02000  4.532E-03    0   0.8099   age090_m62            0.0000     8.0455E-01     3.9084   1.2652   100.9236
 41      0.0000     0.0000E+00    0.0000E+00    5.500000E+07  0.02000  2.733E-03    0   0.7595   age110_m62            0.0000     4.5815E-01     2.8896   1.3090    99.1035
 42      0.0000     0.0000E+00    0.0000E+00    1.609000E+08  0.02000  1.369E-03    0   0.6985   age120_m62            0.0000     5.1816E-01     3.0710   1.1611   101.1970
 43      0.0000     0.0000E+00    0.0000E+00    2.861200E+08  0.02000  9.013E-04    0   0.6714   age125_m62            0.0000     6.4091E-01     3.3300   0.9135   103.9473
 44      0.0064     5.3287E-03    5.8158E-03    5.088000E+08  0.02000  5.028E-04    0   0.6449   age130_m62            0.0000     8.3371E-01     3.8596   0.5727   104.8323
 45      5.8888     1.0162E+01    1.0627E+01    9.047900E+08  0.02000  2.428E-04    0   0.6179   age135_m62            0.0000     9.0464E-01     4.2814   0.0213   102.4957
 46      0.0000     0.0000E+00    0.0000E+00    1.434000E+09  0.02000  1.263E-04    0   0.5908   age139_m62            0.0000     1.0964E+00     4.8133  -0.4016    99.8902
 47      0.0000     0.0000E+00    0.0000E+00    2.500000E+09  0.02000  5.985E-05    0   0.5673   age150_m62            0.0000     1.5551E+00     5.9470  -0.7206    96.2931
 48      0.0000     0.0000E+00    0.0000E+00    4.250000E+09  0.02000  3.271E-05    0   0.5468   age158_m62            0.0000     2.2230E+00     7.2774  -0.9806    93.4382
 49      0.0000     0.0000E+00    0.0000E+00    1.000000E+10  0.02000  1.360E-05    0   0.5167   age181_m62            0.0000     3.7217E+00     9.7636  -1.0000    80.2843
 50      0.0000     0.0000E+00    0.0000E+00    1.800000E+10  0.02000  7.124E-06    0   0.5013   age213_m62            0.0000     5.2826E+00    11.9101  -1.0000    72.3464
 51      3.3995     5.4953E-02    9.2982E-02    1.000000E+06  0.05000  2.592E-02    0   0.9998   age020_m72            0.0000     1.2009E+00     5.4357   2.6511    84.5056
 52      0.0000     0.0000E+00    0.0000E+00    3.160000E+06  0.05000  4.845E-02    0   0.9577   age045_m72            0.0000     1.0364E+00     4.9705   2.4752    86.6665
 53      0.0006     8.5428E-06    1.3224E-05    5.010000E+06  0.05000  3.072E-02    0   0.9147   age055_m72            0.0000     7.6501E-01     4.1438   1.9298    94.0369
 54      0.0000     0.0000E+00    0.0000E+00    6.610000E+06  0.05000  1.455E-02    0   0.8877   age061_m72            0.0000     3.3843E+00     8.3199   1.0852   105.8964
 55      0.0000     0.0000E+00    0.0000E+00    1.000000E+07  0.05000  9.074E-03    0   0.8524   age070_m72            0.0000     1.0696E+00     4.9955   2.1427    92.9832
 56      0.0000     0.0000E+00    0.0000E+00    2.512000E+07  0.05000  4.250E-03    0   0.7902   age090_m72            0.0000     7.6393E-01     3.9746   1.7991    96.4386
 57      0.0000     0.0000E+00    0.0000E+00    4.000000E+07  0.05000  3.087E-03    0   0.7618   age104_m72            0.0000     7.8586E-01     3.9105   1.5507    99.0560
 58      0.0000     0.0000E+00    0.0000E+00    1.015200E+08  0.05000  1.700E-03    0   0.7096   age116_m72            0.0000     5.2023E-01     3.1077   1.2912   101.4832
 59      0.0000     0.0000E+00    0.0000E+00    2.861200E+08  0.05000  7.384E-04    0   0.6633   age125_m72            0.0000     7.2241E-01     3.5256   0.7983   104.5117
 60     29.3076     3.2155E+01    3.4675E+01    5.088000E+08  0.05000  3.819E-04    0   0.6372   age130_m72            0.0000     8.7971E-01     4.1930   0.3438   104.1862
 61      0.0000     0.0000E+00    0.0000E+00    9.047900E+08  0.05000  1.676E-04    0   0.6110   age135_m72            0.0000     1.4546E+00     5.8040  -0.2801    98.8091
 62      0.0000     0.0000E+00    0.0000E+00    1.434000E+09  0.05000  8.837E-05    0   0.5874   age139_m72            0.0000     1.7520E+00     6.2783  -0.7190    97.5996
 63      0.0000     0.0000E+00    0.0000E+00    2.500000E+09  0.05000  4.233E-05    0   0.5598   age150_m72            0.0000     2.4838E+00     7.7176  -0.9675    93.6266
 64      0.0000     0.0000E+00    0.0000E+00    6.250000E+09  0.05000  1.435E-05    0   0.5249   age166_m72            0.0000     4.4081E+00    10.8174  -1.0000    76.4670
 65      0.0000     0.0000E+00    0.0000E+00    1.300000E+10  0.05000  6.513E-06    0   0.5036   age193_m72            0.0000     6.8120E+00    13.8023  -1.0000    67.8164
 66      0.0000     0.0000E+00    0.0000E+00    1.800000E+10  0.05000  4.527E-06    0   0.4945   age213_m72            0.0000     8.4575E+00    15.6412  -1.0000    62.7684


## Synthesis Results - Average & Chains ##

# j      x_j: min, <> & last-chain-values for 1 ...  7 chains
  1      5.9035      0.9453      0.9235      2.1250      0.7269      0.8896      1.5852      0.0529      2.7462
  2      7.0312      2.4272      6.2293      0.0000      3.8730      3.1294      2.9253      2.2780      2.0150
  3      0.7981      0.3905      1.2206      0.0000      0.0731      0.0000      0.6421      0.0000      0.0000
  4      1.6883      0.2421      0.4902      1.0468      0.0000      0.6068      0.4629      0.1568      0.0000
  5      0.0000      0.3162      0.2135      0.0000      0.0000      0.0000      0.0000      0.0000      0.0000
  6      0.0000      0.2040      0.0000      0.0000      0.0000      0.0000      0.9263      0.2307      0.9911
  7      1.0699      0.6740      1.6187      0.1997      0.0000      0.7723      0.5012      0.4705      0.0000
  8      1.5760      2.6557      4.9836      3.7245      0.0000      4.0467      2.7058      4.3446      2.2172
  9      0.0000      0.6419      0.0000      1.5911      0.0000      0.8746      0.0000      0.0000      1.3717
 10      0.0000      0.5006      0.0000      0.0000      0.1968      0.0000      0.0000      0.0000      0.0000
 11      5.5348      2.8743      2.3821      4.9104      7.9849      2.6910      3.6113      0.0000      3.5861
 12      6.3369      3.0817      6.0384      1.9977      2.4813      2.9940      6.6885      3.5498      0.6740
 13      0.0000      0.4394      0.0000      0.8495      0.0000      0.8635      0.1431      0.0000      1.5262
 14      0.0000      0.2657      0.0000      0.4481      0.0000      0.5893      0.5022      1.4309      0.0000
 15      3.3820      1.2487      1.6133      1.6932      1.2621      1.4796      1.1248      0.8924      1.4379
 16      0.0000      0.0250      0.0000      0.0000      0.0000      0.0000      0.0000      0.0000      0.0000
 17      0.0000      0.0203      0.0000      0.0000      0.0000      0.0000      0.0000      0.0000      0.0984
 18      3.8415      1.6703      1.3663      1.5775      1.5928      2.1600      1.7965      1.0806      3.0949
 19      1.7607      1.0372      0.6638      2.4699      0.0000      2.1120      0.9781      2.0853      1.2028
 20      0.1523      1.2682      1.2750      2.2847      1.7472      0.6236      1.0415      1.4837      1.6279
 21      4.8901     14.5467     16.6667     12.9512     15.5411     14.8718     13.4625     15.5613     10.5281
 22      0.0000      0.4074      0.0000      0.6736      0.5034      1.2111      0.9609      1.1593      1.0966
 23      0.0000      0.3462      0.3269      0.3268      0.0000      0.1928      0.2123      0.6358      0.9076
 24      0.0083      1.8563      1.3485      2.6369      3.2223      1.2364      1.8303      0.2102      4.0993
 25      3.3444      4.4810      4.0206      2.4688      3.7242      4.9621      4.7472      4.4365      7.2849
 26      0.0099      1.0477      0.8580      0.0000      2.0809      0.0000      0.5877      1.3966      0.0000
 27      0.0043      1.7841      1.0673      0.0000      0.0000      0.0000      0.0000      0.1510      0.7569
 28      7.0924      3.7495      5.6438      2.9997      4.2829      3.7587      4.8613      2.8122      4.3466
 29      0.0000      0.1234      0.3543      0.0000      0.0000      0.0000      0.0137      0.0668      0.0000
 30      0.0000      0.1012      0.0000      0.0000      0.0000      0.0000      0.3196      0.0000      0.0000
 31      0.0000      0.0254      0.0000      0.0000      0.0000      0.0000      0.0000      0.0000      0.0000
 32      0.0000      0.0799      0.0000      0.0000      0.0000      0.0000      0.0000      0.2440      0.0000
 33      0.0000      0.0034      0.1205      0.0000      0.0000      0.0000      0.0000      0.0000      0.0000
 34      0.0000      0.0039      0.0000      0.0000      0.0000      0.0000      0.0000      0.0000      0.0000
 35      0.0000      0.3034      0.0000      0.0000      0.0000      0.2532      1.3632      1.5923      0.7727
 36      0.0000      0.1434      0.0000      0.0000      0.5231      0.0000      0.2757      0.0000      0.0000
 37      0.0000      0.2158      0.0000      0.6664      0.0000      0.0000      0.3424      0.3240      0.0000
 38      4.0952      6.1267      3.8923      6.1623      7.0187      6.0256      6.0670      6.6951      5.0960
 39      4.9954      4.7201      4.5885      4.5936      6.2038      4.1899      3.4521      6.0397      2.9170
 40      0.0000      0.7716      0.0000      1.6056      0.0000      0.0000      0.5190      0.5440      0.0000
 41      0.0000      1.1273      0.0000      0.0000      0.0000      2.6420      0.0000      0.0000      0.9460
 42      0.0000      0.4180      0.3095      0.0000      0.0000      0.0000      0.0000      0.0000      0.0000
 43      0.0000      0.6899      0.0000      0.0000      0.5823      0.0000      0.0000      0.0000      0.0000
 44      0.0064      5.1452      0.7673      7.1511      6.5510      6.2211      6.9347      6.4351      3.2773
 45      5.8888      8.4256      9.0487      9.5898      9.7095      8.3157      8.2021      8.6463     12.0697
 46      0.0000      0.0681      0.0000      0.0000      0.0000      0.0000      0.0398      0.0000      0.0000
