###################################################################
## OUTPUT of StarlightChains_v04.for    [Cid@UFSC - 01/Apr/2007] ##
###################################################################

## Some input info
2011io.txt                               [arq_obs]
Base.CB07.vall.4m                        [arq_base]
Masks.EmLines.NEW.gm                     [arq_masks]
StCv04.C11.config                        [arq_config]
   66                                    [N_base]
    0                                    [N_YAV_components = # of components with extra extinction!]
    0                                    [i_FitPowerLaw (1/0 = Yes/No)]
-9.99                                    [alpha_PowerLaw]
CCM                                      [red_law_option]
 1.458241                                [q_norm = A(l_norm)/A(V)]

## (Re)Sampling Parameters
 3741.00                                 [l_ini (A)]
 7218.00                                 [l_fin (A)]
    1.00                                 [dl    (A)]     (OBS: dl_cushion =    50.00 A)

## Normalization info
 4020.00                                 [l_norm (A) - for base]
 4010.00                                 [llow_norm (A) - window for f_obs]
 4060.00                                 [lupp_norm (A) - window for f_obs]
3.926082E-19                             [fobs_norm (in input units)]

## S/N
 3691.00                                 [llow_SN (A) - window for S/N]
 7268.00                                 [lupp_SN (A) - window for S/N]
   1.218                                 [S/N in S/N window]
   0.813                                 [S/N in norm. window]
   0.819                                 [S/N_err in S/N window]
   0.547                                 [S/N_err in norm. window]
  1.0000                                 [fscale_chi2]

## etc...
    -2007381                             [idum_orig]
  1572                                   [NOl_eff]
  1562                                   [Nl_eff]
    10    NSIGMA                         [Ntot_cliped & clip_method]
   303240                                [Nglobal_steps]
   7                                     [N_chains]
  15                                     [NEX0s_base = N_base in EX0s-fits]
 0   0   1       23   2.0   2.376E+00    [Clip-Bug, RC-Crash & Burn-In warning-flags, n_censored_weights, wei_nsig_threshold & wei_limit]
    10     10.268      9.768      0.500  [idt_all, wdt_TotTime, wdt_UsrTime & wdt_SysTime (sec)]

## Synthesis Results - Best model ##

 3.61032E-01                             [chi2/Nl_eff]
   273.31262                             [adev (%)]

   130.00000                             [sum-of-x (%)]
 1.45625E-17                             [Flux_tot (units of input spectrum!)]
 1.33112E-15                             [Mini_tot (???)]
 1.33112E-15                             [Mcor_tot (???)]

 278.62                                  [v0_min  (km/s)]
   0.51                                  [vd_min  (km/s)]
 2.4950                                  [AV_min  (mag)]
 0.0000                                  [YAV_min (mag)]

# j     x_j(%)      Mini_j(%)     Mcor_j(%)     age_j(yr)     Z_j      (L/M)_j    YAV?  Mstars   component_j        a/Fe...       SSP_chi2r SSP_adev(%)   SSP_AV   SSP_x(%)
  1    130.0000     1.0000E+02    1.0000E+02    1.000000E+06  0.00400  1.094E-02    0   1.0000   age020_m42            0.0000     3.4949E-01   282.6646   1.7813   177.9707
  2      0.0000     0.0000E+00    0.0000E+00    3.160000E+06  0.00400  4.007E-02    0   0.9999   age045_m42            0.0000     3.5265E-01   283.5884   1.1323   184.6397
  3      0.0000     0.0000E+00    0.0000E+00    5.010000E+06  0.00400  2.539E-02    0   0.9488   age055_m42            0.0000     3.5094E-01   283.1629   1.4183   182.6462
  4      0.0000     0.0000E+00    0.0000E+00    6.610000E+06  0.00400  2.620E-02    0   0.9220   age061_m42            0.0000     3.5252E-01   283.7894   1.0665   184.7596
  5      0.0000     0.0000E+00    0.0000E+00    1.000000E+07  0.00400  1.322E-02    0   0.8862   age070_m42            0.0000     3.4974E-01   285.3540   0.7727   191.1087
  6      0.0000     0.0000E+00    0.0000E+00    1.445000E+07  0.00400  7.883E-03    0   0.8571   age078_m42            0.0000     3.4907E-01   285.1523   1.0852   187.2343
  7      0.0000     0.0000E+00    0.0000E+00    2.512000E+07  0.00400  5.251E-03    0   0.8174   age090_m42            0.0000     3.4959E-01   285.9585   0.6476   192.1601
  8      0.0000     0.0000E+00    0.0000E+00    4.000000E+07  0.00400  3.649E-03    0   0.7851   age104_m42            0.0000     3.5055E-01   286.0467   0.4347   192.4972
  9      0.0000     0.0000E+00    0.0000E+00    5.500000E+07  0.00400  3.098E-03    0   0.7629   age110_m42            0.0000     3.5256E-01   285.3537   0.6097   190.2208
 10      0.0000     0.0000E+00    0.0000E+00    1.015200E+08  0.00400  2.228E-03    0   0.7207   age116_m42            0.0000     3.5422E-01   284.9715   0.6431   189.1137
 11      0.0000     0.0000E+00    0.0000E+00    2.861200E+08  0.00400  1.093E-03    0   0.6648   age125_m42            0.0000     3.5518E-01   285.2793   0.0990   193.3359
 12      0.0000     0.0000E+00    0.0000E+00    5.088000E+08  0.00400  6.597E-04    0   0.6365   age130_m42            0.0000     3.5745E-01   284.6673   0.1072   192.7642
 13      0.0000     0.0000E+00    0.0000E+00    1.434000E+09  0.00400  2.132E-04    0   0.5798   age139_m42            0.0000     3.5985E-01   284.9927  -0.8371   193.8622
 14      0.0000     0.0000E+00    0.0000E+00    4.250000E+09  0.00400  5.895E-05    0   0.5377   age158_m42            0.0000     3.6193E-01   286.1470  -1.0000   168.0001
 15      0.0000     0.0000E+00    0.0000E+00    7.500000E+09  0.00400  3.510E-05    0   0.5212   age171_m42            0.0000     3.6585E-01   286.5231  -1.0000   155.0771
 16      0.0000     0.0000E+00    0.0000E+00    1.300000E+10  0.00400  2.005E-05    0   0.5034   age193_m42            0.0000     3.7016E-01   286.7068  -1.0000   144.3329
 17      0.0000     0.0000E+00    0.0000E+00    1.800000E+10  0.00400  1.525E-05    0   0.4967   age213_m42            0.0000     3.7047E-01   286.9955  -1.0000   142.4025
 18      0.0000     0.0000E+00    0.0000E+00    1.000000E+06  0.00800  1.238E-02    0   1.0000   age020_m52            0.0000     3.4955E-01   282.6335   1.7773   178.3123
 19      0.0000     0.0000E+00    0.0000E+00    3.160000E+06  0.00800  3.074E-02    0   0.9966   age045_m52            0.0000     3.4970E-01   282.7307   1.7065   179.4985
 20      0.0000     0.0000E+00    0.0000E+00    5.010000E+06  0.00800  2.668E-02    0   0.9443   age055_m52            0.0000     3.5032E-01   283.2982   1.4877   181.9730
 21      0.0000     0.0000E+00    0.0000E+00    6.610000E+06  0.00800  2.136E-02    0   0.9177   age061_m52            0.0000     3.4993E-01   284.8507   0.2723   193.0052
 22      0.0000     0.0000E+00    0.0000E+00    1.000000E+07  0.00800  1.215E-02    0   0.8827   age070_m52            0.0000     3.4867E-01   285.7881   0.9432   191.7843
 23      0.0000     0.0000E+00    0.0000E+00    1.445000E+07  0.00800  8.717E-03    0   0.8552   age078_m52            0.0000     3.4925E-01   285.2644   1.0510   189.7622
 24      0.0000     0.0000E+00    0.0000E+00    2.512000E+07  0.00800  5.592E-03    0   0.8162   age090_m52            0.0000     3.4992E-01   286.1623   0.7207   193.7623
 25      0.0000     0.0000E+00    0.0000E+00    4.000000E+07  0.00800  3.896E-03    0   0.7841   age104_m52            0.0000     3.5137E-01   285.9612   0.6552   193.2891
 26      0.0000     0.0000E+00    0.0000E+00    1.015200E+08  0.00800  2.148E-03    0   0.7226   age116_m52            0.0000     3.5350E-01   285.2616   0.6143   190.7304
 27      0.0000     0.0000E+00    0.0000E+00    2.861200E+08  0.00800  9.925E-04    0   0.6683   age125_m52            0.0000     3.5785E-01   285.0096   0.1877   193.6016
 28      0.0000     0.0000E+00    0.0000E+00    9.047900E+08  0.00800  3.141E-04    0   0.6138   age135_m52            0.0000     3.6274E-01   284.2452  -0.5580   196.1662
 29      0.0000     0.0000E+00    0.0000E+00    1.434000E+09  0.00800  1.719E-04    0   0.5853   age139_m52            0.0000     3.6269E-01   285.5942  -1.0000   182.8883
 30      0.0000     0.0000E+00    0.0000E+00    2.500000E+09  0.00800  7.872E-05    0   0.5600   age150_m52            0.0000     3.6741E-01   286.1042  -1.0000   160.2180
 31      0.0000     0.0000E+00    0.0000E+00    4.250000E+09  0.00800  4.336E-05    0   0.5426   age158_m52            0.0000     3.6750E-01   286.0696  -1.0000   157.7972
 32      0.0000     0.0000E+00    0.0000E+00    6.250000E+09  0.00800  3.159E-05    0   0.5319   age166_m52            0.0000     3.7347E-01   286.2912  -1.0000   145.2894
 33      0.0000     0.0000E+00    0.0000E+00    1.300000E+10  0.00800  1.361E-05    0   0.5073   age193_m52            0.0000     3.8843E-01   286.5793  -1.0000   118.4645
 34      0.0000     0.0000E+00    0.0000E+00    1.800000E+10  0.00800  9.886E-06    0   0.4990   age213_m52            0.0000     3.9357E-01   285.8943  -1.0000   112.2085
 35      0.0000     0.0000E+00    0.0000E+00    1.000000E+06  0.02000  1.544E-02    0   1.0000   age020_m62            0.0000     3.4957E-01   282.5948   1.7731   178.7416
 36      0.0000     0.0000E+00    0.0000E+00    3.160000E+06  0.02000  3.762E-02    0   0.9858   age045_m62            0.0000     3.4957E-01   282.5512   1.7079   180.6276
 37      0.0000     0.0000E+00    0.0000E+00    5.010000E+06  0.02000  3.296E-02    0   0.9342   age055_m62            0.0000     3.5192E-01   283.2825   1.3931   183.6912
 38      0.0000     0.0000E+00    0.0000E+00    8.710000E+06  0.02000  1.154E-02    0   0.8861   age067_m62            0.0000     3.4433E-01   288.7779   0.3630   202.9254
 39      0.0000     0.0000E+00    0.0000E+00    1.445000E+07  0.02000  7.663E-03    0   0.8472   age078_m62            0.0000     3.4761E-01   286.8077   0.5900   197.1396
 40      0.0000     0.0000E+00    0.0000E+00    2.512000E+07  0.02000  4.532E-03    0   0.8099   age090_m62            0.0000     3.4783E-01   287.0497   0.5846   196.5760
 41      0.0000     0.0000E+00    0.0000E+00    5.500000E+07  0.02000  2.733E-03    0   0.7595   age110_m62            0.0000     3.5105E-01   285.8858   0.6293   192.5231
 42      0.0000     0.0000E+00    0.0000E+00    1.609000E+08  0.02000  1.369E-03    0   0.6985   age120_m62            0.0000     3.5542E-01   285.2560   0.5183   193.1131
 43      0.0000     0.0000E+00    0.0000E+00    2.861200E+08  0.02000  9.013E-04    0   0.6714   age125_m62            0.0000     3.5863E-01   285.2224   0.3037   195.3515
 44      0.0000     0.0000E+00    0.0000E+00    5.088000E+08  0.02000  5.028E-04    0   0.6449   age130_m62            0.0000     3.6272E-01   284.2770  -0.0322   196.1307
 45      0.0000     0.0000E+00    0.0000E+00    9.047900E+08  0.02000  2.428E-04    0   0.6179   age135_m62            0.0000     3.6359E-01   283.2926  -0.6104   193.6484
 46      0.0000     0.0000E+00    0.0000E+00    1.434000E+09  0.02000  1.263E-04    0   0.5908   age139_m62            0.0000     3.6418E-01   283.5042  -1.0000   186.7744
 47      0.0000     0.0000E+00    0.0000E+00    2.500000E+09  0.02000  5.985E-05    0   0.5673   age150_m62            0.0000     3.6972E-01   285.1841  -1.0000   160.3234
 48      0.0000     0.0000E+00    0.0000E+00    4.250000E+09  0.02000  3.271E-05    0   0.5468   age158_m62            0.0000     3.7879E-01   285.5858  -1.0000   140.2648
 49      0.0000     0.0000E+00    0.0000E+00    1.000000E+10  0.02000  1.360E-05    0   0.5167   age181_m62            0.0000     3.9151E-01   285.4273  -1.0000   120.2967
 50      0.0000     0.0000E+00    0.0000E+00    1.800000E+10  0.02000  7.124E-06    0   0.5013   age213_m62            0.0000     4.0036E-01   284.8703  -1.0000   108.6900
 51      0.0000     0.0000E+00    0.0000E+00    1.000000E+06  0.05000  2.592E-02    0   0.9998   age020_m72            0.0000     3.4926E-01   282.6041   1.7567   179.3552
 52      0.0000     0.0000E+00    0.0000E+00    3.160000E+06  0.05000  4.845E-02    0   0.9577   age045_m72            0.0000     3.5049E-01   282.7341   1.6142   181.3067
 53      0.0000     0.0000E+00    0.0000E+00    5.010000E+06  0.05000  3.072E-02    0   0.9147   age055_m72            0.0000     3.4856E-01   285.0963   1.1656   189.4294
 54      0.0000     0.0000E+00    0.0000E+00    6.610000E+06  0.05000  1.455E-02    0   0.8877   age061_m72            0.0000     3.4479E-01   289.1485   0.4279   205.6120
 55      0.0000     0.0000E+00    0.0000E+00    1.000000E+07  0.05000  9.074E-03    0   0.8524   age070_m72            0.0000     3.4984E-01   284.9191   1.3731   187.8109
 56      0.0000     0.0000E+00    0.0000E+00    2.512000E+07  0.05000  4.250E-03    0   0.7902   age090_m72            0.0000     3.5037E-01   285.7028   1.0916   189.6064
 57      0.0000     0.0000E+00    0.0000E+00    4.000000E+07  0.05000  3.087E-03    0   0.7618   age104_m72            0.0000     3.5112E-01   286.3264   0.8742   192.0838
 58      0.0000     0.0000E+00    0.0000E+00    1.015200E+08  0.05000  1.700E-03    0   0.7096   age116_m72            0.0000     3.5431E-01   285.7177   0.6467   193.8263
 59      0.0000     0.0000E+00    0.0000E+00    2.861200E+08  0.05000  7.384E-04    0   0.6633   age125_m72            0.0000     3.6109E-01   284.8483   0.2055   194.8077
 60      0.0000     0.0000E+00    0.0000E+00    5.088000E+08  0.05000  3.819E-04    0   0.6372   age130_m72            0.0000     3.6369E-01   283.7286  -0.2624   194.9237
 61      0.0000     0.0000E+00    0.0000E+00    9.047900E+08  0.05000  1.676E-04    0   0.6110   age135_m72            0.0000     3.6698E-01   281.6953  -0.9455   189.1136
 62      0.0000     0.0000E+00    0.0000E+00    1.434000E+09  0.05000  8.837E-05    0   0.5874   age139_m72            0.0000     3.7142E-01   285.0888  -1.0000   162.3358
 63      0.0000     0.0000E+00    0.0000E+00    2.500000E+09  0.05000  4.233E-05    0   0.5598   age150_m72            0.0000     3.8015E-01   285.2174  -1.0000   141.1600
 64      0.0000     0.0000E+00    0.0000E+00    6.250000E+09  0.05000  1.435E-05    0   0.5249   age166_m72            0.0000     3.9544E-01   285.4559  -1.0000   114.7372
 65      0.0000     0.0000E+00    0.0000E+00    1.300000E+10  0.05000  6.513E-06    0   0.5036   age193_m72            0.0000     4.0749E-01   284.5632  -1.0000   102.0876
 66      0.0000     0.0000E+00    0.0000E+00    1.800000E+10  0.05000  4.527E-06    0   0.4945   age213_m72            0.0000     4.1461E-01   284.0011  -1.0000    94.6107


## Synthesis Results - Average & Chains ##

# j      x_j: min, <> & last-chain-values for 1 ...  7 chains
  1    130.0000      3.0690      0.0000      0.0000     11.8703      6.4770      0.0000     25.0410      0.0000
  2      0.0000      3.8757      0.5082      0.0000      4.4145      0.6861      7.0673      0.0000      0.0000
  3      0.0000      3.5071     14.5776     19.2601      0.0000      6.9137      0.0000      0.0000     13.5449
  4      0.0000      4.5781      1.3652      0.0000      6.9483      0.0000      4.7592      0.0000      0.0000
  5      0.0000      4.2499     14.4848      6.6327      0.0000      0.0592     50.0509     13.0153      0.4206
  6      0.0000      4.5051      0.0000      0.0000      0.0000     44.4446      3.0162      3.0673     20.9816
  7      0.0000      3.5937      1.3878      0.0000      0.6790     12.5628     16.7559      0.0000      0.0000
  8      0.0000      3.8006     15.4665      3.3922      0.0000      0.0000      0.0000      0.0000      0.0000
  9      0.0000      2.4254      0.0000      8.0883      0.8686      0.1676      0.0000      0.0000      0.0131
 10      0.0000      2.9272      0.0000      0.3678      0.4743      0.0000      0.0000      0.0000      2.4595
 11      0.0000      1.3441      0.0000      0.4317      0.0000      0.3110      3.5024      9.1048      5.5289
 12      0.0000      1.1844      0.0000      0.0000      0.0000      0.0000      0.0000      5.6448      0.0000
 13      0.0000      0.3576      0.0000      1.0113      0.0000      0.2079      0.0000      0.0000      0.0000
 14      0.0000      0.0985      0.6244      0.0306      0.0000      0.0000      0.0000      0.0000      0.0000
 15      0.0000      0.0833      0.3893      0.0000      0.0000      0.0000      0.0248      0.0000      0.0000
 16      0.0000      0.1354      0.0000      0.0000      0.0000      0.0000      0.0000      0.2377      0.0000
 17      0.0000      0.0684      0.0000      0.0000      0.0000      0.3235      0.0000      0.0000      0.0000
 18      0.0000      3.1627      0.0452     18.0017      3.4124     15.8812      0.0000      1.7401      0.4499
 19      0.0000      3.7516      0.0000      1.4449      1.8350      0.5310      0.0000      7.3827      0.0000
 20      0.0000      3.3539      0.0000      0.3184      8.1147      1.2003      1.0868      0.0000      0.0000
 21      0.0000      3.1579     27.9191      2.6013      0.0000      2.9444      0.0787      0.0000      5.4693
 22      0.0000      3.6629      0.0000      0.3992     12.3865      0.0453      0.1862      5.3229      0.0000
 23      0.0000      3.8727     18.4848      0.0000      0.1949      0.0000      0.0000     10.1222      0.0000
 24      0.0000      3.1451      0.0020      0.0105      2.3285      0.8346      0.0000      0.0000      0.0000
 25      0.0000      2.4290      5.4758     11.5038      0.0000      0.0000      1.1080      0.3188      0.0000
 26      0.0000      2.9037      0.0000      2.0380      0.0000      0.3379      0.0000      0.0172      0.0000
 27      0.0000      1.8777      0.1574      0.3458      0.0000      0.0000      0.0000      0.0000      0.0000
 28      0.0000      0.6422      0.0000      0.0000      0.0000      0.0000      0.0000      0.0000      0.0000
 29      0.0000      0.0922      0.0000      0.0000      0.0000      0.0000      0.0000      0.0000      0.0000
 30      0.0000      0.2012      0.0000      0.0000      0.0048      0.0000      0.0000      0.0000      0.0000
 31      0.0000      0.1276      0.0000      9.8306      0.0000      0.0000      0.0000      0.0000      0.0000
 32      0.0000      0.0782      0.0000      0.0000      0.0000      0.0000      0.0000      0.0000      0.0000
 33      0.0000      0.0692      0.0000      0.6251      0.0000      0.0000      0.0000      0.0000      0.0000
 34      0.0000      0.0317      0.0000      0.0000      0.0000      1.2743      0.0000      0.0000      0.0000
 35      0.0000      3.7729      5.9460      9.0439      0.0000      0.8667     12.7772      1.8502     34.1845
 36      0.0000      3.8569      0.0000      0.0000      0.2695      0.5225      5.6291     13.9890      0.0000
 37      0.0000      2.6726      2.7861      0.0000      0.7341      5.1132      0.0648      3.9287      3.0386
 38      0.0000      3.9763      1.7947      3.6607      0.0000      0.0000      0.0000      3.4761      4.8805
 39      0.0000      3.9309      0.0000      0.0000      0.0000      0.0000      0.6037      0.0000      0.0000
 40      0.0000      3.7328      0.0000      0.0000      8.0632      0.1655      0.2051      8.9232      0.0000
 41      0.0000      3.6927      0.0447     10.9048      0.2652      0.0000      0.0000      1.5105      0.0000
 42      0.0000      1.8187      0.0000      2.0149      0.0000      0.0000      0.0000      0.0000      0.0000
 43      0.0000      0.9213      0.0000      2.1468      0.0000      0.0000      0.0000      0.0000      0.0000
 44      0.0000      1.2775      0.0000      0.0347      0.0000      0.2504      0.0000      0.0000      0.0000
 45      0.0000      0.6875      0.0000      0.0000      0.0000      0.0000      0.0318      0.0008      3.9765
 46      0.0000      0.4081      0.0000      0.0000      0.0000      0.0000      0.0000      0.0000      0.0000
