###################################################################
## OUTPUT of StarlightChains_v04.for    [Cid@UFSC - 01/Apr/2007] ##
###################################################################

## Some input info
2011ho.txt                               [arq_obs]
Base.CB07.vall.4m                        [arq_base]
Masks.EmLines.NEW.gm                     [arq_masks]
StCv04.C11.config                        [arq_config]
   66                                    [N_base]
    0                                    [N_YAV_components = # of components with extra extinction!]
    0                                    [i_FitPowerLaw (1/0 = Yes/No)]
-9.99                                    [alpha_PowerLaw]
CCM                                      [red_law_option]
 1.458241                                [q_norm = A(l_norm)/A(V)]

## (Re)Sampling Parameters
 3741.00                                 [l_ini (A)]
 7218.00                                 [l_fin (A)]
    1.00                                 [dl    (A)]     (OBS: dl_cushion =    50.00 A)

## Normalization info
 4020.00                                 [l_norm (A) - for base]
 4010.00                                 [llow_norm (A) - window for f_obs]
 4060.00                                 [lupp_norm (A) - window for f_obs]
9.353262E-18                             [fobs_norm (in input units)]

## S/N
 3691.00                                 [llow_SN (A) - window for S/N]
 7268.00                                 [lupp_SN (A) - window for S/N]
   5.464                                 [S/N in S/N window]
   4.770                                 [S/N in norm. window]
   8.666                                 [S/N_err in S/N window]
   7.564                                 [S/N_err in norm. window]
  1.0000                                 [fscale_chi2]

## etc...
    -2007378                             [idum_orig]
  2305                                   [NOl_eff]
  2304                                   [Nl_eff]
     1    NSIGMA                         [Ntot_cliped & clip_method]
  1536850                                [Nglobal_steps]
   7                                     [N_chains]
  25                                     [NEX0s_base = N_base in EX0s-fits]
 0   0   1        4   2.0   1.248E+01    [Clip-Bug, RC-Crash & Burn-In warning-flags, n_censored_weights, wei_nsig_threshold & wei_limit]
    14     13.513     13.010      0.503  [idt_all, wdt_TotTime, wdt_UsrTime & wdt_SysTime (sec)]

## Synthesis Results - Best model ##

 4.45709E-01                             [chi2/Nl_eff]
     7.63377                             [adev (%)]

   105.27879                             [sum-of-x (%)]
 8.71002E-18                             [Flux_tot (units of input spectrum!)]
 6.01419E-13                             [Mini_tot (???)]
 3.03976E-13                             [Mcor_tot (???)]

  15.26                                  [v0_min  (km/s)]
 296.44                                  [vd_min  (km/s)]
-0.0914                                  [AV_min  (mag)]
 0.0000                                  [YAV_min (mag)]

# j     x_j(%)      Mini_j(%)     Mcor_j(%)     age_j(yr)     Z_j      (L/M)_j    YAV?  Mstars   component_j        a/Fe...       SSP_chi2r SSP_adev(%)   SSP_AV   SSP_x(%)
  1      0.0000     0.0000E+00    0.0000E+00    1.000000E+06  0.00400  1.094E-02    0   1.0000   age020_m42            0.0000     8.4979E-01    11.3735   3.4811    90.7957
  2      5.2863     1.8148E-03    3.5903E-03    3.160000E+06  0.00400  4.007E-02    0   0.9999   age045_m42            0.0000     7.9260E-01    10.7222   2.7589    96.9875
  3      0.7462     4.0430E-04    7.5895E-04    5.010000E+06  0.00400  2.539E-02    0   0.9488   age055_m42            0.0000     8.1060E-01    11.0358   3.0729    94.8376
  4      0.0000     0.0000E+00    0.0000E+00    6.610000E+06  0.00400  2.620E-02    0   0.9220   age061_m42            0.0000     7.8558E-01    10.7751   2.6771    97.6065
  5      1.7877     1.8603E-03    3.2617E-03    1.000000E+07  0.00400  1.322E-02    0   0.8862   age070_m42            0.0000     8.0366E-01    11.4865   2.3355   102.5813
  6      0.0000     0.0000E+00    0.0000E+00    1.445000E+07  0.00400  7.883E-03    0   0.8571   age078_m42            0.0000     8.2192E-01    11.5965   2.6689    99.6497
  7      0.0000     0.0000E+00    0.0000E+00    2.512000E+07  0.00400  5.251E-03    0   0.8174   age090_m42            0.0000     8.1924E-01    11.6376   2.1943   103.7259
  8      0.0000     0.0000E+00    0.0000E+00    4.000000E+07  0.00400  3.649E-03    0   0.7851   age104_m42            0.0000     7.9488E-01    11.3740   1.9733   104.2917
  9      0.0000     0.0000E+00    0.0000E+00    5.500000E+07  0.00400  3.098E-03    0   0.7629   age110_m42            0.0000     7.7696E-01    10.9541   2.1545   102.9361
 10      0.0000     0.0000E+00    0.0000E+00    1.015200E+08  0.00400  2.228E-03    0   0.7207   age116_m42            0.0000     7.6163E-01    10.7071   2.1921   102.3184
 11      0.0000     0.0000E+00    0.0000E+00    2.861200E+08  0.00400  1.093E-03    0   0.6648   age125_m42            0.0000     7.6200E-01    10.7797   1.6069   106.4090
 12      0.0000     0.0000E+00    0.0000E+00    5.088000E+08  0.00400  6.597E-04    0   0.6365   age130_m42            0.0000     7.0828E-01    10.2117   1.6238   105.9533
 13     11.1331     7.1834E-01    8.2403E-01    1.434000E+09  0.00400  2.132E-04    0   0.5798   age139_m42            0.0000     5.6158E-01     9.0283   0.6642   107.5520
 14      0.0019     4.3635E-04    4.6421E-04    4.250000E+09  0.00400  5.895E-05    0   0.5377   age158_m42            0.0000     4.9933E-01     8.2740   0.2616   101.5619
 15      0.0000     0.0000E+00    0.0000E+00    7.500000E+09  0.00400  3.510E-05    0   0.5212   age171_m42            0.0000     4.8510E-01     8.0289   0.0905   100.1557
 16      0.0000     0.0000E+00    0.0000E+00    1.300000E+10  0.00400  2.005E-05    0   0.5034   age193_m42            0.0000     4.8137E-01     7.8768  -0.0584    98.9260
 17      0.5211     4.7002E-01    4.6190E-01    1.800000E+10  0.00400  1.525E-05    0   0.4967   age213_m42            0.0000     4.7928E-01     7.9195  -0.0847    98.6407
 18      0.0000     0.0000E+00    0.0000E+00    1.000000E+06  0.00800  1.238E-02    0   1.0000   age020_m52            0.0000     8.4844E-01    11.3708   3.4774    90.9713
 19      0.0000     0.0000E+00    0.0000E+00    3.160000E+06  0.00800  3.074E-02    0   0.9966   age045_m52            0.0000     8.4163E-01    11.3161   3.4021    91.7299
 20      0.0000     0.0000E+00    0.0000E+00    5.010000E+06  0.00800  2.668E-02    0   0.9443   age055_m52            0.0000     8.0985E-01    11.1288   3.1533    94.0717
 21      0.0000     0.0000E+00    0.0000E+00    6.610000E+06  0.00800  2.136E-02    0   0.9177   age061_m52            0.0000     7.2072E-01    10.9889   1.8375   103.6221
 22      2.1992     2.4900E-03    4.3485E-03    1.000000E+07  0.00800  1.215E-02    0   0.8827   age070_m52            0.0000     8.2517E-01    11.8198   2.5004   103.1132
 23      0.0000     0.0000E+00    0.0000E+00    1.445000E+07  0.00800  8.717E-03    0   0.8552   age078_m52            0.0000     8.0330E-01    11.5101   2.6328   101.1239
 24      0.0000     0.0000E+00    0.0000E+00    2.512000E+07  0.00800  5.592E-03    0   0.8162   age090_m52            0.0000     8.0589E-01    11.5871   2.2578   105.0487
 25      0.0000     0.0000E+00    0.0000E+00    4.000000E+07  0.00800  3.896E-03    0   0.7841   age104_m52            0.0000     7.8957E-01    11.2897   2.1833   105.2312
 26      0.0000     0.0000E+00    0.0000E+00    1.015200E+08  0.00800  2.148E-03    0   0.7226   age116_m52            0.0000     7.5555E-01    10.8116   2.1478   103.7578
 27      0.0000     0.0000E+00    0.0000E+00    2.861200E+08  0.00800  9.925E-04    0   0.6683   age125_m52            0.0000     6.9557E-01    10.1697   1.6859   107.0664
 28      8.6268     3.7782E-01    4.5883E-01    9.047900E+08  0.00800  3.141E-04    0   0.6138   age135_m52            0.0000     5.7168E-01     8.7396   0.9285   109.5637
 29      0.0000     0.0000E+00    0.0000E+00    1.434000E+09  0.00800  1.719E-04    0   0.5853   age139_m52            0.0000     5.0803E-01     8.3737   0.3539   107.1594
 30      0.0000     0.0000E+00    0.0000E+00    2.500000E+09  0.00800  7.872E-05    0   0.5600   age150_m52            0.0000     4.7201E-01     7.8341   0.1214   102.4773
 31      0.0000     0.0000E+00    0.0000E+00    4.250000E+09  0.00800  4.336E-05    0   0.5426   age158_m52            0.0000     4.7749E-01     7.8487   0.1081   101.4034
 32      0.0000     0.0000E+00    0.0000E+00    6.250000E+09  0.00800  3.159E-05    0   0.5319   age166_m52            0.0000     4.7486E-01     7.6718  -0.0702   100.3449
 33      0.0013     1.2750E-03    1.2797E-03    1.300000E+10  0.00800  1.361E-05    0   0.5073   age193_m52            0.0000     4.8263E-01     7.6330  -0.5087    98.4129
 34      0.0000     0.0000E+00    0.0000E+00    1.800000E+10  0.00800  9.886E-06    0   0.4990   age213_m52            0.0000     5.0986E-01     7.8557  -0.5888    96.7393
 35      0.0000     0.0000E+00    0.0000E+00    1.000000E+06  0.02000  1.544E-02    0   1.0000   age020_m62            0.0000     8.4979E-01    11.3920   3.4738    91.1709
 36      1.6869     6.1685E-04    1.2031E-03    3.160000E+06  0.02000  3.762E-02    0   0.9858   age045_m62            0.0000     8.4961E-01    11.3944   3.4139    91.9394
 37      0.0000     0.0000E+00    0.0000E+00    5.010000E+06  0.02000  3.296E-02    0   0.9342   age055_m62            0.0000     7.9499E-01    10.8592   3.0404    95.6926
 38      5.0161     5.9794E-03    1.0483E-02    8.710000E+06  0.02000  1.154E-02    0   0.8861   age067_m62            0.0000     1.1118E+00    14.6311   1.8449   111.8159
 39      0.0000     0.0000E+00    0.0000E+00    1.445000E+07  0.02000  7.663E-03    0   0.8472   age078_m62            0.0000     8.6995E-01    12.3845   2.1167   107.1598
 40      1.4382     4.3655E-03    6.9952E-03    2.512000E+07  0.02000  4.532E-03    0   0.8099   age090_m62            0.0000     8.9798E-01    12.5651   2.1043   107.1639
 41      0.0072     3.5994E-05    5.4088E-05    5.500000E+07  0.02000  2.733E-03    0   0.7595   age110_m62            0.0000     7.7225E-01    11.2831   2.1641   104.5575
 42      0.0227     2.2826E-04    3.1546E-04    1.609000E+08  0.02000  1.369E-03    0   0.6985   age120_m62            0.0000     7.3483E-01    10.6359   2.0349   105.8560
 43      0.0000     0.0000E+00    0.0000E+00    2.861200E+08  0.02000  9.013E-04    0   0.6714   age125_m62            0.0000     7.0424E-01    10.2304   1.7983   108.2051
 44      0.0000     0.0000E+00    0.0000E+00    5.088000E+08  0.02000  5.028E-04    0   0.6449   age130_m62            0.0000     6.4345E-01     9.3508   1.4634   108.9488
 45      0.0000     0.0000E+00    0.0000E+00    9.047900E+08  0.02000  2.428E-04    0   0.6179   age135_m62            0.0000     5.3216E-01     8.3394   0.8983   107.3719
 46      0.0027     2.9822E-04    3.4859E-04    1.434000E+09  0.02000  1.263E-04    0   0.5908   age139_m62            0.0000     4.8685E-01     8.0157   0.4621   105.4212
 47      0.0000     0.0000E+00    0.0000E+00    2.500000E+09  0.02000  5.985E-05    0   0.5673   age150_m62            0.0000     4.7943E-01     7.7320   0.1290   102.4384
 48      0.2718     1.1430E-01    1.2366E-01    4.250000E+09  0.02000  3.271E-05    0   0.5468   age158_m62            0.0000     4.8818E-01     7.6756  -0.1401    99.9814
 49      0.0000     0.0000E+00    0.0000E+00    1.000000E+10  0.02000  1.360E-05    0   0.5167   age181_m62            0.0000     5.3499E-01     8.1213  -0.4466    97.7944
 50      9.9785     1.9268E+01    1.9111E+01    1.800000E+10  0.02000  7.124E-06    0   0.5013   age213_m62            0.0000     5.9379E-01     8.6886  -0.6180    95.4193
 51      3.2163     1.7070E-03    3.3766E-03    1.000000E+06  0.05000  2.592E-02    0   0.9998   age020_m72            0.0000     8.5538E-01    11.4802   3.4619    91.3338
 52      0.0000     0.0000E+00    0.0000E+00    3.160000E+06  0.05000  4.845E-02    0   0.9577   age045_m72            0.0000     8.3273E-01    11.1749   3.3038    92.8911
 53      0.0000     0.0000E+00    0.0000E+00    5.010000E+06  0.05000  3.072E-02    0   0.9147   age055_m72            0.0000     8.4186E-01    11.8947   2.7539   100.7046
 54      0.0000     0.0000E+00    0.0000E+00    6.610000E+06  0.05000  1.455E-02    0   0.8877   age061_m72            0.0000     1.5518E+00    16.8191   1.8832   114.3049
 55      0.0000     0.0000E+00    0.0000E+00    1.000000E+07  0.05000  9.074E-03    0   0.8524   age070_m72            0.0000     9.1305E-01    12.1067   2.9622    99.7121
 56      0.0000     0.0000E+00    0.0000E+00    2.512000E+07  0.05000  4.250E-03    0   0.7902   age090_m72            0.0000     8.7746E-01    11.9169   2.6401   102.3462
 57      0.0000     0.0000E+00    0.0000E+00    4.000000E+07  0.05000  3.087E-03    0   0.7618   age104_m72            0.0000     8.9058E-01    12.0258   2.4013   104.6367
 58      0.0000     0.0000E+00    0.0000E+00    1.015200E+08  0.05000  1.700E-03    0   0.7096   age116_m72            0.0000     7.7227E-01    11.0004   2.1633   106.1991
 59      0.0000     0.0000E+00    0.0000E+00    2.861200E+08  0.05000  7.384E-04    0   0.6633   age125_m72            0.0000     6.6398E-01     9.7510   1.6868   108.6754
 60      1.8388     6.6235E-02    8.3503E-02    5.088000E+08  0.05000  3.819E-04    0   0.6372   age130_m72            0.0000     5.6860E-01     8.6992   1.2291   108.7026
 61      0.0000     0.0000E+00    0.0000E+00    9.047900E+08  0.05000  1.676E-04    0   0.6110   age135_m72            0.0000     5.0850E-01     7.9659   0.5829   104.4298
 62      0.0039     6.1012E-04    7.0907E-04    1.434000E+09  0.05000  8.837E-05    0   0.5874   age139_m72            0.0000     4.7242E-01     7.7121   0.1346   103.7040
 63     19.5742     6.3612E+00    7.0454E+00    2.500000E+09  0.05000  4.233E-05    0   0.5598   age150_m72            0.0000     4.9904E-01     7.7740  -0.1283   100.2959
 64      6.4113     6.1460E+00    6.3827E+00    6.250000E+09  0.05000  1.435E-05    0   0.5249   age166_m72            0.0000     5.5213E-01     8.2750  -0.5295    96.8197
 65     11.9276     2.5193E+01    2.5101E+01    1.300000E+10  0.05000  6.513E-06    0   0.5036   age193_m72            0.0000     6.3731E-01     9.0761  -0.7616    95.7289
 66     13.5791     4.1263E+01    4.0371E+01    1.800000E+10  0.05000  4.527E-06    0   0.4945   age213_m72            0.0000     7.0354E-01     9.6736  -0.8916    94.2724


## Synthesis Results - Average & Chains ##

# j      x_j: min, <> & last-chain-values for 1 ...  7 chains
  1      0.0000      0.2226      0.3356      1.5557      0.0000      0.0000      0.0966      0.5558      0.0000
  2      5.2863      0.4344      2.0000      1.5401      0.2703      0.0000      0.0000      0.0000      0.7730
  3      0.7462      0.2778      1.4943      0.0000      0.2097      0.0000      0.0000      0.0000      1.9005
  4      0.0000      0.3982      0.0000      0.0000      0.0000      0.0000      0.0000      2.9812      0.0000
  5      1.7877      0.3824      0.9514      0.3291      1.0980      0.2749      0.0000      0.4742      1.5463
  6      0.0000      0.5176      0.0000      0.0000      0.0000      0.0000      4.8468      2.3805      0.0000
  7      0.0000      0.5400      0.2718      0.0000      0.9565      0.0000      0.8387      0.0000      0.0000
  8      0.0000      0.3800      0.0000      0.0000      0.0000      0.0000      0.0000      0.0000      0.0000
  9      0.0000      0.4535      0.0000      0.0000      1.6308      1.4279      3.7647      0.0000      0.9327
 10      0.0000      0.2029      0.0000      0.8129      0.0000      0.1050      0.0000      0.0000      0.0000
 11      0.0000      0.2890      0.5487      0.0000      1.7521      0.2047      0.0000      1.4315      0.0000
 12      0.0000      0.4449      0.0000      0.0000      0.0000      0.0000      0.0000      0.0000      0.0000
 13     11.1331      3.2723      8.4281      9.3052      0.0000      4.9792      1.5946      9.4071      3.1439
 14      0.0019      2.8053      6.0731      0.8397      0.0000      0.0000      2.4667      2.6416      4.1556
 15      0.0000      2.0635      0.0000      0.0000      0.0000      0.0000      0.0000      0.0000      0.0000
 16      0.0000      1.6290      0.0000      0.6075      1.2650      2.5651      0.0000      3.0583      0.2971
 17      0.5211      1.9415      2.3461      0.0000      0.0000      0.0000      2.3064      0.0000      0.0000
 18      0.0000      0.3640      0.0602      0.0000      1.1315      0.0000      0.0000      0.0000      0.2519
 19      0.0000      0.1029      0.0000      0.0000      0.0000      0.0000      0.0000      0.7013      0.0000
 20      0.0000      0.2006      0.0000      0.0000      0.1789      0.0000      0.0000      0.0000      0.0000
 21      0.0000      0.8516      0.1201      2.3443      2.3398      1.6079      0.0000      0.0000      0.0000
 22      2.1992      0.5458      2.9808      0.0000      0.0000      0.0000      0.0000      0.0000      0.7274
 23      0.0000      0.2348      0.0000      0.8802      0.0000      1.0157      0.0000      0.0000      0.0000
 24      0.0000      0.2013      0.0000      0.0000      0.0000      0.0000      0.0000      0.4574      1.8238
 25      0.0000      0.7503      0.0000      0.0000      0.2684      5.3118      0.0000      0.0000      1.1486
 26      0.0000      0.3766      0.0000      0.0000      0.0000      1.7289      0.0000      0.0000      0.0000
 27      0.0000      0.7361      0.0000      1.7819      0.0000      0.0000      0.0000      0.0000      0.0472
 28      8.6268      1.2135      1.7240      0.2781      1.2824      2.6768      0.3737      0.0000      0.0000
 29      0.0000      3.8769      0.0000      1.5589      3.8254      6.2171      0.7665      2.7934      1.3291
 30      0.0000      3.5793      0.0000      0.0369      0.0000      0.0000      0.0000      3.6064      6.1722
 31      0.0000      2.9688      0.0000      0.0000      5.0168      0.0000      0.0000      0.0000      1.8418
 32      0.0000      2.7614      0.0000      0.0000      2.8285      0.0000      0.0000      0.0000      1.5479
 33      0.0013      0.6112      3.1447      2.0763      0.0000      3.2214      0.3261      0.0000      0.0000
 34      0.0000      0.4022      0.0000      0.5783      0.0000      0.0000      0.5947      0.0000      0.0000
 35      0.0000      0.3914      0.0000      0.0000      0.0000      1.9219      0.0000      0.0000      0.0000
 36      1.6869      0.3209      1.0363      0.0000      0.0000      0.0000      1.2473      0.0000      0.0000
 37      0.0000      0.2734      0.0000      0.0000      0.0000      0.0000      3.0010      0.1638      0.0000
 38      5.0161      1.1333      2.1336      1.9464      0.3589      1.7031      0.2892      1.8150      0.7296
 39      0.0000      0.4018      0.0000      1.2941      2.3620      0.0000      0.0000      0.0000      0.0000
 40      1.4382      0.2967      1.9437      0.0000      1.6926      0.0000      0.0000      0.0000      0.0000
 41      0.0072      0.7815      1.3597      0.0000      3.2114      3.8634      0.0000      0.0000      1.1184
 42      0.0227      0.5486      2.1741      0.9242      0.0000      0.0000      0.0000      0.0000      0.0000
 43      0.0000      0.3470      0.0000      0.0000      0.0000      0.0000      0.0672      0.0000      2.0916
 44      0.0000      0.5110      0.0000      0.0000      1.3668      0.1767      0.2284      2.5783      0.0000
 45      0.0000      2.8943      0.7111      0.0000      1.9528      2.1147      8.4761      3.9731      9.6359
 46      0.0027      3.7669      6.4140      0.0000      7.7744      2.5116      4.4876      1.7521      4.0906
