###################################################################
## OUTPUT of StarlightChains_v04.for    [Cid@UFSC - 01/Apr/2007] ##
###################################################################

## Some input info
2011bm.txt                               [arq_obs]
Base.CB07.vall.4m                        [arq_base]
Masks.EmLines.NEW.gm                     [arq_masks]
StCv04.C11.config                        [arq_config]
   66                                    [N_base]
    0                                    [N_YAV_components = # of components with extra extinction!]
    0                                    [i_FitPowerLaw (1/0 = Yes/No)]
-9.99                                    [alpha_PowerLaw]
CCM                                      [red_law_option]
 1.458241                                [q_norm = A(l_norm)/A(V)]

## (Re)Sampling Parameters
 3741.00                                 [l_ini (A)]
 7218.00                                 [l_fin (A)]
    1.00                                 [dl    (A)]     (OBS: dl_cushion =    50.00 A)

## Normalization info
 4020.00                                 [l_norm (A) - for base]
 4010.00                                 [llow_norm (A) - window for f_obs]
 4060.00                                 [lupp_norm (A) - window for f_obs]
6.431571E-17                             [fobs_norm (in input units)]

## S/N
 3691.00                                 [llow_SN (A) - window for S/N]
 7268.00                                 [lupp_SN (A) - window for S/N]
   3.698                                 [S/N in S/N window]
   5.570                                 [S/N in norm. window]
  12.281                                 [S/N_err in S/N window]
  18.496                                 [S/N_err in norm. window]
  1.0000                                 [fscale_chi2]

## etc...
    -2007371                             [idum_orig]
  2385                                   [NOl_eff]
  2379                                   [Nl_eff]
     6    NSIGMA                         [Ntot_cliped & clip_method]
  1792140                                [Nglobal_steps]
   7                                     [N_chains]
  30                                     [NEX0s_base = N_base in EX0s-fits]
 0   0   1        0   2.0   3.741E+01    [Clip-Bug, RC-Crash & Burn-In warning-flags, n_censored_weights, wei_nsig_threshold & wei_limit]
    16     15.913     15.407      0.506  [idt_all, wdt_TotTime, wdt_UsrTime & wdt_SysTime (sec)]

## Synthesis Results - Best model ##

 3.06006E-01                             [chi2/Nl_eff]
     3.38724                             [adev (%)]

   103.31364                             [sum-of-x (%)]
 8.00307E-17                             [Flux_tot (units of input spectrum!)]
 1.39365E-13                             [Mini_tot (???)]
 7.88409E-14                             [Mcor_tot (???)]

  60.99                                  [v0_min  (km/s)]
 259.78                                  [vd_min  (km/s)]
 0.1385                                  [AV_min  (mag)]
 0.0000                                  [YAV_min (mag)]

# j     x_j(%)      Mini_j(%)     Mcor_j(%)     age_j(yr)     Z_j      (L/M)_j    YAV?  Mstars   component_j        a/Fe...       SSP_chi2r SSP_adev(%)   SSP_AV   SSP_x(%)
  1      4.0237     2.0444E-01    3.6138E-01    1.000000E+06  0.00400  1.094E-02    0   1.0000   age020_m42            0.0000     6.6828E-01     5.2818   1.8810    89.3515
  2      0.0162     2.2414E-04    3.9617E-04    3.160000E+06  0.00400  4.007E-02    0   0.9999   age045_m42            0.0000     5.4592E-01     4.6233   1.1337    96.6437
  3      0.0023     5.0101E-05    8.4028E-05    5.010000E+06  0.00400  2.539E-02    0   0.9488   age055_m42            0.0000     5.5994E-01     4.7247   1.4603    93.9097
  4      0.0000     0.0000E+00    0.0000E+00    6.610000E+06  0.00400  2.620E-02    0   0.9220   age061_m42            0.0000     5.2333E-01     4.4955   1.0560    97.0874
  5      0.2531     1.0640E-02    1.6667E-02    1.000000E+07  0.00400  1.322E-02    0   0.8862   age070_m42            0.0000     3.6090E-01     3.6604   0.7596    99.9769
  6      0.1499     1.0569E-02    1.6013E-02    1.445000E+07  0.00400  7.883E-03    0   0.8571   age078_m42            0.0000     3.9022E-01     3.8338   1.0948    97.0182
  7      0.0000     0.0000E+00    0.0000E+00    2.512000E+07  0.00400  5.251E-03    0   0.8174   age090_m42            0.0000     3.4967E-01     3.5961   0.6249   100.7969
  8      3.8797     5.9097E-01    8.2015E-01    4.000000E+07  0.00400  3.649E-03    0   0.7851   age104_m42            0.0000     3.5107E-01     3.6086   0.3948   101.7816
  9      0.0000     0.0000E+00    0.0000E+00    5.500000E+07  0.00400  3.098E-03    0   0.7629   age110_m42            0.0000     4.3135E-01     3.9602   0.5521   101.5851
 10      0.0000     0.0000E+00    0.0000E+00    1.015200E+08  0.00400  2.228E-03    0   0.7207   age116_m42            0.0000     5.2556E-01     4.3036   0.5741   101.6802
 11      0.0116     5.9061E-03    6.9406E-03    2.861200E+08  0.00400  1.093E-03    0   0.6648   age125_m42            0.0000     5.4087E-01     4.2929  -0.0020   105.3089
 12      0.0000     0.0000E+00    0.0000E+00    5.088000E+08  0.00400  6.597E-04    0   0.6365   age130_m42            0.0000     6.8694E-01     4.6855  -0.0081   105.9223
 13      0.0000     0.0000E+00    0.0000E+00    1.434000E+09  0.00400  2.132E-04    0   0.5798   age139_m42            0.0000     7.2406E-01     4.9694  -0.9799   107.9610
 14      0.0000     0.0000E+00    0.0000E+00    4.250000E+09  0.00400  5.895E-05    0   0.5377   age158_m42            0.0000     1.6041E+00     7.8198  -1.0000    86.6247
 15      0.0000     0.0000E+00    0.0000E+00    7.500000E+09  0.00400  3.510E-05    0   0.5212   age171_m42            0.0000     2.5306E+00    10.1146  -1.0000    79.1083
 16      0.0000     0.0000E+00    0.0000E+00    1.300000E+10  0.00400  2.005E-05    0   0.5034   age193_m42            0.0000     3.5267E+00    12.2094  -1.0000    72.9593
 17      1.0593     3.8611E+01    3.3901E+01    1.800000E+10  0.00400  1.525E-05    0   0.4967   age213_m42            0.0000     3.6603E+00    12.5274  -1.0000    71.8417
 18      3.7344     1.6767E-01    2.9638E-01    1.000000E+06  0.00800  1.238E-02    0   1.0000   age020_m52            0.0000     6.6906E-01     5.2869   1.8773    89.5229
 19      0.6074     1.0983E-02    1.9349E-02    3.160000E+06  0.00800  3.074E-02    0   0.9966   age045_m52            0.0000     6.5759E-01     5.2311   1.7983    90.4131
 20      0.0000     0.0000E+00    0.0000E+00    5.010000E+06  0.00800  2.668E-02    0   0.9443   age055_m52            0.0000     5.6123E-01     4.7508   1.5448    92.9559
 21     43.7799     1.1392E+00    1.8481E+00    6.610000E+06  0.00800  2.136E-02    0   0.9177   age061_m52            0.0000     3.2912E-01     3.5486   0.2648   100.8058
 22      0.8488     3.8828E-02    6.0585E-02    1.000000E+07  0.00800  1.215E-02    0   0.8827   age070_m52            0.0000     3.5410E-01     3.6289   0.9395    99.7628
 23      0.0000     0.0000E+00    0.0000E+00    1.445000E+07  0.00800  8.717E-03    0   0.8552   age078_m52            0.0000     3.7277E-01     3.7370   1.0566    98.5330
 24      1.0133     1.0072E-01    1.4531E-01    2.512000E+07  0.00800  5.592E-03    0   0.8162   age090_m52            0.0000     3.4990E-01     3.6033   0.6865   102.1238
 25      2.3556     3.3607E-01    4.6580E-01    4.000000E+07  0.00800  3.896E-03    0   0.7841   age104_m52            0.0000     3.6979E-01     3.6934   0.5989   102.9568
 26      0.0000     0.0000E+00    0.0000E+00    1.015200E+08  0.00800  2.148E-03    0   0.7226   age116_m52            0.0000     4.5047E-01     3.9872   0.5398   102.6438
 27      0.0171     9.5814E-03    1.1319E-02    2.861200E+08  0.00800  9.925E-04    0   0.6683   age125_m52            0.0000     6.8297E-01     4.6193   0.0558   106.9621
 28      2.7887     4.9349E+00    5.3543E+00    9.047900E+08  0.00800  3.141E-04    0   0.6138   age135_m52            0.0000     9.1276E-01     5.4938  -0.7333   110.9352
 29      0.0000     0.0000E+00    0.0000E+00    1.434000E+09  0.00800  1.719E-04    0   0.5853   age139_m52            0.0000     1.3397E+00     6.9211  -1.0000    95.1386
 30      0.0000     0.0000E+00    0.0000E+00    2.500000E+09  0.00800  7.872E-05    0   0.5600   age150_m52            0.0000     2.5316E+00     9.9548  -1.0000    82.0980
 31      1.6597     2.1275E+01    2.0406E+01    4.250000E+09  0.00800  4.336E-05    0   0.5426   age158_m52            0.0000     2.6033E+00    10.0933  -1.0000    80.7618
 32      0.0000     0.0000E+00    0.0000E+00    6.250000E+09  0.00800  3.159E-05    0   0.5319   age166_m52            0.0000     3.8889E+00    12.6227  -1.0000    73.5988
 33      0.0000     0.0000E+00    0.0000E+00    1.300000E+10  0.00800  1.361E-05    0   0.5073   age193_m52            0.0000     7.4523E+00    18.5399  -1.0000    58.4613
 34      0.0000     0.0000E+00    0.0000E+00    1.800000E+10  0.00800  9.886E-06    0   0.4990   age213_m52            0.0000     8.4006E+00    19.6614  -1.0000    55.2239
 35      1.1757     4.2324E-02    7.4815E-02    1.000000E+06  0.02000  1.544E-02    0   1.0000   age020_m62            0.0000     6.7601E-01     5.3186   1.8736    89.7113
 36      0.0000     0.0000E+00    0.0000E+00    3.160000E+06  0.02000  3.762E-02    0   0.9858   age045_m62            0.0000     6.7888E-01     5.3250   1.8124    90.5116
 37      0.0000     0.0000E+00    0.0000E+00    5.010000E+06  0.02000  3.296E-02    0   0.9342   age055_m62            0.0000     5.7195E-01     4.7700   1.4169    95.2330
 38     16.6782     8.0332E-01    1.2583E+00    8.710000E+06  0.02000  1.154E-02    0   0.8861   age067_m62            0.0000     7.2134E-01     5.2224   0.3752   103.5218
 39      0.0112     8.1122E-04    1.2149E-03    1.445000E+07  0.02000  7.663E-03    0   0.8472   age078_m62            0.0000     3.7975E-01     3.7750   0.5801   102.4570
 40      0.0000     0.0000E+00    0.0000E+00    2.512000E+07  0.02000  4.532E-03    0   0.8099   age090_m62            0.0000     4.1045E-01     3.9169   0.5685   102.4137
 41      0.0000     0.0000E+00    0.0000E+00    5.500000E+07  0.02000  2.733E-03    0   0.7595   age110_m62            0.0000     3.6794E-01     3.6625   0.5820   102.1590
 42      0.0044     1.7847E-03    2.2036E-03    1.609000E+08  0.02000  1.369E-03    0   0.6985   age120_m62            0.0000     5.7078E-01     4.2853   0.4187   105.1162
 43      0.0000     0.0000E+00    0.0000E+00    2.861200E+08  0.02000  9.013E-04    0   0.6714   age125_m62            0.0000     7.7824E-01     4.8137   0.1653   108.2766
 44      0.0000     0.0000E+00    0.0000E+00    5.088000E+08  0.02000  5.028E-04    0   0.6449   age130_m62            0.0000     1.0258E+00     5.6367  -0.2009   110.5661
 45      2.5671     5.8767E+00    6.4188E+00    9.047900E+08  0.02000  2.428E-04    0   0.6179   age135_m62            0.0000     9.9074E-01     5.8360  -0.7775   109.4178
 46      0.9000     3.9610E+00    4.1366E+00    1.434000E+09  0.02000  1.263E-04    0   0.5908   age139_m62            0.0000     1.2690E+00     6.5102  -1.0000    98.1934
 47      0.0000     0.0000E+00    0.0000E+00    2.500000E+09  0.02000  5.985E-05    0   0.5673   age150_m62            0.0000     2.7660E+00    10.2075  -1.0000    82.3806
 48      0.0000     0.0000E+00    0.0000E+00    4.250000E+09  0.02000  3.271E-05    0   0.5468   age158_m62            0.0000     4.7597E+00    13.8931  -1.0000    70.9409
 49      0.0000     0.0000E+00    0.0000E+00    1.000000E+10  0.02000  1.360E-05    0   0.5167   age181_m62            0.0000     7.5128E+00    18.0882  -1.0000    59.8608
 50      0.0000     0.0000E+00    0.0000E+00    1.800000E+10  0.02000  7.124E-06    0   0.5013   age213_m62            0.0000     9.3094E+00    20.3950  -1.0000    53.6505
 51      2.3553     5.0507E-02    8.9262E-02    1.000000E+06  0.05000  2.592E-02    0   0.9998   age020_m72            0.0000     6.9124E-01     5.3860   1.8668    89.6521
 52      0.0000     0.0000E+00    0.0000E+00    3.160000E+06  0.05000  4.845E-02    0   0.9577   age045_m72            0.0000     6.4474E-01     5.1382   1.6887    92.0310
 53      0.0000     0.0000E+00    0.0000E+00    5.010000E+06  0.05000  3.072E-02    0   0.9147   age055_m72            0.0000     4.4177E-01     4.1503   1.1907    97.4254
 54      0.0000     0.0000E+00    0.0000E+00    6.610000E+06  0.05000  1.455E-02    0   0.8877   age061_m72            0.0000     1.4471E+00     7.5195   0.4333   104.6018
 55      0.0000     0.0000E+00    0.0000E+00    1.000000E+07  0.05000  9.074E-03    0   0.8524   age070_m72            0.0000     5.9322E-01     4.8401   1.3881    96.8771
 56      0.0000     0.0000E+00    0.0000E+00    2.512000E+07  0.05000  4.250E-03    0   0.7902   age090_m72            0.0000     4.7255E-01     4.2831   1.0637    99.6435
 57      0.0000     0.0000E+00    0.0000E+00    4.000000E+07  0.05000  3.087E-03    0   0.7618   age104_m72            0.0000     4.9789E-01     4.3892   0.8254   101.8245
 58      0.0015     4.8311E-04    6.0598E-04    1.015200E+08  0.05000  1.700E-03    0   0.7096   age116_m72            0.0000     5.2648E-01     4.1923   0.5583   104.8772
 59      4.0898     3.0786E+00    3.6097E+00    2.861200E+08  0.05000  7.384E-04    0   0.6633   age125_m72            0.0000     9.1480E-01     5.2032   0.0380   109.5162
 60      6.5585     9.5455E+00    1.0752E+01    5.088000E+08  0.05000  3.819E-04    0   0.6372   age130_m72            0.0000     1.0200E+00     5.8450  -0.4451   110.7216
 61      2.7715     9.1915E+00    9.9273E+00    9.047900E+08  0.05000  1.676E-04    0   0.6110   age135_m72            0.0000     1.3640E+00     7.0019  -1.0000   102.4409
 62      0.0000     0.0000E+00    0.0000E+00    1.434000E+09  0.05000  8.837E-05    0   0.5874   age139_m72            0.0000     2.8818E+00    10.3853  -1.0000    83.5528
 63      0.0000     0.0000E+00    0.0000E+00    2.500000E+09  0.05000  4.233E-05    0   0.5598   age150_m72            0.0000     4.8640E+00    13.9253  -1.0000    71.5386
 64      0.0000     0.0000E+00    0.0000E+00    6.250000E+09  0.05000  1.435E-05    0   0.5249   age166_m72            0.0000     8.3200E+00    19.2111  -1.0000    56.8668
 65      0.0000     0.0000E+00    0.0000E+00    1.300000E+10  0.05000  6.513E-06    0   0.5036   age193_m72            0.0000     1.0765E+01    22.1857  -1.0000    50.0663
 66      0.0000     0.0000E+00    0.0000E+00    1.800000E+10  0.05000  4.527E-06    0   0.4945   age213_m72            0.0000     1.2197E+01    23.7857  -1.0000    46.1495


## Synthesis Results - Average & Chains ##

# j      x_j: min, <> & last-chain-values for 1 ...  7 chains
  1      4.0237      0.8939      2.1426      2.8177      0.0000      0.0000      1.6071      1.3452      3.6553
  2      0.0162      0.4836      0.0000      0.6769      1.3987      0.0000      0.0000      0.0000      0.0000
  3      0.0023      0.8999      3.7429      1.1068      0.8834      0.9014      1.8494      4.0545      1.0879
  4      0.0000      0.5079      0.0000      0.0000      0.0000      0.0000      0.0000      0.0000      0.0000
  5      0.2531      0.8254      1.4565      1.1651      0.1046      0.0000      0.0000      3.8472      0.0000
  6      0.1499      0.5011      0.2072      1.3152      0.3760      1.7031      0.4628      0.0000      0.1523
  7      0.0000      1.6585      4.3384      0.0000      1.4848      2.3758      0.0384      0.9745      3.0149
  8      3.8797      3.3826      6.5773      2.7487      1.1394      2.5243      4.9223      0.0000      0.1976
  9      0.0000      1.5680      0.3188      0.0000      0.2657      3.2454      0.0000      0.0000      3.1250
 10      0.0000      0.7748      0.1424      0.0000      3.0643      0.0000      0.0000      2.3908      0.0000
 11      0.0116      1.1574      0.0000      1.5622      0.2454      0.0000      0.0000      0.9007      0.0000
 12      0.0000      0.9431      0.0000      0.0000      0.0000      0.0000      0.0000      0.9866      0.0000
 13      0.0000      0.6127      0.0000      0.1919      0.7168      1.7144      0.6308      0.0127      0.5037
 14      0.0000      0.3239      0.0000      0.0000      0.0000      0.0000      0.8186      0.8044      1.9473
 15      0.0000      0.0625      0.0000      0.0000      0.0000      0.0000      0.4703      0.5994      0.0000
 16      0.0000      0.0219      0.4058      0.0000      0.0000      0.0000      0.0476      0.0000      0.0000
 17      1.0593      0.4821      1.6046      0.4557      0.9765      1.2428      0.0000      0.3584      0.0000
 18      3.7344      0.6982      0.0522      3.3953      0.0000      0.4881      1.7830      0.7685      0.0000
 19      0.6074      1.7344      1.5052      1.4860      0.7960      0.0000      0.8302      1.8958      0.0000
 20      0.0000      0.3211      1.1361      0.0000      0.0000      0.0000      0.0000      0.0000      0.6717
 21     43.7799     39.3222     37.3993     37.8007     48.2437     49.4349     40.2796     40.1906     42.5797
 22      0.8488      1.3492      1.4897      5.6063      3.2055      1.1517      0.0000      0.0000      0.0000
 23      0.0000      0.5543      0.0608      0.0000      2.9833      0.0000      0.0000      1.1354      3.1357
 24      1.0133      1.5130      2.7158      1.9314      1.7846      0.0000      4.9870      2.5139      0.6796
 25      2.3556      0.9520      2.0196      0.7160      0.0000      0.0000      0.0000      0.0000      2.2891
 26      0.0000      1.2894      0.0000      0.0000      0.0000      0.3531      0.0000      0.0000      0.0000
 27      0.0171      1.1978      0.0388      1.2773      0.0000      0.6340      0.0000      1.1852      0.0000
 28      2.7887      0.3718      0.0000      1.3417      0.0000      0.0000      1.0157      0.2937      0.0000
 29      0.0000      0.9032      1.6310      0.0000      1.1988      0.0000      1.1326      0.9773      0.0000
 30      0.0000      0.1776      0.8422      0.4555      0.0000      0.0000      0.0000      0.0000      0.4368
 31      1.6597      0.3674      0.8115      0.5716      0.0000      0.3492      0.6410      0.8881      0.0000
 32      0.0000      0.0941      0.0000      0.0000      0.0000      0.0000      0.0000      0.0000      0.5962
 33      0.0000      0.0251      0.0000      0.0000      0.0000      0.0000      0.1046      0.0000      0.1281
 34      0.0000      0.0160      0.0116      0.0255      0.0000      0.0000      0.0000      0.1390      0.0000
 35      1.1757      0.7520      0.0000      2.6299      0.0000      0.0000      0.0000      1.3437      0.0000
 36      0.0000      0.6178      0.7355      0.0000      0.5357      0.0000      1.2681      0.0000      3.7535
 37      0.0000      1.1514      0.5127      0.6933      0.0000      5.1071      0.0000      0.0000      0.0000
 38     16.6782     13.8195     10.9110      9.4787     18.0723     14.4799     13.5942     13.5884     13.0855
 39      0.0112      2.1472      2.6568      5.0139      1.7617      2.5930      4.2928      4.7789      0.0000
 40      0.0000      1.2864      0.5478      0.0000      0.0000      1.4564      1.9690      0.9288      1.3548
 41      0.0000      1.5010      0.0000      0.0000      0.0000      2.2203      0.0000      0.0000      3.9248
 42      0.0044      0.6996      0.0000      0.5373      0.0000      0.3481      1.2016      0.0000      0.0000
 43      0.0000      0.8829      0.6742      0.0000      0.3450      0.0000      0.0415      0.0000      0.0000
 44      0.0000      1.2847      4.5905      0.0000      0.0000      1.2125      1.5892      1.7348      2.2261
 45      2.5671      1.1762      1.2702      4.4126      1.7477      0.0000      1.3540      1.0517      0.0000
 46      0.9000      1.1448      1.3123      1.3802      0.9517      1.5561      1.0728      0.9304      1.5381
