###################################################################
## OUTPUT of StarlightChains_v04.for    [Cid@UFSC - 01/Apr/2007] ##
###################################################################

## Some input info
2011iu.txt                               [arq_obs]
Base.CB07.vall.4m                        [arq_base]
Masks.EmLines.NEW.gm                     [arq_masks]
StCv04.C11.config                        [arq_config]
   66                                    [N_base]
    0                                    [N_YAV_components = # of components with extra extinction!]
    0                                    [i_FitPowerLaw (1/0 = Yes/No)]
-9.99                                    [alpha_PowerLaw]
CCM                                      [red_law_option]
 1.458241                                [q_norm = A(l_norm)/A(V)]

## (Re)Sampling Parameters
 3741.00                                 [l_ini (A)]
 7218.00                                 [l_fin (A)]
    1.00                                 [dl    (A)]     (OBS: dl_cushion =    50.00 A)

## Normalization info
 4020.00                                 [l_norm (A) - for base]
 4010.00                                 [llow_norm (A) - window for f_obs]
 4060.00                                 [lupp_norm (A) - window for f_obs]
2.311674E-17                             [fobs_norm (in input units)]

## S/N
 3691.00                                 [llow_SN (A) - window for S/N]
 7268.00                                 [lupp_SN (A) - window for S/N]
   4.354                                 [S/N in S/N window]
   6.009                                 [S/N in norm. window]
  15.420                                 [S/N_err in S/N window]
  21.278                                 [S/N_err in norm. window]
  1.0000                                 [fscale_chi2]

## etc...
    -2007383                             [idum_orig]
  2214                                   [NOl_eff]
  2209                                   [Nl_eff]
     5    NSIGMA                         [Ntot_cliped & clip_method]
   609000                                [Nglobal_steps]
   7                                     [N_chains]
   8                                     [NEX0s_base = N_base in EX0s-fits]
 0   0   1        0   2.0   4.408E+01    [Clip-Bug, RC-Crash & Burn-In warning-flags, n_censored_weights, wei_nsig_threshold & wei_limit]
    10     10.200      9.692      0.508  [idt_all, wdt_TotTime, wdt_UsrTime & wdt_SysTime (sec)]

## Synthesis Results - Best model ##

 6.79369E-01                             [chi2/Nl_eff]
     4.06943                             [adev (%)]

   113.05201                             [sum-of-x (%)]
 1.69067E-17                             [Flux_tot (units of input spectrum!)]
 4.74265E-14                             [Mini_tot (???)]
 2.98579E-14                             [Mcor_tot (???)]

-159.75                                  [v0_min  (km/s)]
 165.32                                  [vd_min  (km/s)]
-0.3243                                  [AV_min  (mag)]
 0.0000                                  [YAV_min (mag)]

# j     x_j(%)      Mini_j(%)     Mcor_j(%)     age_j(yr)     Z_j      (L/M)_j    YAV?  Mstars   component_j        a/Fe...       SSP_chi2r SSP_adev(%)   SSP_AV   SSP_x(%)
  1      0.0000     0.0000E+00    0.0000E+00    1.000000E+06  0.00400  1.094E-02    0   1.0000   age020_m42            0.0000     2.1616E+00     7.0893   2.1006    89.8031
  2      0.5948     4.6807E-03    7.4341E-03    3.160000E+06  0.00400  4.007E-02    0   0.9999   age045_m42            0.0000     1.3843E+00     5.6815   1.3251    98.3787
  3      0.0000     0.0000E+00    0.0000E+00    5.010000E+06  0.00400  2.539E-02    0   0.9488   age055_m42            0.0000     1.6531E+00     6.2212   1.6622    95.1596
  4      1.9680     2.3686E-02    3.4688E-02    6.610000E+06  0.00400  2.620E-02    0   0.9220   age061_m42            0.0000     1.3284E+00     5.6085   1.2447    98.9979
  5      0.0000     0.0000E+00    0.0000E+00    1.000000E+07  0.00400  1.322E-02    0   0.8862   age070_m42            0.0000     1.7460E+00     6.4940   0.9595   101.5934
  6      0.0000     0.0000E+00    0.0000E+00    1.445000E+07  0.00400  7.883E-03    0   0.8571   age078_m42            0.0000     1.8895E+00     6.7084   1.3022    98.2513
  7      0.0000     0.0000E+00    0.0000E+00    2.512000E+07  0.00400  5.251E-03    0   0.8174   age090_m42            0.0000     1.8218E+00     6.6559   0.8243   102.4743
  8      0.0000     0.0000E+00    0.0000E+00    4.000000E+07  0.00400  3.649E-03    0   0.7851   age104_m42            0.0000     1.6422E+00     6.3424   0.5883   103.7145
  9      0.0000     0.0000E+00    0.0000E+00    5.500000E+07  0.00400  3.098E-03    0   0.7629   age110_m42            0.0000     1.3387E+00     5.7223   0.7368   103.8909
 10      0.0000     0.0000E+00    0.0000E+00    1.015200E+08  0.00400  2.228E-03    0   0.7207   age116_m42            0.0000     1.1727E+00     5.3426   0.7509   104.3291
 11      0.0000     0.0000E+00    0.0000E+00    2.861200E+08  0.00400  1.093E-03    0   0.6648   age125_m42            0.0000     1.1825E+00     5.4854   0.1763   108.1527
 12      0.0000     0.0000E+00    0.0000E+00    5.088000E+08  0.00400  6.597E-04    0   0.6365   age130_m42            0.0000     9.6083E-01     4.9121   0.1580   109.2658
 13      0.0000     0.0000E+00    0.0000E+00    1.434000E+09  0.00400  2.132E-04    0   0.5798   age139_m42            0.0000     7.5291E-01     4.2737  -0.8240   111.6217
 14      0.0000     0.0000E+00    0.0000E+00    4.250000E+09  0.00400  5.895E-05    0   0.5377   age158_m42            0.0000     1.2343E+00     5.8620  -1.0000    95.8185
 15      0.0000     0.0000E+00    0.0000E+00    7.500000E+09  0.00400  3.510E-05    0   0.5212   age171_m42            0.0000     2.2048E+00     8.3478  -1.0000    87.8414
 16      0.0000     0.0000E+00    0.0000E+00    1.300000E+10  0.00400  2.005E-05    0   0.5034   age193_m42            0.0000     3.4090E+00    10.6894  -1.0000    81.3064
 17      0.0000     0.0000E+00    0.0000E+00    1.800000E+10  0.00400  1.525E-05    0   0.4967   age213_m42            0.0000     3.6383E+00    11.0503  -1.0000    80.0938
 18      0.0000     0.0000E+00    0.0000E+00    1.000000E+06  0.00800  1.238E-02    0   1.0000   age020_m52            0.0000     2.1575E+00     7.0900   2.0975    89.9521
 19      0.0000     0.0000E+00    0.0000E+00    3.160000E+06  0.00800  3.074E-02    0   0.9966   age045_m52            0.0000     2.0479E+00     6.9367   2.0134    91.0355
 20      0.0000     0.0000E+00    0.0000E+00    5.010000E+06  0.00800  2.668E-02    0   0.9443   age055_m52            0.0000     1.7435E+00     6.4183   1.7503    94.0369
 21      9.8711     1.4572E-01    2.1242E-01    6.610000E+06  0.00800  2.136E-02    0   0.9177   age061_m52            0.0000     1.7091E+00     6.3302   0.4672   102.1674
 22      0.0000     0.0000E+00    0.0000E+00    1.000000E+07  0.00800  1.215E-02    0   0.8827   age070_m52            0.0000     2.0081E+00     6.9850   1.1492   101.0171
 23      0.0000     0.0000E+00    0.0000E+00    1.445000E+07  0.00800  8.717E-03    0   0.8552   age078_m52            0.0000     1.8270E+00     6.6146   1.2616    99.8876
 24      0.0000     0.0000E+00    0.0000E+00    2.512000E+07  0.00800  5.592E-03    0   0.8162   age090_m52            0.0000     1.7982E+00     6.6488   0.8861   103.8535
 25      0.0000     0.0000E+00    0.0000E+00    4.000000E+07  0.00800  3.896E-03    0   0.7841   age104_m52            0.0000     1.5598E+00     6.2230   0.7933   104.9444
 26      0.0000     0.0000E+00    0.0000E+00    1.015200E+08  0.00800  2.148E-03    0   0.7226   age116_m52            0.0000     1.2289E+00     5.5292   0.7212   105.1328
 27      0.0000     0.0000E+00    0.0000E+00    2.861200E+08  0.00800  9.925E-04    0   0.6683   age125_m52            0.0000     9.3362E-01     4.8633   0.2213   110.3770
 28      0.0000     0.0000E+00    0.0000E+00    9.047900E+08  0.00800  3.141E-04    0   0.6138   age135_m52            0.0000     7.5959E-01     4.3309  -0.5750   114.6108
 29      0.0000     0.0000E+00    0.0000E+00    1.434000E+09  0.00800  1.719E-04    0   0.5853   age139_m52            0.0000     9.4211E-01     4.8318  -1.0000   105.1981
 30      0.0000     0.0000E+00    0.0000E+00    2.500000E+09  0.00800  7.872E-05    0   0.5600   age150_m52            0.0000     2.0429E+00     8.0356  -1.0000    91.1154
 31      0.0000     0.0000E+00    0.0000E+00    4.250000E+09  0.00800  4.336E-05    0   0.5426   age158_m52            0.0000     2.1677E+00     8.2748  -1.0000    89.6288
 32      0.0000     0.0000E+00    0.0000E+00    6.250000E+09  0.00800  3.159E-05    0   0.5319   age166_m52            0.0000     3.7132E+00    11.2603  -1.0000    81.9974
 33      0.0000     0.0000E+00    0.0000E+00    1.300000E+10  0.00800  1.361E-05    0   0.5073   age193_m52            0.0000     8.9179E+00    18.1608  -1.0000    65.7455
 34      0.0000     0.0000E+00    0.0000E+00    1.800000E+10  0.00800  9.886E-06    0   0.4990   age213_m52            0.0000     1.0257E+01    19.5095  -1.0000    62.1993
 35      0.0000     0.0000E+00    0.0000E+00    1.000000E+06  0.02000  1.544E-02    0   1.0000   age020_m62            0.0000     2.1726E+00     7.1235   2.0938    90.1376
 36      0.0000     0.0000E+00    0.0000E+00    3.160000E+06  0.02000  3.762E-02    0   0.9858   age045_m62            0.0000     2.1047E+00     7.0573   2.0289    91.0883
 37      0.0000     0.0000E+00    0.0000E+00    5.010000E+06  0.02000  3.296E-02    0   0.9342   age055_m62            0.0000     1.4360E+00     5.8243   1.6114    96.8189
 38      0.0000     0.0000E+00    0.0000E+00    8.710000E+06  0.02000  1.154E-02    0   0.8861   age067_m62            0.0000     4.1529E+00    10.1646   0.6122   103.8871
 39      0.0000     0.0000E+00    0.0000E+00    1.445000E+07  0.02000  7.663E-03    0   0.8472   age078_m62            0.0000     2.4422E+00     7.7145   0.7994   103.4275
 40      0.0000     0.0000E+00    0.0000E+00    2.512000E+07  0.02000  4.532E-03    0   0.8099   age090_m62            0.0000     2.4748E+00     7.8204   0.7870   103.4934
 41      0.0000     0.0000E+00    0.0000E+00    5.500000E+07  0.02000  2.733E-03    0   0.7595   age110_m62            0.0000     1.5695E+00     6.2197   0.7765   104.1002
 42      0.0000     0.0000E+00    0.0000E+00    1.609000E+08  0.02000  1.369E-03    0   0.6985   age120_m62            0.0000     1.1126E+00     5.3067   0.5911   108.1215
 43      0.0005     1.6706E-04    1.7817E-04    2.861200E+08  0.02000  9.013E-04    0   0.6714   age125_m62            0.0000     9.8551E-01     5.0191   0.3222   112.0819
 44      7.0227     4.4042E+00    4.5115E+00    5.088000E+08  0.02000  5.028E-04    0   0.6449   age130_m62            0.0000     8.0769E-01     4.5252  -0.0542   114.8014
 45      0.0000     0.0000E+00    0.0000E+00    9.047900E+08  0.02000  2.428E-04    0   0.6179   age135_m62            0.0000     6.9899E-01     4.1615  -0.6188   112.8324
 46      0.0000     0.0000E+00    0.0000E+00    1.434000E+09  0.02000  1.263E-04    0   0.5908   age139_m62            0.0000     8.1101E-01     4.4878  -1.0000   108.1326
 47      0.0000     0.0000E+00    0.0000E+00    2.500000E+09  0.02000  5.985E-05    0   0.5673   age150_m62            0.0000     2.2099E+00     8.3706  -1.0000    91.3245
 48      0.0000     0.0000E+00    0.0000E+00    4.250000E+09  0.02000  3.271E-05    0   0.5468   age158_m62            0.0000     4.7283E+00    12.8898  -1.0000    79.0875
 49      0.0000     0.0000E+00    0.0000E+00    1.000000E+10  0.02000  1.360E-05    0   0.5167   age181_m62            0.0000     8.6940E+00    17.8304  -1.0000    67.1627
 50      0.0000     0.0000E+00    0.0000E+00    1.800000E+10  0.02000  7.124E-06    0   0.5013   age213_m62            0.0000     1.1379E+01    20.5056  -1.0000    60.4079
 51      0.0000     0.0000E+00    0.0000E+00    1.000000E+06  0.05000  2.592E-02    0   0.9998   age020_m72            0.0000     2.2743E+00     7.2828   2.0888    89.9992
 52      0.0000     0.0000E+00    0.0000E+00    3.160000E+06  0.05000  4.845E-02    0   0.9577   age045_m72            0.0000     1.7962E+00     6.5391   1.8951    93.0403
 53      0.0000     0.0000E+00    0.0000E+00    5.010000E+06  0.05000  3.072E-02    0   0.9147   age055_m72            0.0000     2.1662E+00     7.2084   1.4191    97.9536
 54      0.0000     0.0000E+00    0.0000E+00    6.610000E+06  0.05000  1.455E-02    0   0.8877   age061_m72            0.0000     5.4742E+00    11.7320   0.7057   104.0361
 55      0.0000     0.0000E+00    0.0000E+00    1.000000E+07  0.05000  9.074E-03    0   0.8524   age070_m72            0.0000     2.2052E+00     7.2856   1.6334    96.9523
 56      0.0000     0.0000E+00    0.0000E+00    2.512000E+07  0.05000  4.250E-03    0   0.7902   age090_m72            0.0000     1.9079E+00     6.7991   1.2853   100.6493
 57      0.0000     0.0000E+00    0.0000E+00    4.000000E+07  0.05000  3.087E-03    0   0.7618   age104_m72            0.0000     1.9065E+00     6.8412   1.0397   103.2120
 58      0.0000     0.0000E+00    0.0000E+00    1.015200E+08  0.05000  1.700E-03    0   0.7096   age116_m72            0.0000     1.2891E+00     5.7129   0.7385   107.6164
 59      0.0000     0.0000E+00    0.0000E+00    2.861200E+08  0.05000  7.384E-04    0   0.6633   age125_m72            0.0000     8.8999E-01     4.7715   0.1899   113.5343
 60     76.4104     6.3090E+01    6.3856E+01    5.088000E+08  0.05000  3.819E-04    0   0.6372   age130_m72            0.0000     7.1563E-01     4.2134  -0.2942   114.5919
 61     17.1845     3.2331E+01    3.1378E+01    9.047900E+08  0.05000  1.676E-04    0   0.6110   age135_m72            0.0000     8.6940E-01     4.5900  -0.9558   110.4623
 62      0.0000     0.0000E+00    0.0000E+00    1.434000E+09  0.05000  8.837E-05    0   0.5874   age139_m72            0.0000     2.3019E+00     8.5169  -1.0000    92.6258
 63      0.0000     0.0000E+00    0.0000E+00    2.500000E+09  0.05000  4.233E-05    0   0.5598   age150_m72            0.0000     4.7804E+00    12.9083  -1.0000    79.7149
 64      0.0000     0.0000E+00    0.0000E+00    6.250000E+09  0.05000  1.435E-05    0   0.5249   age166_m72            0.0000     9.9281E+00    19.0986  -1.0000    63.8930
 65      0.0000     0.0000E+00    0.0000E+00    1.300000E+10  0.05000  6.513E-06    0   0.5036   age193_m72            0.0000     1.3705E+01    22.5460  -1.0000    56.5126
 66      0.0000     0.0000E+00    0.0000E+00    1.800000E+10  0.05000  4.527E-06    0   0.4945   age213_m72            0.0000     1.5961E+01    24.3568  -1.0000    52.2301


## Synthesis Results - Average & Chains ##

# j      x_j: min, <> & last-chain-values for 1 ...  7 chains
  1      0.0000      0.1103      0.0000      0.0000      0.0000      0.0000      0.0000      0.0000      0.0000
  2      0.5948      5.9795      5.9193      6.5296      5.1591      6.3120      5.0351      7.7648      5.3208
  3      0.0000      0.2625      0.3401      0.0000      0.0000      0.0000      0.0000      0.1247      0.0000
  4      1.9680      3.9215      6.1856      3.6130      4.3944      5.0080      4.8281      2.8096      3.2531
  5      0.0000      0.2018      0.0000      0.3966      0.8389      0.0000      0.0420      0.0000      0.0000
  6      0.0000      0.1284      0.0000      0.0000      0.0000      0.0000      0.0000      0.0000      0.0000
  7      0.0000      0.3443      0.0000      0.1676      0.0000      0.0000      0.0000      1.5676      0.0000
  8      0.0000      0.1803      0.0000      0.0000      0.0000      0.0589      0.0000      0.0000      0.0874
  9      0.0000      0.2785      0.0000      0.0000      0.1974      0.0000      0.0000      0.0000      0.0000
 10      0.0000      0.3134      0.0000      0.0000      0.0000      0.0000      0.8351      0.0986      0.6180
 11      0.0000      0.1694      0.0000      0.0000      0.0000      0.0000      0.0000      0.0000      0.4905
 12      0.0000      1.1292      0.0000      2.3641      1.0489      0.0000      0.0000      0.0000      0.0016
 13      0.0000      0.0217      0.0000      0.0000      0.0000      0.0000      0.0000      0.0000      0.0000
 14      0.0000      0.0146      0.0000      0.0000      0.0000      0.0000      0.2281      0.0000      0.0317
 15      0.0000      0.0219      0.0000      0.0000      0.0000      0.2360      0.0000      0.0000      0.0000
 16      0.0000      0.0076      0.0000      0.0000      0.0000      0.0000      0.0000      0.0000      0.0000
 17      0.0000      0.0132      0.0000      0.0000      0.0000      0.0000      0.0000      0.0000      0.0000
 18      0.0000      0.1382      0.8257      0.0259      0.0000      0.0000      0.0000      0.0000      0.0000
 19      0.0000      0.0847      0.3558      0.0000      0.9477      0.0000      0.0000      1.0150      0.0000
 20      0.0000      0.7358      0.9343      0.0000      0.3187      0.0000      0.0375      0.0000      0.0000
 21      9.8711      2.9986      1.7004      7.0729      4.9413      2.3658      4.2453      2.1052      4.9297
 22      0.0000      0.0694      0.0000      0.0000      0.0000      0.0000      0.0000      0.0000      0.0000
 23      0.0000      0.1349      0.0000      0.0000      0.0000      0.0000      0.0000      0.0000      0.0000
 24      0.0000      0.0993      0.0000      0.0000      0.0000      0.0000      0.0000      0.6405      0.1697
 25      0.0000      0.1184      0.0000      0.0000      0.0000      0.0000      0.0000      0.0000      0.0000
 26      0.0000      0.2045      0.0000      0.3193      0.0247      0.0000      1.0820      0.0000      0.0000
 27      0.0000      0.5805      0.4264      0.3676      1.5760      0.0000      0.0000      0.0000      0.0000
 28      0.0000      0.2060      0.0000      0.6985      0.0000      0.0000      0.0000      0.0000      0.0000
 29      0.0000      0.0123      0.0000      0.0000      0.0000      0.0000      0.0000      0.0000      0.0000
 30      0.0000      0.0157      0.0000      0.0000      0.0000      0.0000      0.0000      0.0000      0.1730
 31      0.0000      0.0088      0.0000      0.0000      0.1598      0.0000      0.0000      0.0000      0.0000
 32      0.0000      0.0114      0.0000      0.0000      0.0000      0.0000      0.0000      0.0000      0.0000
 33      0.0000      0.0019      0.0000      0.0000      0.0000      0.0000      0.0000      0.0000      0.0000
 34      0.0000      0.0013      0.0000      0.0000      0.0000      0.0000      0.0000      0.0000      0.0000
 35      0.0000      0.0709      0.0000      0.0000      0.0000      0.0000      0.0000      0.1128      0.0000
 36      0.0000      0.2253      0.0000      0.0000      0.0000      0.4507      0.0000      0.0000      0.0000
 37      0.0000      0.1551      0.0000      0.0000      0.4290      0.0000      0.3528      0.0000      0.0000
 38      0.0000      0.0246      0.0000      0.0000      0.0000      0.0000      0.0000      0.0000      0.0000
 39      0.0000      0.1259      0.0000      0.0000      0.0000      0.0000      0.0000      0.0000      0.0000
 40      0.0000      0.0541      0.0000      0.0000      0.0000      0.7609      0.0000      0.0000      0.0000
 41      0.0000      0.1440      0.0000      0.0000      0.0000      0.0000      0.0000      1.5251      0.0000
 42      0.0000      0.3619      0.0000      0.0000      0.0000      0.0000      0.2201      0.0000      0.5667
 43      0.0005      0.3055      0.0000      0.1200      0.3802      0.9675      0.0000      0.0000      2.2075
 44      7.0227     34.2610     30.7786     31.9459     34.3315     28.6829     31.6614     32.2808     28.2285
 45      0.0000      1.4723      2.2900      2.3624      3.4598      0.0000      1.2208      1.3066      1.6878
 46      0.0000      0.0828      0.0000      0.0000      0.0000      0.0000      0.0000      0.0000      0.0000
