###################################################################
## OUTPUT of StarlightChains_v04.for    [Cid@UFSC - 01/Apr/2007] ##
###################################################################

## Some input info
2011hr.txt                               [arq_obs]
Base.CB07.vall.4m                        [arq_base]
Masks.EmLines.NEW.gm                     [arq_masks]
StCv04.C11.config                        [arq_config]
   66                                    [N_base]
    0                                    [N_YAV_components = # of components with extra extinction!]
    0                                    [i_FitPowerLaw (1/0 = Yes/No)]
-9.99                                    [alpha_PowerLaw]
CCM                                      [red_law_option]
 1.458241                                [q_norm = A(l_norm)/A(V)]

## (Re)Sampling Parameters
 3741.00                                 [l_ini (A)]
 7218.00                                 [l_fin (A)]
    1.00                                 [dl    (A)]     (OBS: dl_cushion =    50.00 A)

## Normalization info
 4020.00                                 [l_norm (A) - for base]
 4010.00                                 [llow_norm (A) - window for f_obs]
 4060.00                                 [lupp_norm (A) - window for f_obs]
2.818899E-16                             [fobs_norm (in input units)]

## S/N
 3691.00                                 [llow_SN (A) - window for S/N]
 7268.00                                 [lupp_SN (A) - window for S/N]
  15.870                                 [S/N in S/N window]
  17.378                                 [S/N in norm. window]
  27.268                                 [S/N_err in S/N window]
  29.860                                 [S/N_err in norm. window]
  1.0000                                 [fscale_chi2]

## etc...
    -2007379                             [idum_orig]
  2384                                   [NOl_eff]
  2381                                   [Nl_eff]
     3    NSIGMA                         [Ntot_cliped & clip_method]
  2548910                                [Nglobal_steps]
   7                                     [N_chains]
  41                                     [NEX0s_base = N_base in EX0s-fits]
 0   0   1        2   2.0   4.602E+01    [Clip-Bug, RC-Crash & Burn-In warning-flags, n_censored_weights, wei_nsig_threshold & wei_limit]
    22     21.719     21.208      0.511  [idt_all, wdt_TotTime, wdt_UsrTime & wdt_SysTime (sec)]

## Synthesis Results - Best model ##

 3.62419E-01                             [chi2/Nl_eff]
     1.70099                             [adev (%)]

   101.57381                             [sum-of-x (%)]
 6.85516E-16                             [Flux_tot (units of input spectrum!)]
 1.01512E-11                             [Mini_tot (???)]
 5.21668E-12                             [Mcor_tot (???)]

 -17.80                                  [v0_min  (km/s)]
 210.72                                  [vd_min  (km/s)]
 0.6500                                  [AV_min  (mag)]
 0.0000                                  [YAV_min (mag)]

# j     x_j(%)      Mini_j(%)     Mcor_j(%)     age_j(yr)     Z_j      (L/M)_j    YAV?  Mstars   component_j        a/Fe...       SSP_chi2r SSP_adev(%)   SSP_AV   SSP_x(%)
  1      4.8478     2.9461E-02    5.7328E-02    1.000000E+06  0.00400  1.094E-02    0   1.0000   age020_m42            0.0000     3.0110E+00     4.9019   2.9430    87.8662
  2      0.2971     4.9291E-04    9.5907E-04    3.160000E+06  0.00400  4.007E-02    0   0.9999   age045_m42            0.0000     2.2167E+00     4.2914   2.2477    92.5837
  3      0.0000     0.0000E+00    0.0000E+00    5.010000E+06  0.00400  2.539E-02    0   0.9488   age055_m42            0.0000     2.3868E+00     4.3454   2.5529    90.9469
  4      0.0000     0.0000E+00    0.0000E+00    6.610000E+06  0.00400  2.620E-02    0   0.9220   age061_m42            0.0000     1.9933E+00     4.0997   2.1729    92.8607
  5      3.3868     1.7033E-02    2.9372E-02    1.000000E+07  0.00400  1.322E-02    0   0.8862   age070_m42            0.0000     9.7484E-01     2.7174   1.8677    95.8941
  6      0.0000     0.0000E+00    0.0000E+00    1.445000E+07  0.00400  7.883E-03    0   0.8571   age078_m42            0.0000     1.2331E+00     2.9828   2.1893    93.7083
  7      2.2209     2.8119E-02    4.4726E-02    2.512000E+07  0.00400  5.251E-03    0   0.8174   age090_m42            0.0000     8.5349E-01     2.5399   1.7353    96.5296
  8      0.0000     0.0000E+00    0.0000E+00    4.000000E+07  0.00400  3.649E-03    0   0.7851   age104_m42            0.0000     8.2772E-01     2.5744   1.5142    97.0363
  9      0.6850     1.4701E-02    2.1824E-02    5.500000E+07  0.00400  3.098E-03    0   0.7629   age110_m42            0.0000     1.1986E+00     3.1763   1.6836    96.3301
 10      0.0016     4.7985E-05    6.7295E-05    1.015200E+08  0.00400  2.228E-03    0   0.7207   age116_m42            0.0000     1.5123E+00     3.6253   1.7156    95.9994
 11      0.0000     0.0000E+00    0.0000E+00    2.861200E+08  0.00400  1.093E-03    0   0.6648   age125_m42            0.0000     1.3345E+00     3.3754   1.1487    98.8842
 12      0.0000     0.0000E+00    0.0000E+00    5.088000E+08  0.00400  6.597E-04    0   0.6365   age130_m42            0.0000     1.7530E+00     3.8562   1.1551    98.9268
 13      0.0000     0.0000E+00    0.0000E+00    1.434000E+09  0.00400  2.132E-04    0   0.5798   age139_m42            0.0000     1.7174E+00     3.9109   0.1961   100.2280
 14      3.2490     3.6642E+00    3.8340E+00    4.250000E+09  0.00400  5.895E-05    0   0.5377   age158_m42            0.0000     2.5014E+00     4.9913  -0.2375    96.0932
 15      2.1141     4.0043E+00    4.0612E+00    7.500000E+09  0.00400  3.510E-05    0   0.5212   age171_m42            0.0000     3.1516E+00     5.5525  -0.4155    95.0646
 16      3.2025     1.0619E+01    1.0402E+01    1.300000E+10  0.00400  2.005E-05    0   0.5034   age193_m42            0.0000     3.8588E+00     6.0753  -0.5721    94.2353
 17      2.0011     8.7239E+00    8.4320E+00    1.800000E+10  0.00400  1.525E-05    0   0.4967   age213_m42            0.0000     3.7352E+00     5.9880  -0.5979    93.9258
 18      5.7667     3.0969E-02    6.0262E-02    1.000000E+06  0.00800  1.238E-02    0   1.0000   age020_m52            0.0000     3.0177E+00     4.9147   2.9394    88.0383
 19      0.7889     1.7061E-03    3.3087E-03    3.160000E+06  0.00800  3.074E-02    0   0.9966   age045_m52            0.0000     2.9763E+00     4.8649   2.8648    88.7211
 20      0.6722     1.6751E-03    3.0781E-03    5.010000E+06  0.00800  2.668E-02    0   0.9443   age055_m52            0.0000     2.4003E+00     4.3499   2.6297    90.3686
 21      0.0236     7.3353E-05    1.3099E-04    6.610000E+06  0.00800  2.136E-02    0   0.9177   age061_m52            0.0000     7.8915E-01     2.5155   1.3652    97.0695
 22      2.2509     1.2317E-02    2.1156E-02    1.000000E+07  0.00800  1.215E-02    0   0.8827   age070_m52            0.0000     8.8016E-01     2.5017   2.0377    96.1337
 23      1.3010     9.9227E-03    1.6513E-02    1.445000E+07  0.00800  8.717E-03    0   0.8552   age078_m52            0.0000     1.0890E+00     2.8305   2.1559    94.9407
 24      1.2138     1.4431E-02    2.2920E-02    2.512000E+07  0.00800  5.592E-03    0   0.8162   age090_m52            0.0000     7.6577E-01     2.4176   1.8005    97.6189
 25      0.0000     0.0000E+00    0.0000E+00    4.000000E+07  0.00800  3.896E-03    0   0.7841   age104_m52            0.0000     8.4878E-01     2.6191   1.7243    97.8695
 26      0.0000     0.0000E+00    0.0000E+00    1.015200E+08  0.00800  2.148E-03    0   0.7226   age116_m52            0.0000     1.1688E+00     3.1440   1.6786    96.9967
 27      0.0000     0.0000E+00    0.0000E+00    2.861200E+08  0.00800  9.925E-04    0   0.6683   age125_m52            0.0000     1.6201E+00     3.6673   1.2204    99.8162
 28      0.0019     3.9427E-04    4.7092E-04    9.047900E+08  0.00800  3.141E-04    0   0.6138   age135_m52            0.0000     2.3587E+00     4.5238   0.4553   102.3732
 29      0.0000     0.0000E+00    0.0000E+00    1.434000E+09  0.00800  1.719E-04    0   0.5853   age139_m52            0.0000     2.3303E+00     4.6973  -0.1306   100.5887
 30      0.0000     0.0000E+00    0.0000E+00    2.500000E+09  0.00800  7.872E-05    0   0.5600   age150_m52            0.0000     3.4755E+00     5.8341  -0.3851    97.2665
 31      0.0000     0.0000E+00    0.0000E+00    4.250000E+09  0.00800  4.336E-05    0   0.5426   age158_m52            0.0000     3.6210E+00     5.9162  -0.4003    96.3576
 32      0.0000     0.0000E+00    0.0000E+00    6.250000E+09  0.00800  3.159E-05    0   0.5319   age166_m52            0.0000     4.7382E+00     6.7246  -0.5882    95.7634
 33      4.1994     2.0514E+01    2.0250E+01    1.300000E+10  0.00800  1.361E-05    0   0.5073   age193_m52            0.0000     6.5191E+00     7.7699  -1.0000    92.9439
 34      2.9572     1.9887E+01    1.9311E+01    1.800000E+10  0.00800  9.886E-06    0   0.4990   age213_m52            0.0000     8.3810E+00     8.6147  -1.0000    88.5096
 35      3.6281     1.5622E-02    3.0400E-02    1.000000E+06  0.02000  1.544E-02    0   1.0000   age020_m62            0.0000     3.0530E+00     4.9500   2.9343    88.2892
 36      4.2199     7.4576E-03    1.4306E-02    3.160000E+06  0.02000  3.762E-02    0   0.9858   age045_m62            0.0000     3.0795E+00     4.9595   2.8744    89.0259
 37      0.8879     1.7909E-03    3.2557E-03    5.010000E+06  0.02000  3.296E-02    0   0.9342   age055_m62            0.0000     2.3810E+00     4.4463   2.5196    91.7876
 38     22.4300     1.2922E-01    2.2282E-01    8.710000E+06  0.02000  1.154E-02    0   0.8861   age067_m62            0.0000     1.5142E+00     3.6608   1.4375   101.3098
 39      0.0020     1.7607E-05    2.9027E-05    1.445000E+07  0.02000  7.663E-03    0   0.8472   age078_m62            0.0000     7.2544E-01     2.3267   1.6726    98.9197
 40      0.0000     0.0000E+00    0.0000E+00    2.512000E+07  0.02000  4.532E-03    0   0.8099   age090_m62            0.0000     8.3552E-01     2.5109   1.6653    98.6528
 41      0.0000     0.0000E+00    0.0000E+00    5.500000E+07  0.02000  2.733E-03    0   0.7595   age110_m62            0.0000     8.2227E-01     2.5375   1.7028    97.3545
 42      0.0000     0.0000E+00    0.0000E+00    1.609000E+08  0.02000  1.369E-03    0   0.6985   age120_m62            0.0000     1.3644E+00     3.3603   1.5685    98.7968
 43      0.0956     7.0522E-03    9.2136E-03    2.861200E+08  0.02000  9.013E-04    0   0.6714   age125_m62            0.0000     1.8198E+00     3.8241   1.3333   100.8765
 44      6.7868     8.9740E-01    1.1262E+00    5.088000E+08  0.02000  5.028E-04    0   0.6449   age130_m62            0.0000     2.6673E+00     4.7582   0.9855   102.1499
 45      0.0109     2.9855E-03    3.5897E-03    9.047900E+08  0.02000  2.428E-04    0   0.6179   age135_m62            0.0000     2.7874E+00     5.0949   0.4084   101.1791
 46      0.0000     0.0000E+00    0.0000E+00    1.434000E+09  0.02000  1.263E-04    0   0.5908   age139_m62            0.0000     3.1946E+00     5.5002  -0.0353    99.6788
 47      0.0000     0.0000E+00    0.0000E+00    2.500000E+09  0.02000  5.985E-05    0   0.5673   age150_m62            0.0000     4.5829E+00     6.6361  -0.3877    97.7329
 48      0.0000     0.0000E+00    0.0000E+00    4.250000E+09  0.02000  3.271E-05    0   0.5468   age158_m62            0.0000     6.5257E+00     7.9423  -0.6714    95.9902
 49      1.3892     6.7909E+00    6.8279E+00    1.000000E+10  0.02000  1.360E-05    0   0.5167   age181_m62            0.0000     9.2031E+00     9.3554  -0.9911    94.4215
 50      0.0000     0.0000E+00    0.0000E+00    1.800000E+10  0.02000  7.124E-06    0   0.5013   age213_m62            0.0000     1.2272E+01    10.3635  -1.0000    86.3161
 51      4.0024     1.0266E-02    1.9973E-02    1.000000E+06  0.05000  2.592E-02    0   0.9998   age020_m72            0.0000     3.1262E+00     5.0365   2.9224    88.4493
 52      0.0000     0.0000E+00    0.0000E+00    3.160000E+06  0.05000  4.845E-02    0   0.9577   age045_m72            0.0000     2.9182E+00     4.8316   2.7671    89.8002
 53      0.0000     0.0000E+00    0.0000E+00    5.010000E+06  0.05000  3.072E-02    0   0.9147   age055_m72            0.0000     1.3664E+00     3.1521   2.2728    94.6987
 54      0.0000     0.0000E+00    0.0000E+00    6.610000E+06  0.05000  1.455E-02    0   0.8877   age061_m72            0.0000     4.5470E+00     6.2024   1.4858   102.8584
 55      0.0000     0.0000E+00    0.0000E+00    1.000000E+07  0.05000  9.074E-03    0   0.8524   age070_m72            0.0000     2.1292E+00     4.0520   2.4730    94.1067
 56      0.0000     0.0000E+00    0.0000E+00    2.512000E+07  0.05000  4.250E-03    0   0.7902   age090_m72            0.0000     1.4605E+00     3.3931   2.1706    95.6490
 57      0.0000     0.0000E+00    0.0000E+00    4.000000E+07  0.05000  3.087E-03    0   0.7618   age104_m72            0.0000     1.4280E+00     3.4184   1.9431    97.1922
 58      0.0009     3.4976E-05    4.8295E-05    1.015200E+08  0.05000  1.700E-03    0   0.7096   age116_m72            0.0000     1.2354E+00     3.1905   1.7028    98.7957
 59      0.2809     2.5296E-02    3.2650E-02    2.861200E+08  0.05000  7.384E-04    0   0.6633   age125_m72            0.0000     2.2098E+00     4.2412   1.2164   101.5233
 60      9.7595     1.6990E+00    2.1067E+00    5.088000E+08  0.05000  3.819E-04    0   0.6372   age130_m72            0.0000     2.7519E+00     5.0761   0.7430   102.2439
 61      3.8821     1.5400E+00    1.8309E+00    9.047900E+08  0.05000  1.676E-04    0   0.6110   age135_m72            0.0000     4.3098E+00     6.5400   0.0652    99.6959
 62      0.0000     0.0000E+00    0.0000E+00    1.434000E+09  0.05000  8.837E-05    0   0.5874   age139_m72            0.0000     5.0139E+00     6.8754  -0.3832    98.9196
 63      0.0000     0.0000E+00    0.0000E+00    2.500000E+09  0.05000  4.233E-05    0   0.5598   age150_m72            0.0000     7.2489E+00     8.3605  -0.6654    96.5263
 64      1.7025     7.8878E+00    8.0567E+00    6.250000E+09  0.05000  1.435E-05    0   0.5249   age166_m72            0.0000     1.0199E+01     9.7286  -1.0000    90.7541
 65      1.3139     1.3412E+01    1.3143E+01    1.300000E+10  0.05000  6.513E-06    0   0.5036   age193_m72            0.0000     1.5759E+01    11.3197  -1.0000    81.5243
 66      0.0000     0.0000E+00    0.0000E+00    1.800000E+10  0.05000  4.527E-06    0   0.4945   age213_m72            0.0000     2.0363E+01    12.5157  -1.0000    75.8942


## Synthesis Results - Average & Chains ##

# j      x_j: min, <> & last-chain-values for 1 ...  7 chains
  1      4.8478      3.2481      4.0175      2.8527      3.2843      3.1662      3.0787      3.5493      3.5450
  2      0.2971      1.5261      1.5626      0.0000      1.4182      1.3229      1.3492      2.7190      1.1279
  3      0.0000      0.4586      0.0000      0.0000      0.5053      1.1070      0.9279      0.2815      0.5049
  4      0.0000      0.1644      0.0000      0.0000      0.1860      0.0000      0.0000      0.0000      0.0000
  5      3.3868      2.7459      2.5053      1.4559      3.1571      4.8041      3.6629      2.2862      3.0237
  6      0.0000      0.1757      0.0000      0.4201      0.0000      0.0000      0.0000      0.0918      0.5995
  7      2.2209      1.3218      1.6324      1.6407      0.6683      1.4839      1.7837      2.6202      1.4786
  8      0.0000      2.3073      0.3159      3.0198      1.9984      2.8040      3.1704      2.7977      2.3145
  9      0.6850      0.5448      0.6482      1.4059      0.5278      0.0000      1.4208      0.0000      0.0869
 10      0.0016      0.4700      1.0140      0.4206      0.2167      0.6388      0.4071      0.9227      0.0000
 11      0.0000      0.4615      0.3157      0.0000      0.3510      0.0000      0.0000      0.0000      0.4328
 12      0.0000      0.3210      0.0000      0.0000      0.0000      0.0000      0.0000      0.1232      0.0192
 13      0.0000      0.9041      1.8926      1.1415      1.6526      0.0000      0.0000      0.0000      0.6146
 14      3.2490      4.3879      4.3973      4.1119      4.1610      3.8651      4.3007      4.7865      4.6700
 15      2.1141      2.9222      2.6907      2.8844      2.8093      3.1814      2.8784      3.0467      2.6792
 16      3.2025      3.8731      3.4404      3.7953      4.0219      3.9076      4.3196      3.8525      3.8777
 17      2.0011      3.1947      3.1017      3.4130      3.1642      2.8938      3.3322      3.2896      3.7934
 18      5.7667      4.5313      4.6062      5.9687      4.2299      4.5459      4.2544      4.6263      4.2682
 19      0.7889      0.7879      0.5477      0.5904      0.8768      0.9146      0.6746      0.6763      1.3844
 20      0.6722      1.6499      2.3171      2.6904      0.7836      1.8734      1.5207      0.5129      1.7526
 21      0.0236      0.5157      0.4946      0.4371      0.1964      0.3441      0.0000      0.0000      0.8600
 22      2.2509      2.5192      2.1897      1.9133      2.5225      2.5944      2.4424      2.0042      2.9722
 23      1.3010      2.3375      2.5700      2.1072      2.2371      2.8995      2.7390      3.1112      1.6194
 24      1.2138      1.3418      0.8630      1.1393      2.5095      1.4538      1.3322      1.4500      0.9705
 25      0.0000      0.9077      0.2346      2.1728      0.7635      1.7002      0.9353      0.7769      1.0898
 26      0.0000      0.4845      0.0000      0.0000      0.6042      0.0507      2.2192      0.2804      0.0000
 27      0.0000      0.5153      0.5224      0.7430      0.0000      0.0000      0.3685      0.0069      0.0000
 28      0.0019      1.6312      1.0419      0.9899      2.0410      2.6469      1.0078      0.7370      0.9740
 29      0.0000      0.8035      0.0000      0.0000      0.3172      0.1013      0.0000      0.0000      0.6558
 30      0.0000      0.1537      0.0000      0.0000      0.0000      0.0320      0.0989      0.0000      0.6908
 31      0.0000      1.4077      1.2855      0.9774      1.5210      1.9032      1.4979      2.0322      1.0403
 32      0.0000      2.4561      2.4444      2.3070      2.6194      2.5072      2.7320      2.3832      1.0660
 33      4.1994      2.3168      2.2627      2.2386      2.3401      2.4314      2.8282      2.4986      2.3947
 34      2.9572      2.1754      2.2417      2.1911      2.1368      2.1893      2.1998      2.1687      2.1540
 35      3.6281      2.4000      2.3859      2.6357      3.4648      2.4265      2.5109      2.3213      2.6588
 36      4.2199      3.6395      4.5191      4.3016      3.4340      2.9977      3.1796      3.4030      3.9245
 37      0.8879      2.1711      2.1135      1.9367      2.1612      2.1935      2.2589      2.2638      2.0627
 38     22.4300     16.1912     17.5987     16.6126     16.7025     15.6064     16.3361     17.0050     18.2311
 39      0.0020      0.9420      0.7581      0.5988      1.0143      0.0034      0.7121      0.0000      1.0471
 40      0.0000      2.0979      2.1998      1.2100      1.7911      2.0335      1.4699      1.9978      0.9721
 41      0.0000      0.9051      0.4860      0.9351      0.8712      0.4579      0.5679      1.5129      0.5673
 42      0.0000      0.2393      0.0000      0.2334      0.0000      0.7762      0.6157      0.6089      0.0000
 43      0.0956      0.3896      1.2308      0.4169      0.6578      0.0000      1.3931      0.1405      0.8236
 44      6.7868      1.5609      2.7811      2.8614      3.1714      1.6611      1.8037      2.6924      1.5346
 45      0.0109      0.7742      0.7730      0.6244      0.0000      0.0000      0.4571      0.2304      0.0000
 46      0.0000      0.4084      0.0000      1.5172      0.7169      0.1190      0.3184      0.2548      0.0000
