###################################################################
## OUTPUT of StarlightChains_v04.for    [Cid@UFSC - 01/Apr/2007] ##
###################################################################

## Some input info
2011gd.txt                               [arq_obs]
Base.CB07.vall.4m                        [arq_base]
Masks.EmLines.NEW.gm                     [arq_masks]
StCv04.C11.config                        [arq_config]
   66                                    [N_base]
    0                                    [N_YAV_components = # of components with extra extinction!]
    0                                    [i_FitPowerLaw (1/0 = Yes/No)]
-9.99                                    [alpha_PowerLaw]
CCM                                      [red_law_option]
 1.458241                                [q_norm = A(l_norm)/A(V)]

## (Re)Sampling Parameters
 3741.00                                 [l_ini (A)]
 7218.00                                 [l_fin (A)]
    1.00                                 [dl    (A)]     (OBS: dl_cushion =    50.00 A)

## Normalization info
 4020.00                                 [l_norm (A) - for base]
 4010.00                                 [llow_norm (A) - window for f_obs]
 4060.00                                 [lupp_norm (A) - window for f_obs]
1.833995E-15                             [fobs_norm (in input units)]

## S/N
 3691.00                                 [llow_SN (A) - window for S/N]
 7268.00                                 [lupp_SN (A) - window for S/N]
   6.966                                 [S/N in S/N window]
   5.824                                 [S/N in norm. window]
  72.850                                 [S/N_err in S/N window]
  60.904                                 [S/N_err in norm. window]
  1.0000                                 [fscale_chi2]

## etc...
    -2007376                             [idum_orig]
  2383                                   [NOl_eff]
  2287                                   [Nl_eff]
    96    NSIGMA                         [Ntot_cliped & clip_method]
  2482410                                [Nglobal_steps]
   7                                     [N_chains]
  33                                     [NEX0s_base = N_base in EX0s-fits]
 0   0   1        9   2.0   1.983E+02    [Clip-Bug, RC-Crash & Burn-In warning-flags, n_censored_weights, wei_nsig_threshold & wei_limit]
    19     19.202     18.699      0.503  [idt_all, wdt_TotTime, wdt_UsrTime & wdt_SysTime (sec)]

## Synthesis Results - Best model ##

 1.26634E+00                             [chi2/Nl_eff]
     1.16121                             [adev (%)]

   106.34115                             [sum-of-x (%)]
 4.41646E-15                             [Flux_tot (units of input spectrum!)]
 1.57240E-10                             [Mini_tot (???)]
 7.97146E-11                             [Mcor_tot (???)]

 -28.17                                  [v0_min  (km/s)]
 185.96                                  [vd_min  (km/s)]
 0.6086                                  [AV_min  (mag)]
 0.0000                                  [YAV_min (mag)]

# j     x_j(%)      Mini_j(%)     Mcor_j(%)     age_j(yr)     Z_j      (L/M)_j    YAV?  Mstars   component_j        a/Fe...       SSP_chi2r SSP_adev(%)   SSP_AV   SSP_x(%)
  1      1.2203     2.9461E-03    5.8113E-03    1.000000E+06  0.00400  1.094E-02    0   1.0000   age020_m42            0.0000     2.4067E+01     4.5670   3.5921    90.6416
  2      0.3874     2.5535E-04    5.0364E-04    3.160000E+06  0.00400  4.007E-02    0   0.9999   age045_m42            0.0000     1.7974E+01     3.8232   2.8891    95.8719
  3      0.0000     0.0000E+00    0.0000E+00    5.010000E+06  0.00400  2.539E-02    0   0.9488   age055_m42            0.0000     1.9422E+01     3.9687   3.1965    94.0740
  4      0.6107     6.1569E-04    1.1197E-03    6.610000E+06  0.00400  2.620E-02    0   0.9220   age061_m42            0.0000     1.6256E+01     3.7007   2.8101    96.3439
  5      0.2526     5.0474E-04    8.8232E-04    1.000000E+07  0.00400  1.322E-02    0   0.8862   age070_m42            0.0000     1.2079E+01     3.2513   2.4826   100.4822
  6      1.3682     4.5841E-03    7.7502E-03    1.445000E+07  0.00400  7.883E-03    0   0.8571   age078_m42            0.0000     1.3853E+01     3.4021   2.8101    97.9230
  7      2.3834     1.1989E-02    1.9330E-02    2.512000E+07  0.00400  5.251E-03    0   0.8174   age090_m42            0.0000     1.2084E+01     3.3143   2.3460   101.3452
  8      2.8163     2.0386E-02    3.1570E-02    4.000000E+07  0.00400  3.649E-03    0   0.7851   age104_m42            0.0000     1.0911E+01     3.2073   2.1263   101.8293
  9      4.3852     3.7386E-02    5.6261E-02    5.500000E+07  0.00400  3.098E-03    0   0.7629   age110_m42            0.0000     1.1707E+01     3.3391   2.3044   100.6948
 10      0.0000     0.0000E+00    0.0000E+00    1.015200E+08  0.00400  2.228E-03    0   0.7207   age116_m42            0.0000     1.2495E+01     3.5061   2.3400   100.1840
 11      0.0000     0.0000E+00    0.0000E+00    2.861200E+08  0.00400  1.093E-03    0   0.6648   age125_m42            0.0000     1.2391E+01     3.7326   1.7590   103.8072
 12      0.0000     0.0000E+00    0.0000E+00    5.088000E+08  0.00400  6.597E-04    0   0.6365   age130_m42            0.0000     1.1677E+01     3.7011   1.7731   103.5302
 13      2.2035     2.7298E-01    3.1220E-01    1.434000E+09  0.00400  2.132E-04    0   0.5798   age139_m42            0.0000     5.2463E+00     2.6515   0.8147   104.9766
 14      0.0000     0.0000E+00    0.0000E+00    4.250000E+09  0.00400  5.895E-05    0   0.5377   age158_m42            0.0000     6.3666E+00     2.8681   0.3947   100.0741
 15      1.5302     1.1515E+00    1.1838E+00    7.500000E+09  0.00400  3.510E-05    0   0.5212   age171_m42            0.0000     8.4939E+00     3.2952   0.2189    98.9097
 16      4.2608     5.6129E+00    5.5735E+00    1.300000E+10  0.00400  2.005E-05    0   0.5034   age193_m42            0.0000     1.1421E+01     3.7642   0.0643    97.9559
 17      0.0035     6.1054E-03    5.9818E-03    1.800000E+10  0.00400  1.525E-05    0   0.4967   age213_m42            0.0000     1.0906E+01     3.6619   0.0380    97.6630
 18      5.7592     1.2287E-02    2.4237E-02    1.000000E+06  0.00800  1.238E-02    0   1.0000   age020_m52            0.0000     2.4040E+01     4.5690   3.5898    90.7634
 19      1.7587     1.5111E-03    2.9707E-03    3.160000E+06  0.00800  3.074E-02    0   0.9966   age045_m52            0.0000     2.3501E+01     4.5013   3.5144    91.5167
 20      0.0000     0.0000E+00    0.0000E+00    5.010000E+06  0.00800  2.668E-02    0   0.9443   age055_m52            0.0000     1.9305E+01     3.9904   3.2742    93.4411
 21      0.0089     1.0999E-05    1.9910E-05    6.610000E+06  0.00800  2.136E-02    0   0.9177   age061_m52            0.0000     7.6617E+00     2.5329   1.9823   101.6509
 22      1.0637     2.3124E-03    4.0263E-03    1.000000E+07  0.00800  1.215E-02    0   0.8827   age070_m52            0.0000     1.2662E+01     3.3543   2.6475   100.9367
 23      3.5082     1.0630E-02    1.7932E-02    1.445000E+07  0.00800  8.717E-03    0   0.8552   age078_m52            0.0000     1.2534E+01     3.2421   2.7753    99.2817
 24      0.8776     4.1452E-03    6.6737E-03    2.512000E+07  0.00800  5.592E-03    0   0.8162   age090_m52            0.0000     1.1301E+01     3.2457   2.4095   102.5700
 25      0.0000     0.0000E+00    0.0000E+00    4.000000E+07  0.00800  3.896E-03    0   0.7841   age104_m52            0.0000     1.0946E+01     3.2580   2.3341   102.7899
 26      0.0000     0.0000E+00    0.0000E+00    1.015200E+08  0.00800  2.148E-03    0   0.7226   age116_m52            0.0000     1.0875E+01     3.2938   2.2971   101.4856
 27      0.0000     0.0000E+00    0.0000E+00    2.861200E+08  0.00800  9.925E-04    0   0.6683   age125_m52            0.0000     1.0360E+01     3.5353   1.8367   104.5372
 28      0.0000     0.0000E+00    0.0000E+00    9.047900E+08  0.00800  3.141E-04    0   0.6138   age135_m52            0.0000     8.0877E+00     3.3095   1.0742   107.1720
 29      0.0000     0.0000E+00    0.0000E+00    1.434000E+09  0.00800  1.719E-04    0   0.5853   age139_m52            0.0000     5.6724E+00     2.7727   0.4886   105.3191
 30      0.0000     0.0000E+00    0.0000E+00    2.500000E+09  0.00800  7.872E-05    0   0.5600   age150_m52            0.0000     8.9503E+00     3.4346   0.2489   101.2217
 31      0.0000     0.0000E+00    0.0000E+00    4.250000E+09  0.00800  4.336E-05    0   0.5426   age158_m52            0.0000     9.8174E+00     3.5512   0.2344   100.2534
 32      0.0000     0.0000E+00    0.0000E+00    6.250000E+09  0.00800  3.159E-05    0   0.5319   age166_m52            0.0000     1.4499E+01     4.3219   0.0510    99.4515
 33      2.9771     5.7776E+00    5.7815E+00    1.300000E+10  0.00800  1.361E-05    0   0.5073   age193_m52            0.0000     2.2262E+01     5.4094  -0.3935    97.7964
 34     10.3182     2.7567E+01    2.7134E+01    1.800000E+10  0.00800  9.886E-06    0   0.4990   age213_m52            0.0000     2.9563E+01     6.2781  -0.4794    96.4054
 35      2.1826     3.7337E-03    7.3649E-03    1.000000E+06  0.02000  1.544E-02    0   1.0000   age020_m62            0.0000     2.4272E+01     4.6090   3.5839    91.0544
 36      7.3460     5.1576E-03    1.0029E-02    3.160000E+06  0.02000  3.762E-02    0   0.9858   age045_m62            0.0000     2.4186E+01     4.6020   3.5254    91.7693
 37      0.0000     0.0000E+00    0.0000E+00    5.010000E+06  0.02000  3.296E-02    0   0.9342   age055_m62            0.0000     1.8595E+01     3.9489   3.1639    94.9159
 38      6.6905     1.5313E-02    2.6765E-02    8.710000E+06  0.02000  1.154E-02    0   0.8861   age067_m62            0.0000     2.7521E+01     5.9271   2.0097   108.1675
 39      0.0000     0.0000E+00    0.0000E+00    1.445000E+07  0.02000  7.663E-03    0   0.8472   age078_m62            0.0000     1.4175E+01     3.8200   2.2674   104.5477
 40      0.1383     8.0621E-04    1.2880E-03    2.512000E+07  0.02000  4.532E-03    0   0.8099   age090_m62            0.0000     1.6046E+01     4.0666   2.2564   104.4292
 41      0.0000     0.0000E+00    0.0000E+00    5.500000E+07  0.02000  2.733E-03    0   0.7595   age110_m62            0.0000     1.0030E+01     3.0909   2.3140   102.1883
 42      0.0000     0.0000E+00    0.0000E+00    1.609000E+08  0.02000  1.369E-03    0   0.6985   age120_m62            0.0000     1.0616E+01     3.3989   2.1861   103.4084
 43      0.0000     0.0000E+00    0.0000E+00    2.861200E+08  0.02000  9.013E-04    0   0.6714   age125_m62            0.0000     1.0854E+01     3.6340   1.9527   105.5322
 44      0.0000     0.0000E+00    0.0000E+00    5.088000E+08  0.02000  5.028E-04    0   0.6449   age130_m62            0.0000     1.1546E+01     3.8197   1.6128   106.5244
 45      0.0000     0.0000E+00    0.0000E+00    9.047900E+08  0.02000  2.428E-04    0   0.6179   age135_m62            0.0000     7.9101E+00     3.2341   1.0369   105.5005
 46      0.0000     0.0000E+00    0.0000E+00    1.434000E+09  0.02000  1.263E-04    0   0.5908   age139_m62            0.0000     7.9356E+00     3.2148   0.5954   103.8714
 47      0.0000     0.0000E+00    0.0000E+00    2.500000E+09  0.02000  5.985E-05    0   0.5673   age150_m62            0.0000     1.3764E+01     4.2943   0.2524   101.4569
 48      0.0000     0.0000E+00    0.0000E+00    4.250000E+09  0.02000  3.271E-05    0   0.5468   age158_m62            0.0000     2.2783E+01     5.5994  -0.0235    99.3408
 49      2.9161     5.6633E+00    5.7721E+00    1.000000E+10  0.02000  1.360E-05    0   0.5167   age181_m62            0.0000     3.5848E+01     7.0317  -0.3373    97.4951
 50      2.2047     8.1742E+00    8.0829E+00    1.800000E+10  0.02000  7.124E-06    0   0.5013   age213_m62            0.0000     4.7709E+01     8.1423  -0.5181    95.5416
 51      2.2350     2.2775E-03    4.4915E-03    1.000000E+06  0.05000  2.592E-02    0   0.9998   age020_m72            0.0000     2.4839E+01     4.7002   3.5720    91.2176
 52      0.6335     3.4536E-04    6.5241E-04    3.160000E+06  0.05000  4.845E-02    0   0.9577   age045_m72            0.0000     2.2761E+01     4.3885   3.4190    92.5457
 53      0.0000     0.0000E+00    0.0000E+00    5.010000E+06  0.05000  3.072E-02    0   0.9147   age055_m72            0.0000     1.6599E+01     3.8137   2.8818    99.3714
 54      0.0000     0.0000E+00    0.0000E+00    6.610000E+06  0.05000  1.455E-02    0   0.8877   age061_m72            0.0000     6.7871E+01     8.6749   2.0303   110.9006
 55      0.0000     0.0000E+00    0.0000E+00    1.000000E+07  0.05000  9.074E-03    0   0.8524   age070_m72            0.0000     2.7974E+01     4.7461   3.0729    98.9521
 56      0.0000     0.0000E+00    0.0000E+00    2.512000E+07  0.05000  4.250E-03    0   0.7902   age090_m72            0.0000     1.9918E+01     4.1502   2.7717   100.6780
 57      0.0000     0.0000E+00    0.0000E+00    4.000000E+07  0.05000  3.087E-03    0   0.7618   age104_m72            0.0000     2.0370E+01     4.2972   2.5388   102.5714
 58      0.0000     0.0000E+00    0.0000E+00    1.015200E+08  0.05000  1.700E-03    0   0.7096   age116_m72            0.0000     1.2234E+01     3.6149   2.3140   103.6759
 59      0.0000     0.0000E+00    0.0000E+00    2.861200E+08  0.05000  7.384E-04    0   0.6633   age125_m72            0.0000     1.0397E+01     3.6019   1.8389   106.0890
 60      4.7450     3.2817E-01    4.1247E-01    5.088000E+08  0.05000  3.819E-04    0   0.6372   age130_m72            0.0000     8.6855E+00     3.3189   1.3739   106.5179
 61     15.3068     2.4122E+00    2.9073E+00    9.047900E+08  0.05000  1.676E-04    0   0.6110   age135_m72            0.0000     1.3509E+01     4.3630   0.7085   103.3512
 62      0.0000     0.0000E+00    0.0000E+00    1.434000E+09  0.05000  8.837E-05    0   0.5874   age139_m72            0.0000     1.5349E+01     4.5124   0.2551   102.7835
 63      5.4993     3.4314E+00    3.7891E+00    2.500000E+09  0.05000  4.233E-05    0   0.5598   age150_m72            0.0000     2.6297E+01     6.0253  -0.0155    99.8188
 64      2.9001     5.3379E+00    5.5268E+00    6.250000E+09  0.05000  1.435E-05    0   0.5249   age166_m72            0.0000     4.0378E+01     7.4881  -0.4257    96.7409
 65      0.0000     0.0000E+00    0.0000E+00    1.300000E+10  0.05000  6.513E-06    0   0.5036   age193_m72            0.0000     5.6444E+01     8.8666  -0.6683    96.1158
 66      5.8492     3.4127E+01    3.3288E+01    1.800000E+10  0.05000  4.527E-06    0   0.4945   age213_m72            0.0000     6.7636E+01     9.7020  -0.8049    94.9243


## Synthesis Results - Average & Chains ##

# j      x_j: min, <> & last-chain-values for 1 ...  7 chains
  1      1.2203      1.0229      1.0638      1.0820      0.9621      0.9703      0.9969      1.0158      1.1543
  2      0.3874      0.6405      0.6054      0.5706      0.6187      0.6677      0.6081      0.6950      0.6343
  3      0.0000      0.0498      0.0091      0.0000      0.1096      0.1735      0.0000      0.0000      0.0304
  4      0.6107      1.2923      1.1481      1.1361      1.4045      0.9449      0.8086      1.2702      1.1675
  5      0.2526      0.7585      0.7908      0.8632      0.8403      0.8587      0.7382      0.5747      0.6129
  6      1.3682      1.4611      1.6478      1.5161      1.5901      1.5523      1.3682      1.4375      1.5435
  7      2.3834      2.4438      2.4798      2.4568      2.6472      2.4043      2.6644      2.2828      2.5952
  8      2.8163      3.2229      3.3269      3.4194      2.8964      3.2026      3.0850      3.1757      3.3114
  9      4.3852      4.7401      4.6027      4.8117      4.0999      4.8895      4.8667      5.0640      4.7103
 10      0.0000      0.0402      0.0000      0.0000      0.0533      0.0000      0.0000      0.0159      0.0695
 11      0.0000      0.0398      0.0000      0.1368      0.0000      0.0000      0.0000      0.1257      0.0000
 12      0.0000      0.0464      0.0000      0.0214      0.0000      0.0000      0.0089      0.0777      0.0000
 13      2.2035      1.3425      1.5036      1.6749      1.7136      1.9612      1.2540      0.8675      1.3943
 14      0.0000      0.4527      0.0050      0.6861      0.0000      0.4490      0.0049      0.4796      0.1135
 15      1.5302      2.1987      2.1287      2.0993      1.9085      2.2311      2.0342      2.0593      2.2161
 16      4.2608      5.5801      5.8431      5.0577      5.2981      5.5274      5.6225      5.5319      5.6733
 17      0.0035      0.5165      0.4152      0.4134      0.1571      0.4006      0.4182      0.8177      0.5407
 18      5.7592      5.2016      5.3062      5.2902      5.2069      5.2670      5.3263      5.2736      5.1495
 19      1.7587      1.5925      1.5589      1.5805      1.7952      1.5576      1.7877      1.5850      1.8420
 20      0.0000      0.0284      0.0394      0.0000      0.1010      0.0000      0.0654      0.0000      0.0000
 21      0.0089      0.6518      0.7721      0.7159      0.6172      0.0780      0.6794      1.0718      0.5226
 22      1.0637      1.0094      0.8738      1.2209      1.2258      1.1457      0.8969      0.8987      1.2186
 23      3.5082      3.5893      3.6976      3.5888      3.6530      3.7148      3.6639      3.6695      3.5595
 24      0.8776      0.7574      0.8128      0.7359      1.1068      0.7745      0.7497      0.3610      0.9349
 25      0.0000      0.0474      0.0000      0.0359      0.0000      0.0000      0.0578      0.1759      0.0000
 26      0.0000      0.0325      0.0000      0.0000      0.0923      0.0000      0.0000      0.0000      0.0000
 27      0.0000      0.0520      0.0000      0.0000      0.0524      0.0336      0.0000      0.0000      0.0000
 28      0.0000      0.1754      0.1368      0.0000      0.2895      0.0067      0.6026      0.0000      0.0000
 29      0.0000      0.0839      0.0065      0.0000      0.0105      0.0000      0.0029      0.1756      0.0000
 30      0.0000      0.0821      0.0000      0.0109      0.0000      0.0000      0.3035      0.0000      0.0000
 31      0.0000      0.0552      0.0000      0.0000      0.0000      0.0000      0.0000      0.0000      0.0000
 32      0.0000      0.0412      0.0000      0.0000      0.1549      0.0000      0.0000      0.0000      0.0289
 33      2.9771      2.5629      2.5842      2.7161      2.6838      2.5850      2.5629      2.5791      2.5854
 34     10.3182     10.1257      9.9977     10.3088     10.2159     10.0099     10.1481     10.1548     10.2417
 35      2.1826      1.9037      1.8894      2.0418      1.8994      2.0462      2.0039      1.8998      1.9706
 36      7.3460      6.9016      7.0111      6.9891      7.0315      6.8677      7.1040      6.9573      7.0832
 37      0.0000      0.0693      0.0643      0.0154      0.0000      0.0666      0.0000      0.0000      0.0144
 38      6.6905      5.0327      5.0547      5.0478      5.0591      5.2882      5.1599      5.0494      4.9477
 39      0.0000      0.2344      0.3086      0.2006      0.0810      0.0688      0.0919      0.3575      0.0441
 40      0.1383      0.6742      0.4639      0.7464      0.7949      0.7290      0.4774      0.7256      0.9266
 41      0.0000      0.0475      0.0000      0.0000      0.0659      0.0106      0.0000      0.0000      0.3398
 42      0.0000      0.0415      0.0000      0.0000      0.0000      0.0438      0.0532      0.0000      0.0000
 43      0.0000      0.0494      0.0000      0.0000      0.1049      0.0000      0.0000      0.0913      0.0003
 44      0.0000      0.1084      0.2196      0.0000      0.0000      0.3612      0.0000      0.0753      0.2478
 45      0.0000      0.1507      0.1308      0.1333      0.0000      0.0000      0.0066      0.0000      0.0619
 46      0.0000      0.2218      0.0000      0.1104      0.0000      0.0000      0.1888      0.0000      0.0000
