###################################################################
## OUTPUT of StarlightChains_v04.for    [Cid@UFSC - 01/Apr/2007] ##
###################################################################

## Some input info
2011im.txt                               [arq_obs]
Base.CB07.vall.4m                        [arq_base]
Masks.EmLines.NEW.gm                     [arq_masks]
StCv04.C11.config                        [arq_config]
   66                                    [N_base]
    0                                    [N_YAV_components = # of components with extra extinction!]
    0                                    [i_FitPowerLaw (1/0 = Yes/No)]
-9.99                                    [alpha_PowerLaw]
CCM                                      [red_law_option]
 1.458241                                [q_norm = A(l_norm)/A(V)]

## (Re)Sampling Parameters
 3741.00                                 [l_ini (A)]
 7218.00                                 [l_fin (A)]
    1.00                                 [dl    (A)]     (OBS: dl_cushion =    50.00 A)

## Normalization info
 4020.00                                 [l_norm (A) - for base]
 4010.00                                 [llow_norm (A) - window for f_obs]
 4060.00                                 [lupp_norm (A) - window for f_obs]
3.688881E-17                             [fobs_norm (in input units)]

## S/N
 3691.00                                 [llow_SN (A) - window for S/N]
 7268.00                                 [lupp_SN (A) - window for S/N]
   6.196                                 [S/N in S/N window]
   7.261                                 [S/N in norm. window]
   5.892                                 [S/N_err in S/N window]
   6.904                                 [S/N_err in norm. window]
  1.0000                                 [fscale_chi2]

## etc...
    -2007380                             [idum_orig]
  2384                                   [NOl_eff]
  2381                                   [Nl_eff]
     3    NSIGMA                         [Ntot_cliped & clip_method]
  1088360                                [Nglobal_steps]
   7                                     [N_chains]
  20                                     [NEX0s_base = N_base in EX0s-fits]
 0   0   1       17   2.0   1.300E+01    [Clip-Bug, RC-Crash & Burn-In warning-flags, n_censored_weights, wei_nsig_threshold & wei_limit]
    12     12.031     11.525      0.506  [idt_all, wdt_TotTime, wdt_UsrTime & wdt_SysTime (sec)]

## Synthesis Results - Best model ##

 3.45543E-01                             [chi2/Nl_eff]
     8.53430                             [adev (%)]

   106.70647                             [sum-of-x (%)]
 4.01045E-17                             [Flux_tot (units of input spectrum!)]
 1.86669E-13                             [Mini_tot (???)]
 1.12102E-13                             [Mcor_tot (???)]

 -43.68                                  [v0_min  (km/s)]
 179.13                                  [vd_min  (km/s)]
 0.0139                                  [AV_min  (mag)]
 0.0000                                  [YAV_min (mag)]

# j     x_j(%)      Mini_j(%)     Mcor_j(%)     age_j(yr)     Z_j      (L/M)_j    YAV?  Mstars   component_j        a/Fe...       SSP_chi2r SSP_adev(%)   SSP_AV   SSP_x(%)
  1      0.0000     0.0000E+00    0.0000E+00    1.000000E+06  0.00400  1.094E-02    0   1.0000   age020_m42            0.0000     4.7086E-01    10.6292   2.6644    90.9655
  2      0.0000     0.0000E+00    0.0000E+00    3.160000E+06  0.00400  4.007E-02    0   0.9999   age045_m42            0.0000     4.2729E-01     9.7912   1.9586    96.3525
  3      0.0000     0.0000E+00    0.0000E+00    5.010000E+06  0.00400  2.539E-02    0   0.9488   age055_m42            0.0000     4.4080E-01    10.0818   2.2660    94.5310
  4      0.0000     0.0000E+00    0.0000E+00    6.610000E+06  0.00400  2.620E-02    0   0.9220   age061_m42            0.0000     4.2118E-01     9.7202   1.8782    96.8731
  5      0.0000     0.0000E+00    0.0000E+00    1.000000E+07  0.00400  1.322E-02    0   0.8862   age070_m42            0.0000     4.0933E-01    10.0074   1.5470   101.2026
  6      0.0000     0.0000E+00    0.0000E+00    1.445000E+07  0.00400  7.883E-03    0   0.8571   age078_m42            0.0000     4.1883E-01    10.1882   1.8722    98.7188
  7      0.0000     0.0000E+00    0.0000E+00    2.512000E+07  0.00400  5.251E-03    0   0.8174   age090_m42            0.0000     4.1301E-01    10.0857   1.4081   102.2002
  8      0.0000     0.0000E+00    0.0000E+00    4.000000E+07  0.00400  3.649E-03    0   0.7851   age104_m42            0.0000     4.0580E-01     9.9058   1.1876   102.7276
  9      0.0000     0.0000E+00    0.0000E+00    5.500000E+07  0.00400  3.098E-03    0   0.7629   age110_m42            0.0000     4.0448E-01     9.6616   1.3666   101.5309
 10      0.0000     0.0000E+00    0.0000E+00    1.015200E+08  0.00400  2.228E-03    0   0.7207   age116_m42            0.0000     4.0530E-01     9.5024   1.4050   100.8805
 11      0.0000     0.0000E+00    0.0000E+00    2.861200E+08  0.00400  1.093E-03    0   0.6648   age125_m42            0.0000     3.9554E-01     9.3652   0.8212   104.5534
 12      0.0000     0.0000E+00    0.0000E+00    5.088000E+08  0.00400  6.597E-04    0   0.6365   age130_m42            0.0000     3.8698E-01     9.0842   0.8390   104.1180
 13      0.0000     0.0000E+00    0.0000E+00    1.434000E+09  0.00400  2.132E-04    0   0.5798   age139_m42            0.0000     3.6892E-01     8.6850  -0.1148   105.3951
 14      0.0000     0.0000E+00    0.0000E+00    4.250000E+09  0.00400  5.895E-05    0   0.5377   age158_m42            0.0000     3.6364E-01     8.3596  -0.5317   100.3106
 15      0.0000     0.0000E+00    0.0000E+00    7.500000E+09  0.00400  3.510E-05    0   0.5212   age171_m42            0.0000     3.7413E-01     8.4678  -0.7063    99.0595
 16      0.0518     5.2003E-01    4.3591E-01    1.300000E+10  0.00400  2.005E-05    0   0.5034   age193_m42            0.0000     3.8856E-01     8.6840  -0.8584    97.9575
 17      0.0000     0.0000E+00    0.0000E+00    1.800000E+10  0.00400  1.525E-05    0   0.4967   age213_m42            0.0000     3.8501E-01     8.6402  -0.8859    97.7174
 18      0.0000     0.0000E+00    0.0000E+00    1.000000E+06  0.00800  1.238E-02    0   1.0000   age020_m52            0.0000     4.7106E-01    10.6249   2.6616    91.1066
 19      1.0475     6.8612E-03    1.1386E-02    3.160000E+06  0.00800  3.074E-02    0   0.9966   age045_m52            0.0000     4.6983E-01    10.5302   2.5876    91.8121
 20      0.0000     0.0000E+00    0.0000E+00    5.010000E+06  0.00800  2.668E-02    0   0.9443   age055_m52            0.0000     4.4644E-01    10.1972   2.3428    93.9294
 21      0.0066     6.2222E-05    9.5084E-05    6.610000E+06  0.00800  2.136E-02    0   0.9177   age061_m52            0.0000     3.8605E-01     9.7907   1.0518   102.1538
 22      0.0000     0.0000E+00    0.0000E+00    1.000000E+07  0.00800  1.215E-02    0   0.8827   age070_m52            0.0000     4.1481E-01    10.2512   1.7074   101.8497
 23      0.0000     0.0000E+00    0.0000E+00    1.445000E+07  0.00800  8.717E-03    0   0.8552   age078_m52            0.0000     4.1372E-01    10.1076   1.8375   100.0931
 24      0.0000     0.0000E+00    0.0000E+00    2.512000E+07  0.00800  5.592E-03    0   0.8162   age090_m52            0.0000     4.1106E-01    10.0531   1.4680   103.5890
 25      0.0000     0.0000E+00    0.0000E+00    4.000000E+07  0.00800  3.896E-03    0   0.7841   age104_m52            0.0000     4.0363E-01     9.8034   1.3931   103.7820
 26      0.0000     0.0000E+00    0.0000E+00    1.015200E+08  0.00800  2.148E-03    0   0.7226   age116_m52            0.0000     3.9549E-01     9.4479   1.3579   102.3743
 27      0.0000     0.0000E+00    0.0000E+00    2.861200E+08  0.00800  9.925E-04    0   0.6683   age125_m52            0.0000     3.8764E-01     9.0800   0.9016   105.1811
 28      0.0000     0.0000E+00    0.0000E+00    9.047900E+08  0.00800  3.141E-04    0   0.6138   age135_m52            0.0000     3.6338E-01     8.4061   0.1390   107.8233
 29     20.5128     2.4026E+01    2.3416E+01    1.434000E+09  0.00800  1.719E-04    0   0.5853   age139_m52            0.0000     3.5396E-01     8.2976  -0.4432   105.7478
 30      0.0000     0.0000E+00    0.0000E+00    2.500000E+09  0.00800  7.872E-05    0   0.5600   age150_m52            0.0000     3.7549E-01     8.4020  -0.6761   101.3569
 31      0.0000     0.0000E+00    0.0000E+00    4.250000E+09  0.00800  4.336E-05    0   0.5426   age158_m52            0.0000     3.7637E-01     8.4441  -0.6903   100.3699
 32      0.0000     0.0000E+00    0.0000E+00    6.250000E+09  0.00800  3.159E-05    0   0.5319   age166_m52            0.0000     4.0074E-01     8.7466  -0.8704    99.3992
 33      0.0000     0.0000E+00    0.0000E+00    1.300000E+10  0.00800  1.361E-05    0   0.5073   age193_m52            0.0000     5.6280E-01    10.6683  -1.0000    85.0859
 34      0.0000     0.0000E+00    0.0000E+00    1.800000E+10  0.00800  9.886E-06    0   0.4990   age213_m52            0.0000     6.6416E-01    11.7834  -1.0000    80.6529
 35      3.2503     4.2385E-02    7.0578E-02    1.000000E+06  0.02000  1.544E-02    0   1.0000   age020_m62            0.0000     4.7198E-01    10.6334   2.6579    91.3029
 36      0.0000     0.0000E+00    0.0000E+00    3.160000E+06  0.02000  3.762E-02    0   0.9858   age045_m62            0.0000     4.7348E-01    10.6098   2.5986    92.0346
 37      0.0000     0.0000E+00    0.0000E+00    5.010000E+06  0.02000  3.296E-02    0   0.9342   age055_m62            0.0000     4.3906E-01     9.9192   2.2350    95.2990
 38      0.0000     0.0000E+00    0.0000E+00    8.710000E+06  0.02000  1.154E-02    0   0.8861   age067_m62            0.0000     5.3582E-01    12.3858   1.0620   109.4939
 39      0.0000     0.0000E+00    0.0000E+00    1.445000E+07  0.02000  7.663E-03    0   0.8472   age078_m62            0.0000     4.2637E-01    10.6228   1.3223   105.6831
 40      0.0000     0.0000E+00    0.0000E+00    2.512000E+07  0.02000  4.532E-03    0   0.8099   age090_m62            0.0000     4.3982E-01    10.7292   1.3090   105.6693
 41      0.0000     0.0000E+00    0.0000E+00    5.500000E+07  0.02000  2.733E-03    0   0.7595   age110_m62            0.0000     3.9985E-01     9.7701   1.3748   103.0810
 42      0.0000     0.0000E+00    0.0000E+00    1.609000E+08  0.02000  1.369E-03    0   0.6985   age120_m62            0.0000     3.9651E-01     9.3250   1.2514   104.0751
 43      0.0000     0.0000E+00    0.0000E+00    2.861200E+08  0.02000  9.013E-04    0   0.6714   age125_m62            0.0000     3.9670E-01     9.1562   1.0208   106.0912
 44      0.0000     0.0000E+00    0.0000E+00    5.088000E+08  0.02000  5.028E-04    0   0.6449   age130_m62            0.0000     3.8685E-01     8.8144   0.6818   107.0415
 45     12.8118     1.0624E+01    1.0931E+01    9.047900E+08  0.02000  2.428E-04    0   0.6179   age135_m62            0.0000     3.6331E-01     8.2381   0.1078   105.8970
 46     17.1148     2.7283E+01    2.6841E+01    1.434000E+09  0.02000  1.263E-04    0   0.5908   age139_m62            0.0000     3.6657E-01     8.2368  -0.3313   104.1298
 47      0.0000     0.0000E+00    0.0000E+00    2.500000E+09  0.02000  5.985E-05    0   0.5673   age150_m62            0.0000     3.9650E-01     8.6137  -0.6676   101.3848
 48      0.0000     0.0000E+00    0.0000E+00    4.250000E+09  0.02000  3.271E-05    0   0.5468   age158_m62            0.0000     4.5343E-01     9.3246  -0.9385    99.0350
 49      0.0000     0.0000E+00    0.0000E+00    1.000000E+10  0.02000  1.360E-05    0   0.5167   age181_m62            0.0000     5.9658E-01    11.1814  -1.0000    87.0059
 50      0.0000     0.0000E+00    0.0000E+00    1.800000E+10  0.02000  7.124E-06    0   0.5013   age213_m62            0.0000     7.8574E-01    13.0770  -1.0000    78.5310
 51      0.0000     0.0000E+00    0.0000E+00    1.000000E+06  0.05000  2.592E-02    0   0.9998   age020_m72            0.0000     4.7495E-01    10.7055   2.6452    91.5006
 52      0.0000     0.0000E+00    0.0000E+00    3.160000E+06  0.05000  4.845E-02    0   0.9577   age045_m72            0.0000     4.6597E-01    10.3309   2.4894    92.9438
 53      2.1075     1.3813E-02    2.1038E-02    5.010000E+06  0.05000  3.072E-02    0   0.9147   age055_m72            0.0000     4.2078E-01    10.3942   1.9372   100.3311
 54     12.7220     1.7604E-01    2.6022E-01    6.610000E+06  0.05000  1.455E-02    0   0.8877   age061_m72            0.0000     7.4315E-01    14.4183   1.0637   112.7681
 55      6.1390     1.3622E-01    1.9335E-01    1.000000E+07  0.05000  9.074E-03    0   0.8524   age070_m72            0.0000     4.7017E-01    10.8560   2.1162   100.2558
 56      0.0000     0.0000E+00    0.0000E+00    2.512000E+07  0.05000  4.250E-03    0   0.7902   age090_m72            0.0000     4.3639E-01    10.3338   1.8189   101.9843
 57      0.0000     0.0000E+00    0.0000E+00    4.000000E+07  0.05000  3.087E-03    0   0.7618   age104_m72            0.0000     4.4107E-01    10.2980   1.5863   103.8883
 58      0.0000     0.0000E+00    0.0000E+00    1.015200E+08  0.05000  1.700E-03    0   0.7096   age116_m72            0.0000     4.0400E-01     9.5030   1.3748   104.5297
 59      0.0000     0.0000E+00    0.0000E+00    2.861200E+08  0.05000  7.384E-04    0   0.6633   age125_m72            0.0000     3.8765E-01     8.9257   0.9076   106.6429
 60      0.0000     0.0000E+00    0.0000E+00    5.088000E+08  0.05000  3.819E-04    0   0.6372   age130_m72            0.0000     3.7514E-01     8.4731   0.4457   106.9485
 61     30.9422     3.7171E+01    3.7819E+01    9.047900E+08  0.05000  1.676E-04    0   0.6110   age135_m72            0.0000     3.9919E-01     8.4644  -0.2114   103.3570
 62      0.0000     0.0000E+00    0.0000E+00    1.434000E+09  0.05000  8.837E-05    0   0.5874   age139_m72            0.0000     4.0676E-01     8.6888  -0.6664   102.7905
 63      0.0000     0.0000E+00    0.0000E+00    2.500000E+09  0.05000  4.233E-05    0   0.5598   age150_m72            0.0000     4.7059E-01     9.5357  -0.9299    99.4825
 64      0.0000     0.0000E+00    0.0000E+00    6.250000E+09  0.05000  1.435E-05    0   0.5249   age166_m72            0.0000     6.7789E-01    11.9942  -1.0000    82.9550
 65      0.0000     0.0000E+00    0.0000E+00    1.300000E+10  0.05000  6.513E-06    0   0.5036   age193_m72            0.0000     9.8177E-01    14.6692  -1.0000    73.6799
 66      0.0000     0.0000E+00    0.0000E+00    1.800000E+10  0.05000  4.527E-06    0   0.4945   age213_m72            0.0000     1.2026E+00    16.2857  -1.0000    68.2085


## Synthesis Results - Average & Chains ##

# j      x_j: min, <> & last-chain-values for 1 ...  7 chains
  1      0.0000      0.2765      0.0000      2.6738      0.0000      1.0208      0.6059      0.0000      1.5428
  2      0.0000      0.4977      1.0191      0.2747      2.0055      2.0023      0.3853      0.0000      1.1426
  3      0.0000      0.8972      2.0166      0.0000      0.0000      6.7444      0.0000      0.0000      2.5968
  4      0.0000      0.5526      0.0000      0.0000      0.0000      0.0000      0.0000      0.0000      0.0000
  5      0.0000      0.4478      1.2225      0.0000      0.5872      0.0000      2.2965      0.0000      0.0000
  6      0.0000      0.3402      0.2221      1.8382      0.0000      0.0000      0.0000      0.0000      0.0000
  7      0.0000      0.5533      0.5279      0.0000      0.0000      0.0000      0.0000      1.0160      0.0000
  8      0.0000      1.5023      0.0000      1.7641      0.0000      0.0000      0.0000      0.0000      0.0000
  9      0.0000      0.5375      0.0000      0.0000      0.0000      0.0000      0.0000      0.3485      0.0000
 10      0.0000      0.4632      0.0000      0.0000      0.0000      0.0000      0.0000      0.0000      0.0000
 11      0.0000      1.5107      9.7405      0.0000      0.0000      4.6123      0.0000      0.0000      0.0000
 12      0.0000      1.7306      0.0000      1.7551      0.8828      0.0000      0.0000      0.0000      0.0000
 13      0.0000      3.3951      0.0000      0.0000      0.0000      0.1772      0.0000      0.0000      0.0000
 14      0.0000      0.3975      1.6166      0.0000      2.3094      0.0000      4.0529      0.7384      0.0000
 15      0.0000      0.4211      0.0000      1.0272      0.0000      0.0000      2.1674      0.0000      0.0000
 16      0.0518      0.3256      0.0000      0.0000      0.0000      0.0000      1.9390      0.9438      0.5477
 17      0.0000      1.0095      0.0000      0.0000      2.3246      0.0000      0.0000      0.0000      0.0000
 18      0.0000      0.5743      0.0000      1.3553      0.0000      2.1139      0.9512      0.0000      0.0000
 19      1.0475      1.2300      3.6968      1.0141      0.1469      0.0000      3.4864      0.8706      1.4187
 20      0.0000      1.1174      0.0000      0.0000      5.1391      0.0000      0.0000      0.0000      0.0000
 21      0.0066      2.4357      3.3846      4.0365      0.0000      0.0000      4.4723      5.5559      3.7627
 22      0.0000      0.4335      0.0000      0.0000      0.0000      0.0000      0.0000      0.0000      0.0000
 23      0.0000      0.3031      0.0000      0.0000      0.0000      0.0986      0.4806      0.0000      0.4858
 24      0.0000      0.3992      0.2418      0.0000      0.0000      0.0000      0.0000      0.0000      0.0000
 25      0.0000      0.6259      0.0000      0.0000      0.0000      0.0000      0.5326      0.0000      0.0000
 26      0.0000      0.8869      0.0000      0.0000      0.0000      1.1847      0.3743      2.7168      0.0000
 27      0.0000      0.7148      0.0000      0.0000      0.0000      0.0000      1.3732      0.8835      0.0000
 28      0.0000      8.2295      8.5858     15.1447     10.8926      8.8913      5.0696     14.1609      0.0000
 29     20.5128     10.4903     13.1827      4.6570     10.4520     13.0705     12.8922      8.2250     10.9346
 30      0.0000      0.7152      0.0000      6.4220      0.0000      0.0000      0.0000      3.8686      1.6288
 31      0.0000      0.5713      0.0000      0.0000      2.4434      0.0000      0.0000      0.0000      0.0000
 32      0.0000      0.2886      0.0000      0.6094      0.6808      0.6646      0.8136      0.0000      0.0000
 33      0.0000      0.1064      0.0000      0.0000      0.0000      0.0000      0.0000      0.0000      0.0000
 34      0.0000      0.1105      0.0000      0.0000      0.0000      0.0000      0.0000      0.0000      0.0000
 35      3.2503      0.7720      0.7854      2.8136      3.6954      0.3951      0.0000      0.9655      0.0000
 36      0.0000      0.5284      0.0000      0.0000      0.8684      0.0000      3.0826      0.0000      0.0000
 37      0.0000      0.2545      0.1073      0.1170      0.0000      0.0000      0.0000      0.0000      1.3689
 38      0.0000      0.8498      0.0000      0.8565      0.0000      0.0000      0.0000      0.8152      0.5482
 39      0.0000      0.9372      0.0000      0.6875      0.0000      2.0174      2.0773      0.0000      0.0000
 40      0.0000      0.7014      0.0000      0.8219      0.0000      3.0686      0.0000      0.0000      0.0758
 41      0.0000      0.5963      0.0000      1.0437      6.4738      0.9542      0.0000      0.0000      0.0000
 42      0.0000      0.4122      0.0000      1.1151      0.0000      0.0000      0.0000      0.0000      3.2850
 43      0.0000      0.5363      0.0000      0.0000      0.0000      0.0000      0.0000      0.2703      0.0000
 44      0.0000      0.9723      0.0000      1.0139      0.0000      0.0000      0.0000      0.0000      0.0000
 45     12.8118     17.4660     26.6012     18.9206     28.1875     13.5995     16.9258     16.3397     11.8515
 46     17.1148      5.4588      8.1513      9.0417      0.0000     11.6819      0.0000     11.1128      9.7478
