###################################################################
## OUTPUT of StarlightChains_v04.for    [Cid@UFSC - 01/Apr/2007] ##
###################################################################

## Some input info
2011jg.txt                               [arq_obs]
Base.CB07.vall.4m                        [arq_base]
Masks.EmLines.NEW.gm                     [arq_masks]
StCv04.C11.config                        [arq_config]
   66                                    [N_base]
    0                                    [N_YAV_components = # of components with extra extinction!]
    0                                    [i_FitPowerLaw (1/0 = Yes/No)]
-9.99                                    [alpha_PowerLaw]
CCM                                      [red_law_option]
 1.458241                                [q_norm = A(l_norm)/A(V)]

## (Re)Sampling Parameters
 3741.00                                 [l_ini (A)]
 7218.00                                 [l_fin (A)]
    1.00                                 [dl    (A)]     (OBS: dl_cushion =    50.00 A)

## Normalization info
 4020.00                                 [l_norm (A) - for base]
 4010.00                                 [llow_norm (A) - window for f_obs]
 4060.00                                 [lupp_norm (A) - window for f_obs]
6.971609E-17                             [fobs_norm (in input units)]

## S/N
 3691.00                                 [llow_SN (A) - window for S/N]
 7268.00                                 [lupp_SN (A) - window for S/N]
   7.778                                 [S/N in S/N window]
   9.739                                 [S/N in norm. window]
  13.327                                 [S/N_err in S/N window]
  16.688                                 [S/N_err in norm. window]
  1.0000                                 [fscale_chi2]

## etc...
    -2007385                             [idum_orig]
  2385                                   [NOl_eff]
  2385                                   [Nl_eff]
     0    NSIGMA                         [Ntot_cliped & clip_method]
  1762180                                [Nglobal_steps]
   7                                     [N_chains]
  34                                     [NEX0s_base = N_base in EX0s-fits]
 0   0   1        0   2.0   2.306E+01    [Clip-Bug, RC-Crash & Burn-In warning-flags, n_censored_weights, wei_nsig_threshold & wei_limit]
    13     13.474     12.968      0.506  [idt_all, wdt_TotTime, wdt_UsrTime & wdt_SysTime (sec)]

## Synthesis Results - Best model ##

 3.64915E-01                             [chi2/Nl_eff]
     3.64566                             [adev (%)]

   100.13437                             [sum-of-x (%)]
 1.32257E-16                             [Flux_tot (units of input spectrum!)]
 8.82863E-13                             [Mini_tot (???)]
 4.63786E-13                             [Mcor_tot (???)]

  27.56                                  [v0_min  (km/s)]
 189.67                                  [vd_min  (km/s)]
 0.4757                                  [AV_min  (mag)]
 0.0000                                  [YAV_min (mag)]

# j     x_j(%)      Mini_j(%)     Mcor_j(%)     age_j(yr)     Z_j      (L/M)_j    YAV?  Mstars   component_j        a/Fe...       SSP_chi2r SSP_adev(%)   SSP_AV   SSP_x(%)
  1      0.0000     0.0000E+00    0.0000E+00    1.000000E+06  0.00400  1.094E-02    0   1.0000   age020_m42            0.0000     8.4180E-01     5.8055   2.5520    88.5591
  2      2.4864     9.2833E-03    1.7670E-02    3.160000E+06  0.00400  4.007E-02    0   0.9999   age045_m42            0.0000     5.7365E-01     4.6430   1.8544    93.3714
  3      1.2756     7.5159E-03    1.3575E-02    5.010000E+06  0.00400  2.539E-02    0   0.9488   age055_m42            0.0000     6.5724E-01     5.0055   2.1619    91.6453
  4      0.7122     4.0665E-03    7.1372E-03    6.610000E+06  0.00400  2.620E-02    0   0.9220   age061_m42            0.0000     5.3753E-01     4.4469   1.7819    93.5495
  5      3.4196     3.8698E-02    6.5283E-02    1.000000E+07  0.00400  1.322E-02    0   0.8862   age070_m42            0.0000     4.7046E-01     4.2082   1.4917    95.9191
  6      0.0000     0.0000E+00    0.0000E+00    1.445000E+07  0.00400  7.883E-03    0   0.8571   age078_m42            0.0000     5.3787E-01     4.5106   1.8115    93.8073
  7      2.3609     6.7264E-02    1.0466E-01    2.512000E+07  0.00400  5.251E-03    0   0.8174   age090_m42            0.0000     4.7248E-01     4.2117   1.3629    96.3975
  8      8.1630     3.3467E-01    5.0017E-01    4.000000E+07  0.00400  3.649E-03    0   0.7851   age104_m42            0.0000     4.3658E-01     4.0346   1.1396    97.0060
  9      2.2682     1.0953E-01    1.5907E-01    5.500000E+07  0.00400  3.098E-03    0   0.7629   age110_m42            0.0000     4.3906E-01     3.9775   1.3022    96.5953
 10      0.0000     0.0000E+00    0.0000E+00    1.015200E+08  0.00400  2.228E-03    0   0.7207   age116_m42            0.0000     4.6018E-01     4.1133   1.3291    96.4740
 11      1.7215     2.3563E-01    2.9819E-01    2.861200E+08  0.00400  1.093E-03    0   0.6648   age125_m42            0.0000     4.5132E-01     4.0936   0.7645    99.1561
 12      6.5344     1.4818E+00    1.7955E+00    5.088000E+08  0.00400  6.597E-04    0   0.6365   age130_m42            0.0000     4.8286E-01     4.3224   0.7641    99.5334
 13      5.5718     3.9098E+00    4.3153E+00    1.434000E+09  0.00400  2.132E-04    0   0.5798   age139_m42            0.0000     5.2221E-01     4.5446  -0.1970   100.9876
 14      0.0000     0.0000E+00    0.0000E+00    4.250000E+09  0.00400  5.895E-05    0   0.5377   age158_m42            0.0000     7.5050E-01     4.9540  -0.6417    97.3309
 15      4.7640     2.0305E+01    2.0146E+01    7.500000E+09  0.00400  3.510E-05    0   0.5212   age171_m42            0.0000     9.3542E-01     5.4179  -0.8247    96.4917
 16      0.0000     0.0000E+00    0.0000E+00    1.300000E+10  0.00400  2.005E-05    0   0.5034   age193_m42            0.0000     1.1305E+00     5.8777  -0.9861    95.8376
 17      5.3554     5.2537E+01    4.9675E+01    1.800000E+10  0.00400  1.525E-05    0   0.4967   age213_m42            0.0000     1.1006E+00     5.7859  -1.0000    95.1135
 18      0.0000     0.0000E+00    0.0000E+00    1.000000E+06  0.00800  1.238E-02    0   1.0000   age020_m52            0.0000     8.4634E-01     5.8170   2.5484    88.7338
 19      0.0000     0.0000E+00    0.0000E+00    3.160000E+06  0.00800  3.074E-02    0   0.9966   age045_m52            0.0000     8.3304E-01     5.7444   2.4730    89.4616
 20      0.0000     0.0000E+00    0.0000E+00    5.010000E+06  0.00800  2.668E-02    0   0.9443   age055_m52            0.0000     6.9254E-01     5.1473   2.2395    91.0344
 21     23.0798     1.6165E-01    2.8239E-01    6.610000E+06  0.00800  2.136E-02    0   0.9177   age061_m52            0.0000     4.3618E-01     4.1442   0.9869    97.2456
 22      0.0000     0.0000E+00    0.0000E+00    1.000000E+07  0.00800  1.215E-02    0   0.8827   age070_m52            0.0000     5.1783E-01     4.4356   1.6644    95.9964
 23      0.0230     3.9466E-04    6.4250E-04    1.445000E+07  0.00800  8.717E-03    0   0.8552   age078_m52            0.0000     5.1064E-01     4.3743   1.7791    95.0099
 24      0.0000     0.0000E+00    0.0000E+00    2.512000E+07  0.00800  5.592E-03    0   0.8162   age090_m52            0.0000     4.6712E-01     4.1838   1.4279    97.4696
 25      0.0000     0.0000E+00    0.0000E+00    4.000000E+07  0.00800  3.896E-03    0   0.7841   age104_m52            0.0000     4.4141E-01     4.0053   1.3480    97.8673
 26      0.0000     0.0000E+00    0.0000E+00    1.015200E+08  0.00800  2.148E-03    0   0.7226   age116_m52            0.0000     4.2808E-01     3.9527   1.2949    97.3343
 27      0.4062     6.1226E-02    7.7890E-02    2.861200E+08  0.00800  9.925E-04    0   0.6683   age125_m52            0.0000     4.7604E-01     4.2718   0.8294   100.4270
 28      0.0000     0.0000E+00    0.0000E+00    9.047900E+08  0.00800  3.141E-04    0   0.6138   age135_m52            0.0000     6.8264E-01     5.0483   0.0530   103.5003
 29      0.0000     0.0000E+00    0.0000E+00    1.434000E+09  0.00800  1.719E-04    0   0.5853   age139_m52            0.0000     7.0776E-01     5.0191  -0.5338   101.7207
 30      0.0000     0.0000E+00    0.0000E+00    2.500000E+09  0.00800  7.872E-05    0   0.5600   age150_m52            0.0000     9.9524E-01     5.7290  -0.7976    98.8474
 31      0.0000     0.0000E+00    0.0000E+00    4.250000E+09  0.00800  4.336E-05    0   0.5426   age158_m52            0.0000     1.0550E+00     5.7620  -0.8132    97.9456
 32      0.0000     0.0000E+00    0.0000E+00    6.250000E+09  0.00800  3.159E-05    0   0.5319   age166_m52            0.0000     1.3432E+00     6.4788  -1.0000    97.3568
 33      0.0000     0.0000E+00    0.0000E+00    1.300000E+10  0.00800  1.361E-05    0   0.5073   age193_m52            0.0000     3.3443E+00    10.3491  -1.0000    80.9344
 34      0.0000     0.0000E+00    0.0000E+00    1.800000E+10  0.00800  9.886E-06    0   0.4990   age213_m52            0.0000     4.3553E+00    11.8694  -1.0000    77.0458
 35      0.0000     0.0000E+00    0.0000E+00    1.000000E+06  0.02000  1.544E-02    0   1.0000   age020_m62            0.0000     8.5850E-01     5.8586   2.5433    88.9873
 36      0.8184     3.2547E-03    6.1076E-03    3.160000E+06  0.02000  3.762E-02    0   0.9858   age045_m62            0.0000     8.6544E-01     5.8737   2.4812    89.8137
 37      0.0000     0.0000E+00    0.0000E+00    5.010000E+06  0.02000  3.296E-02    0   0.9342   age055_m62            0.0000     6.2570E-01     4.8311   2.1258    92.6037
 38      0.6689     8.6713E-03    1.4627E-02    8.710000E+06  0.02000  1.154E-02    0   0.8861   age067_m62            0.0000     1.0305E+00     6.6345   1.0902    99.8514
 39      0.0000     0.0000E+00    0.0000E+00    1.445000E+07  0.02000  7.663E-03    0   0.8472   age078_m62            0.0000     5.7974E-01     4.7997   1.3054    98.4333
 40      0.0000     0.0000E+00    0.0000E+00    2.512000E+07  0.02000  4.532E-03    0   0.8099   age090_m62            0.0000     6.1973E-01     4.9225   1.2994    98.0711
 41      0.0002     1.3231E-05    1.9129E-05    5.500000E+07  0.02000  2.733E-03    0   0.7595   age110_m62            0.0000     4.3712E-01     3.9876   1.3268    97.3445
 42      5.7746     6.3105E-01    8.3908E-01    1.609000E+08  0.02000  1.369E-03    0   0.6985   age120_m62            0.0000     4.4671E-01     4.0828   1.1834    99.1848
 43     13.4077     2.2255E+00    2.8444E+00    2.861200E+08  0.02000  9.013E-04    0   0.6714   age125_m62            0.0000     5.1576E-01     4.4690   0.9446   101.4619
 44      0.0213     6.3370E-03    7.7795E-03    5.088000E+08  0.02000  5.028E-04    0   0.6449   age130_m62            0.0000     6.7909E-01     5.1416   0.5846   103.3056
 45      0.0000     0.0000E+00    0.0000E+00    9.047900E+08  0.02000  2.428E-04    0   0.6179   age135_m62            0.0000     7.7954E-01     5.3039   0.0017   102.5601
 46      0.0000     0.0000E+00    0.0000E+00    1.434000E+09  0.02000  1.263E-04    0   0.5908   age139_m62            0.0000     9.3855E-01     5.5897  -0.4442   101.1391
 47      0.0000     0.0000E+00    0.0000E+00    2.500000E+09  0.02000  5.985E-05    0   0.5673   age150_m62            0.0000     1.2935E+00     6.4457  -0.8058    99.5873
 48      0.0000     0.0000E+00    0.0000E+00    4.250000E+09  0.02000  3.271E-05    0   0.5468   age158_m62            0.0000     1.8680E+00     7.7207  -1.0000    94.8109
 49      0.0000     0.0000E+00    0.0000E+00    1.000000E+10  0.02000  1.360E-05    0   0.5167   age181_m62            0.0000     3.7825E+00    10.8019  -1.0000    82.5568
 50      0.0000     0.0000E+00    0.0000E+00    1.800000E+10  0.02000  7.124E-06    0   0.5013   age213_m62            0.0000     5.6467E+00    13.3642  -1.0000    75.1253
 51      1.2051     6.9557E-03    1.3238E-02    1.000000E+06  0.05000  2.592E-02    0   0.9998   age020_m72            0.0000     8.9892E-01     5.9924   2.5328    89.1027
 52      0.0036     1.1021E-05    2.0093E-05    3.160000E+06  0.05000  4.845E-02    0   0.9577   age045_m72            0.0000     7.8797E-01     5.5023   2.3733    90.6231
 53      0.0000     0.0000E+00    0.0000E+00    5.010000E+06  0.05000  3.072E-02    0   0.9147   age055_m72            0.0000     6.3969E-01     4.9521   1.8914    94.7782
 54      0.0000     0.0000E+00    0.0000E+00    6.610000E+06  0.05000  1.455E-02    0   0.8877   age061_m72            0.0000     1.8488E+00     8.8491   1.1309   101.1650
 55      0.0000     0.0000E+00    0.0000E+00    1.000000E+07  0.05000  9.074E-03    0   0.8524   age070_m72            0.0000     8.3935E-01     5.5855   2.0792    94.4253
 56      0.0000     0.0000E+00    0.0000E+00    2.512000E+07  0.05000  4.250E-03    0   0.7902   age090_m72            0.0000     6.3541E-01     4.7989   1.7869    95.7153
 57      0.0000     0.0000E+00    0.0000E+00    4.000000E+07  0.05000  3.087E-03    0   0.7618   age104_m72            0.0000     6.2244E-01     4.7162   1.5617    97.1444
 58      0.0000     0.0000E+00    0.0000E+00    1.015200E+08  0.05000  1.700E-03    0   0.7096   age116_m72            0.0000     4.6447E-01     4.1398   1.3214    98.9708
 59      0.5388     1.0917E-01    1.3784E-01    2.861200E+08  0.05000  7.384E-04    0   0.6633   age125_m72            0.0000     5.8888E-01     4.7491   0.8221   102.3744
 60      0.0000     0.0000E+00    0.0000E+00    5.088000E+08  0.05000  3.819E-04    0   0.6372   age130_m72            0.0000     7.2980E-01     5.3065   0.3398   103.5469
 61      9.1361     8.1551E+00    9.4852E+00    9.047900E+08  0.05000  1.676E-04    0   0.6110   age135_m72            0.0000     1.1669E+00     6.3821  -0.3499   101.5225
 62      0.0000     0.0000E+00    0.0000E+00    1.434000E+09  0.05000  8.837E-05    0   0.5874   age139_m72            0.0000     1.4166E+00     6.7674  -0.8027   100.8513
 63      0.0000     0.0000E+00    0.0000E+00    2.500000E+09  0.05000  4.233E-05    0   0.5598   age150_m72            0.0000     2.0515E+00     8.1080  -1.0000    95.5696
 64      0.0000     0.0000E+00    0.0000E+00    6.250000E+09  0.05000  1.435E-05    0   0.5249   age166_m72            0.0000     4.5397E+00    11.9448  -1.0000    79.0456
 65      0.4175     9.5903E+00    9.1938E+00    1.300000E+10  0.05000  6.513E-06    0   0.5036   age193_m72            0.0000     7.3527E+00    15.3827  -1.0000    70.8819
 66      0.0000     0.0000E+00    0.0000E+00    1.800000E+10  0.05000  4.527E-06    0   0.4945   age213_m72            0.0000     9.2502E+00    17.3017  -1.0000    65.8968


## Synthesis Results - Average & Chains ##

# j      x_j: min, <> & last-chain-values for 1 ...  7 chains
  1      0.0000      0.3370      0.0000      0.0000      0.7484      0.8483      0.0527      0.0000      0.6821
  2      2.4864      2.0034      0.0000      3.5147      3.0238      3.8221      2.3989      2.9878      2.8923
  3      1.2756      0.5954      3.0739      3.1623      0.0000      0.5536      1.0021      0.0000      2.6198
  4      0.7122      0.4302      0.0000      0.0000      0.0000      0.0522      0.4611      0.0000      1.1011
  5      3.4196      0.8027      0.0000      0.7675      0.0000      1.4403      0.5908      0.0000      0.0000
  6      0.0000      0.7569      0.0000      0.5011      2.2893      1.4155      0.0000      0.0000      0.0000
  7      2.3609      1.5572      0.9835      0.0000      0.0000      2.3362      1.1285      2.7876      3.1403
  8      8.1630      3.8577      6.5935      3.5393      9.9729      2.3075      8.0011      4.6628      0.0000
  9      2.2682      1.7323      1.9258      0.0000      1.3655      4.6695      0.9983      3.6405      1.0809
 10      0.0000      1.1391      1.1671      0.9770      0.6674      3.3700      0.0000      0.4371      0.0000
 11      1.7215      6.9760      5.6830      6.9444      7.7277      3.3027      6.1451      0.4808     11.3143
 12      6.5344      7.0506      6.8270     10.0159      8.1687      8.1178      6.5924     11.0784      5.8238
 13      5.5718      3.6940      4.2888      4.7075      4.2522      3.5070      1.4787      3.1939      5.4716
 14      0.0000      0.1783      0.0000      0.0000      0.2652      0.1980      0.0901      0.0000      0.1669
 15      4.7640      3.4600      3.1253      4.1624      3.6149      3.4564      4.4501      3.5251      3.6803
 16      0.0000      0.2046      0.0000      0.1782      0.2959      0.0000      0.3598      0.0000      0.0000
 17      5.3554      3.1269      2.7754      2.7703      3.1396      3.6687      3.5297      3.7334      3.1218
 18      0.0000      0.4037      0.7080      0.0000      0.8248      1.6593      0.0000      3.3280      1.1886
 19      0.0000      0.3339      0.0000      0.0000      0.0000      0.0602      0.0000      0.0000      0.0000
 20      0.0000      1.5060      0.0000      0.0000      0.8972      0.0000      1.8034      1.0256      3.2839
 21     23.0798     13.2655     17.2843     14.0779     11.9481     12.4078     17.4443     13.3837     14.9604
 22      0.0000      0.6741      0.0000      2.4137      1.1622      1.4049      0.0000      1.9492      0.6084
 23      0.0230      0.7837      2.9804      0.0833      0.0896      0.0000      1.0394      0.2679      0.0000
 24      0.0000      1.9569      0.7273      0.6555      0.0000      3.3739      1.3770      2.0512      2.5814
 25      0.0000      0.7595      0.0000      1.0919      0.2094      0.0000      0.1256      0.3533      0.4710
 26      0.0000      0.9328      0.9747      0.0000      0.7390      0.0000      1.3779      0.0000      0.0000
 27      0.4062      2.7826      1.9554      3.3478      2.6224      0.2713      4.0885      3.2987      3.1038
 28      0.0000      1.0432      0.0000      0.0000      0.0000      0.0000      0.0000      0.0000      0.0000
 29      0.0000      0.3416      1.6800      0.0000      0.0000      0.0000      0.0000      0.0000      0.6288
 30      0.0000      1.7004      1.6978      1.0670      0.9699      2.1013      0.4149      1.3462      2.5779
 31      0.0000      0.3645      0.0000      0.0000      0.2073      0.0598      1.3491      0.9539      0.0000
 32      0.0000      0.0970      0.0016      0.0000      1.1968      0.0000      0.0000      0.0000      0.0000
 33      0.0000      0.0956      0.0000      0.4647      0.2979      0.0000      0.1555      0.0000      0.0000
 34      0.0000      0.0567      0.0000      0.6334      0.0000      0.4986      0.0000      0.0000      0.1215
 35      0.0000      0.3113      1.4392      0.0000      0.0000      0.0000      0.1898      1.4258      0.5864
 36      0.8184      1.4431      1.7989      2.6825      1.4099      1.9759      1.3717      1.9765      2.3424
 37      0.0000      0.2450      0.0000      0.0000      0.2585      1.0069      0.3095      0.1376      0.0000
 38      0.6689      1.9939      2.5912      1.7028      3.0899      2.3219      2.1222      0.0000      1.1722
 39      0.0000      0.5220      1.4952      0.4986      0.0000      0.0000      0.0000      2.0060      0.0000
 40      0.0000      0.7718      0.0000      1.6399      0.0000      0.0000      0.0000      0.2008      0.0000
 41      0.0002      1.8540      0.0000      1.5726      1.5364      3.0253      0.4845      1.6671      1.5900
 42      5.7746      1.3297      4.5422      0.0000      3.1299      0.9774      0.4922      0.8461      1.3237
 43     13.4077      4.0202      4.9964      7.9425      5.1501      4.6024      6.0653      6.0613      6.7667
 44      0.0213      3.2365      3.5630      1.9361      2.5882      4.9132      7.7705      5.0834      1.8828
 45      0.0000      1.1614      0.0000      0.0000      0.7330      1.1643      0.5747      1.6462      0.0000
 46      0.0000      0.3662      0.0132      0.0000      0.0508      0.0000      0.0000      0.0000      0.0000
