###################################################################
## OUTPUT of StarlightChains_v04.for    [Cid@UFSC - 01/Apr/2007] ##
###################################################################

## Some input info
2011jk.txt                               [arq_obs]
Base.CB07.vall.4m                        [arq_base]
Masks.EmLines.NEW.gm                     [arq_masks]
StCv04.C11.config                        [arq_config]
   66                                    [N_base]
    0                                    [N_YAV_components = # of components with extra extinction!]
    0                                    [i_FitPowerLaw (1/0 = Yes/No)]
-9.99                                    [alpha_PowerLaw]
CCM                                      [red_law_option]
 1.458241                                [q_norm = A(l_norm)/A(V)]

## (Re)Sampling Parameters
 3741.00                                 [l_ini (A)]
 7218.00                                 [l_fin (A)]
    1.00                                 [dl    (A)]     (OBS: dl_cushion =    50.00 A)

## Normalization info
 4020.00                                 [l_norm (A) - for base]
 4010.00                                 [llow_norm (A) - window for f_obs]
 4060.00                                 [lupp_norm (A) - window for f_obs]
6.221307E-17                             [fobs_norm (in input units)]

## S/N
 3691.00                                 [llow_SN (A) - window for S/N]
 7268.00                                 [lupp_SN (A) - window for S/N]
   2.082                                 [S/N in S/N window]
   4.404                                 [S/N in norm. window]
   4.903                                 [S/N_err in S/N window]
  10.371                                 [S/N_err in norm. window]
  1.0000                                 [fscale_chi2]

## etc...
    -2007386                             [idum_orig]
  2383                                   [NOl_eff]
  2289                                   [Nl_eff]
    94    NSIGMA                         [Ntot_cliped & clip_method]
   655830                                [Nglobal_steps]
   7                                     [N_chains]
  15                                     [NEX0s_base = N_base in EX0s-fits]
 0   0   1       55   2.0   2.779E+01    [Clip-Bug, RC-Crash & Burn-In warning-flags, n_censored_weights, wei_nsig_threshold & wei_limit]
    13     13.185     12.674      0.511  [idt_all, wdt_TotTime, wdt_UsrTime & wdt_SysTime (sec)]

## Synthesis Results - Best model ##

 5.83716E-01                             [chi2/Nl_eff]
    10.88792                             [adev (%)]

    87.42492                             [sum-of-x (%)]
 2.66261E-17                             [Flux_tot (units of input spectrum!)]
 3.05966E-14                             [Mini_tot (???)]
 1.95728E-14                             [Mcor_tot (???)]

-169.27                                  [v0_min  (km/s)]
 138.36                                  [vd_min  (km/s)]
-0.5318                                  [AV_min  (mag)]
 0.0000                                  [YAV_min (mag)]

# j     x_j(%)      Mini_j(%)     Mcor_j(%)     age_j(yr)     Z_j      (L/M)_j    YAV?  Mstars   component_j        a/Fe...       SSP_chi2r SSP_adev(%)   SSP_AV   SSP_x(%)
  1      0.0000     0.0000E+00    0.0000E+00    1.000000E+06  0.00400  1.094E-02    0   1.0000   age020_m42            0.0000     8.4861E-01    11.9122   1.3031    73.1890
  2      0.0000     0.0000E+00    0.0000E+00    3.160000E+06  0.00400  4.007E-02    0   0.9999   age045_m42            0.0000     6.7270E-01    11.5571   0.5061    80.8154
  3      0.0000     0.0000E+00    0.0000E+00    5.010000E+06  0.00400  2.539E-02    0   0.9488   age055_m42            0.0000     7.1580E-01    11.5893   0.8568    77.7337
  4      0.0000     0.0000E+00    0.0000E+00    6.610000E+06  0.00400  2.620E-02    0   0.9220   age061_m42            0.0000     6.4985E-01    11.4198   0.4328    80.9864
  5      0.0000     0.0000E+00    0.0000E+00    1.000000E+07  0.00400  1.322E-02    0   0.8862   age070_m42            0.0000     6.2926E-01    11.0000   0.1993    81.0390
  6      0.0000     0.0000E+00    0.0000E+00    1.445000E+07  0.00400  7.883E-03    0   0.8571   age078_m42            0.0000     6.6954E-01    11.1328   0.5368    78.5996
  7      0.0000     0.0000E+00    0.0000E+00    2.512000E+07  0.00400  5.251E-03    0   0.8174   age090_m42            0.0000     6.2402E-01    10.9564   0.0730    81.3896
  8      0.0000     0.0000E+00    0.0000E+00    4.000000E+07  0.00400  3.649E-03    0   0.7851   age104_m42            0.0000     6.1250E-01    10.9477  -0.1691    82.5964
  9      0.0000     0.0000E+00    0.0000E+00    5.500000E+07  0.00400  3.098E-03    0   0.7629   age110_m42            0.0000     6.1155E-01    11.0770  -0.0477    83.7833
 10      0.0000     0.0000E+00    0.0000E+00    1.015200E+08  0.00400  2.228E-03    0   0.7207   age116_m42            0.0000     6.1898E-01    11.2019  -0.0506    84.7975
 11      0.1947     1.7730E-01    1.8425E-01    2.861200E+08  0.00400  1.093E-03    0   0.6648   age125_m42            0.0000     6.0640E-01    11.0854  -0.6185    87.3853
 12     15.4449     2.3304E+01    2.3188E+01    5.088000E+08  0.00400  6.597E-04    0   0.6365   age130_m42            0.0000     6.4588E-01    11.3624  -0.6652    89.5071
 13      0.0000     0.0000E+00    0.0000E+00    1.434000E+09  0.00400  2.132E-04    0   0.5798   age139_m42            0.0000     1.3518E+00    15.0083  -1.0000    73.9595
 14      0.0000     0.0000E+00    0.0000E+00    4.250000E+09  0.00400  5.895E-05    0   0.5377   age158_m42            0.0000     2.5092E+00    19.6538  -1.0000    59.1446
 15      0.0000     0.0000E+00    0.0000E+00    7.500000E+09  0.00400  3.510E-05    0   0.5212   age171_m42            0.0000     3.1284E+00    21.5669  -1.0000    53.9645
 16      0.0000     0.0000E+00    0.0000E+00    1.300000E+10  0.00400  2.005E-05    0   0.5034   age193_m42            0.0000     3.6971E+00    23.1659  -1.0000    49.6641
 17      0.0000     0.0000E+00    0.0000E+00    1.800000E+10  0.00400  1.525E-05    0   0.4967   age213_m42            0.0000     3.7556E+00    23.4225  -1.0000    48.8972
 18      0.0000     0.0000E+00    0.0000E+00    1.000000E+06  0.00800  1.238E-02    0   1.0000   age020_m52            0.0000     8.4923E-01    11.9175   1.2994    73.3356
 19      0.0000     0.0000E+00    0.0000E+00    3.160000E+06  0.00800  3.074E-02    0   0.9966   age045_m52            0.0000     8.2004E-01    11.8882   1.2113    74.3552
 20      0.0000     0.0000E+00    0.0000E+00    5.010000E+06  0.00800  2.668E-02    0   0.9443   age055_m52            0.0000     7.3631E-01    11.6233   0.9491    76.6910
 21      0.0000     0.0000E+00    0.0000E+00    6.610000E+06  0.00800  2.136E-02    0   0.9177   age061_m52            0.0000     6.6432E-01    11.0606  -0.2930    81.6604
 22      0.0000     0.0000E+00    0.0000E+00    1.000000E+07  0.00800  1.215E-02    0   0.8827   age070_m52            0.0000     6.5023E-01    11.0203   0.3975    80.2044
 23      0.0000     0.0000E+00    0.0000E+00    1.445000E+07  0.00800  8.717E-03    0   0.8552   age078_m52            0.0000     6.5420E-01    11.0907   0.4974    79.8815
 24      0.0000     0.0000E+00    0.0000E+00    2.512000E+07  0.00800  5.592E-03    0   0.8162   age090_m52            0.0000     6.1718E-01    10.9408   0.1324    82.5301
 25      0.0000     0.0000E+00    0.0000E+00    4.000000E+07  0.00800  3.896E-03    0   0.7841   age104_m52            0.0000     6.0525E-01    10.9574   0.0235    83.9664
 26      0.0000     0.0000E+00    0.0000E+00    1.015200E+08  0.00800  2.148E-03    0   0.7226   age116_m52            0.0000     6.0738E-01    11.0969  -0.0701    85.0013
 27      0.0000     0.0000E+00    0.0000E+00    2.861200E+08  0.00800  9.925E-04    0   0.6683   age125_m52            0.0000     6.4966E-01    11.3394  -0.5999    90.2807
 28      0.0000     0.0000E+00    0.0000E+00    9.047900E+08  0.00800  3.141E-04    0   0.6138   age135_m52            0.0000     1.0990E+00    13.3251  -1.0000    83.4279
 29      5.8195     3.3698E+01    3.0832E+01    1.434000E+09  0.00800  1.719E-04    0   0.5853   age139_m52            0.0000     2.2596E+00    18.6816  -1.0000    64.8965
 30      0.0000     0.0000E+00    0.0000E+00    2.500000E+09  0.00800  7.872E-05    0   0.5600   age150_m52            0.0000     3.1284E+00    21.3527  -1.0000    56.0249
 31      0.0000     0.0000E+00    0.0000E+00    4.250000E+09  0.00800  4.336E-05    0   0.5426   age158_m52            0.0000     3.1925E+00    21.4849  -1.0000    55.0922
 32      0.0000     0.0000E+00    0.0000E+00    6.250000E+09  0.00800  3.159E-05    0   0.5319   age166_m52            0.0000     3.9182E+00    23.3808  -1.0000    50.0799
 33      0.0000     0.0000E+00    0.0000E+00    1.300000E+10  0.00800  1.361E-05    0   0.5073   age193_m52            0.0000     5.5531E+00    27.6465  -1.0000    39.3511
 34      0.0000     0.0000E+00    0.0000E+00    1.800000E+10  0.00800  9.886E-06    0   0.4990   age213_m52            0.0000     5.9892E+00    28.3774  -1.0000    37.0434
 35      0.0000     0.0000E+00    0.0000E+00    1.000000E+06  0.02000  1.544E-02    0   1.0000   age020_m62            0.0000     8.5113E-01    11.9362   1.2963    73.4848
 36      0.0000     0.0000E+00    0.0000E+00    3.160000E+06  0.02000  3.762E-02    0   0.9858   age045_m62            0.0000     8.3304E-01    11.9328   1.2277    74.3834
 37      0.0000     0.0000E+00    0.0000E+00    5.010000E+06  0.02000  3.296E-02    0   0.9342   age055_m62            0.0000     6.8703E-01    11.5903   0.7969    79.3733
 38     29.4965     2.5443E+00    3.5243E+00    8.710000E+06  0.02000  1.154E-02    0   0.8861   age067_m62            0.0000     7.8867E-01    11.7343  -0.0574    79.0592
 39      0.0000     0.0000E+00    0.0000E+00    1.445000E+07  0.02000  7.663E-03    0   0.8472   age078_m62            0.0000     6.7162E-01    11.0619   0.0688    81.1574
 40      0.0000     0.0000E+00    0.0000E+00    2.512000E+07  0.02000  4.532E-03    0   0.8099   age090_m62            0.0000     6.5746E-01    11.0601   0.0614    80.9440
 41      0.0000     0.0000E+00    0.0000E+00    5.500000E+07  0.02000  2.733E-03    0   0.7595   age110_m62            0.0000     6.0674E-01    10.9514   0.0139    83.0689
 42      0.0077     5.6099E-03    6.1255E-03    1.609000E+08  0.02000  1.369E-03    0   0.6985   age120_m62            0.0000     6.2109E-01    11.1419  -0.2064    87.6104
 43     36.4597     4.0266E+01    4.2262E+01    2.861200E+08  0.02000  9.013E-04    0   0.6714   age125_m62            0.0000     6.8258E-01    11.4363  -0.4953    91.6499
 44      0.0019     3.6866E-03    3.7165E-03    5.088000E+08  0.02000  5.028E-04    0   0.6449   age130_m62            0.0000     7.7848E-01    12.1839  -0.9330    96.5351
 45      0.0000     0.0000E+00    0.0000E+00    9.047900E+08  0.02000  2.428E-04    0   0.6179   age135_m62            0.0000     1.2397E+00    13.8779  -1.0000    81.1684
 46      0.0000     0.0000E+00    0.0000E+00    1.434000E+09  0.02000  1.263E-04    0   0.5908   age139_m62            0.0000     2.1825E+00    17.8435  -1.0000    67.0417
 47      0.0000     0.0000E+00    0.0000E+00    2.500000E+09  0.02000  5.985E-05    0   0.5673   age150_m62            0.0000     3.2972E+00    21.4488  -1.0000    56.2208
 48      0.0000     0.0000E+00    0.0000E+00    4.250000E+09  0.02000  3.271E-05    0   0.5468   age158_m62            0.0000     4.3791E+00    24.1945  -1.0000    48.2180
 49      0.0000     0.0000E+00    0.0000E+00    1.000000E+10  0.02000  1.360E-05    0   0.5167   age181_m62            0.0000     5.6760E+00    27.1161  -1.0000    40.3039
 50      0.0000     0.0000E+00    0.0000E+00    1.800000E+10  0.02000  7.124E-06    0   0.5013   age213_m62            0.0000     6.4547E+00    28.6872  -1.0000    35.8631
 51      0.0000     0.0000E+00    0.0000E+00    1.000000E+06  0.05000  2.592E-02    0   0.9998   age020_m72            0.0000     8.7274E-01    11.9867   1.2935    73.3104
 52      0.0000     0.0000E+00    0.0000E+00    3.160000E+06  0.05000  4.845E-02    0   0.9577   age045_m72            0.0000     7.6713E-01    11.8359   1.0843    76.2368
 53      0.0000     0.0000E+00    0.0000E+00    5.010000E+06  0.05000  3.072E-02    0   0.9147   age055_m72            0.0000     7.1650E-01    11.3172   0.6467    78.3585
 54      0.0000     0.0000E+00    0.0000E+00    6.610000E+06  0.05000  1.455E-02    0   0.8877   age061_m72            0.0000     9.2369E-01    13.0117   0.0236    78.6191
 55      0.0000     0.0000E+00    0.0000E+00    1.000000E+07  0.05000  9.074E-03    0   0.8524   age070_m72            0.0000     7.4032E-01    11.6284   0.8336    78.1170
 56      0.0000     0.0000E+00    0.0000E+00    2.512000E+07  0.05000  4.250E-03    0   0.7902   age090_m72            0.0000     6.5397E-01    11.2374   0.5044    80.5658
 57      0.0000     0.0000E+00    0.0000E+00    4.000000E+07  0.05000  3.087E-03    0   0.7618   age104_m72            0.0000     6.3124E-01    11.1817   0.2684    82.2077
 58      0.0000     0.0000E+00    0.0000E+00    1.015200E+08  0.05000  1.700E-03    0   0.7096   age116_m72            0.0000     6.1338E-01    11.0749  -0.0465    86.5871
 59      0.0000     0.0000E+00    0.0000E+00    2.861200E+08  0.05000  7.384E-04    0   0.6633   age125_m72            0.0000     7.3462E-01    11.8311  -0.6618    94.2942
 60      0.0000     0.0000E+00    0.0000E+00    5.088000E+08  0.05000  3.819E-04    0   0.6372   age130_m72            0.0000     8.5072E-01    12.3646  -1.0000    91.9798
 61      0.0000     0.0000E+00    0.0000E+00    9.047900E+08  0.05000  1.676E-04    0   0.6110   age135_m72            0.0000     2.0905E+00    17.1582  -1.0000    70.0398
 62      0.0000     0.0000E+00    0.0000E+00    1.434000E+09  0.05000  8.837E-05    0   0.5874   age139_m72            0.0000     3.3736E+00    21.4839  -1.0000    57.0077
 63      0.0000     0.0000E+00    0.0000E+00    2.500000E+09  0.05000  4.233E-05    0   0.5598   age150_m72            0.0000     4.4505E+00    24.1537  -1.0000    48.6006
 64      0.0000     0.0000E+00    0.0000E+00    6.250000E+09  0.05000  1.435E-05    0   0.5249   age166_m72            0.0000     6.0153E+00    27.9067  -1.0000    38.1795
 65      0.0000     0.0000E+00    0.0000E+00    1.300000E+10  0.05000  6.513E-06    0   0.5036   age193_m72            0.0000     7.0121E+00    29.9867  -1.0000    33.2811
 66      0.0000     0.0000E+00    0.0000E+00    1.800000E+10  0.05000  4.527E-06    0   0.4945   age213_m72            0.0000     7.5614E+00    31.1203  -1.0000    30.4914


## Synthesis Results - Average & Chains ##

# j      x_j: min, <> & last-chain-values for 1 ...  7 chains
  1      0.0000      0.1214      0.7229      0.0000      0.0000      0.0000      0.0000      0.0000      0.0000
  2      0.0000      0.3279      0.0000      0.2500      0.0000      0.0000      0.0000      0.0000      0.0000
  3      0.0000      0.3034      0.0000      0.0000      0.0000      0.0000      0.0000      0.0000      0.0000
  4      0.0000      0.5372      0.6643      4.0285      0.0000      0.0000      1.1229      0.0000      0.0000
  5      0.0000      1.8772      0.0000      0.0000      0.0000      4.9801      0.0000      0.0000      0.0000
  6      0.0000      0.3767      0.0000      0.0000      0.0000      2.4743      0.0000      0.0000      0.0000
  7      0.0000      1.3786      1.0159      0.0000      1.1241      0.0000      0.0000      0.0000      5.4707
  8      0.0000      2.2373      0.0000      0.0000      0.0000      0.0000      0.0000      0.8923      0.2144
  9      0.0000      1.2483      0.0000      0.0000      2.5039      0.0000      0.1049      0.0000      0.0000
 10      0.0000      1.7482      2.0894      3.5408      0.3939      0.0000      2.7448      0.0000      0.7273
 11      0.1947      5.8228      3.2139      6.3172      7.2173      9.6463      6.9632     16.1815      0.4123
 12     15.4449      7.5924     11.6090      5.3195     13.5594      7.8647     14.4111      5.9809      8.2726
 13      0.0000      0.3158      0.0809      0.3134      0.0000      0.0000      0.0000      0.0000      1.4530
 14      0.0000      0.0407      0.0000      0.0000      0.0000      0.0000      0.0000      0.0000      0.0972
 15      0.0000      0.0515      0.0000      0.0000      0.0000      0.0000      0.0000      0.0000      0.0000
 16      0.0000      0.1313      0.0000      0.0000      0.0000      0.0000      0.0000      0.0000      0.7957
 17      0.0000      0.0258      0.0000      0.0000      0.0000      0.0000      0.0000      0.0000      0.0000
 18      0.0000      0.3249      0.0000      0.0000      0.7686      0.0000      0.0117      0.0000      0.0000
 19      0.0000      0.2391      0.0000      0.8634      0.0000      0.0000      0.0000      0.0000      0.5755
 20      0.0000      0.3355      0.0000      0.0000      0.0000      0.0000      1.5062      0.1138      0.0000
 21      0.0000      2.7218      0.7640      0.0255      0.0000      5.0022      0.0000      0.7892      0.0000
 22      0.0000      0.8597      0.0000      0.0000      1.9069      0.0000      0.0000      0.0000      4.7224
 23      0.0000      0.4273      0.0000      0.0000      1.3770      0.0000      2.5960      0.0000      0.0000
 24      0.0000      2.1354      0.0000      0.8347      0.1736      0.0000      0.0000      3.0321      3.1674
 25      0.0000      1.5124      0.0150      0.0000      0.0000      3.5477      0.0000      0.0000      0.0000
 26      0.0000      1.7432      2.6153      1.4202      0.0000      0.0000      0.0000      2.3814      6.2028
 27      0.0000      5.7528      0.0000      9.1673      5.6700      0.0000      9.0497      3.0129     13.0987
 28      0.0000      0.5746      0.0000      0.0000      1.8242      0.0000      0.0000      0.0000      0.0000
 29      5.8195      0.1029      0.1358      0.0000      0.0000      0.0000      0.0000      1.5894      0.2249
 30      0.0000      0.0664      0.0000      0.0000      0.0000      0.0000      0.0000      0.0000      0.0000
 31      0.0000      0.0426      0.0000      0.6671      0.0000      0.0000      0.0000      0.0000      0.0000
 32      0.0000      0.0318      0.0000      0.0000      0.0000      0.0000      0.0000      0.0000      0.0000
 33      0.0000      0.0514      0.0000      0.0000      0.0000      0.0000      0.0000      0.0000      0.0000
 34      0.0000      0.0260      0.0000      0.0000      0.0000      0.0000      0.0000      0.0000      0.0000
 35      0.0000      0.1524      0.0000      0.0000      0.7333      0.0000      0.1697      0.0000      0.0000
 36      0.0000      0.0884      0.0000      0.0000      0.0000      0.0000      0.0000      0.1918      0.0000
 37      0.0000      0.1723      0.0000      0.0000      0.0000      0.0000      0.0000      0.0000      0.0000
 38     29.4965      9.7306     20.6411     11.9516     15.2489     16.1921     21.0676     18.5483     15.4045
 39      0.0000      1.0067      0.0000      0.4998      0.0000      0.0000      0.0000      0.0000      0.0000
 40      0.0000      2.0217      5.4029      2.0035      1.8654      0.7922      0.8718      0.0000      0.0000
 41      0.0000      1.6274      0.0000      4.4998      6.3760      0.0000      0.7275      5.7151      0.0000
 42      0.0077      9.4702     15.1357      8.8279      3.4718     13.2116      5.8590      4.9179     10.2330
 43     36.4597      6.0525     15.5007     15.7703      9.8489     12.8511      8.6485      7.5467      9.2216
 44      0.0019      1.3532      0.0000      0.0000      4.1332      0.0000      0.0000      1.6670      0.6026
 45      0.0000      0.2740      0.0000      1.2731      0.6534      0.0000      0.0000      0.0000      0.4342
 46      0.0000      0.0561      0.0000      0.0000      0.0000      0.0000      0.0000      0.0000      0.4536
