###################################################################
## OUTPUT of StarlightChains_v04.for    [Cid@UFSC - 01/Apr/2007] ##
###################################################################

## Some input info
2011cl.txt                               [arq_obs]
Base.CB07.vall.4m                        [arq_base]
Masks.EmLines.NEW.gm                     [arq_masks]
StCv04.C11.config                        [arq_config]
   66                                    [N_base]
    0                                    [N_YAV_components = # of components with extra extinction!]
    0                                    [i_FitPowerLaw (1/0 = Yes/No)]
-9.99                                    [alpha_PowerLaw]
CCM                                      [red_law_option]
 1.458241                                [q_norm = A(l_norm)/A(V)]

## (Re)Sampling Parameters
 3741.00                                 [l_ini (A)]
 7218.00                                 [l_fin (A)]
    1.00                                 [dl    (A)]     (OBS: dl_cushion =    50.00 A)

## Normalization info
 4020.00                                 [l_norm (A) - for base]
 4010.00                                 [llow_norm (A) - window for f_obs]
 4060.00                                 [lupp_norm (A) - window for f_obs]
4.955663E-15                             [fobs_norm (in input units)]

## S/N
 3691.00                                 [llow_SN (A) - window for S/N]
 7268.00                                 [lupp_SN (A) - window for S/N]
   3.561                                 [S/N in S/N window]
   5.305                                 [S/N in norm. window]
  10.000                                 [S/N_err in S/N window]
  14.896                                 [S/N_err in norm. window]
  1.0000                                 [fscale_chi2]

## etc...
    -2007374                             [idum_orig]
  2368                                   [NOl_eff]
  2357                                   [Nl_eff]
    11    NSIGMA                         [Ntot_cliped & clip_method]
  1091160                                [Nglobal_steps]
   7                                     [N_chains]
  22                                     [NEX0s_base = N_base in EX0s-fits]
 0   0   1       69   2.0   2.456E+01    [Clip-Bug, RC-Crash & Burn-In warning-flags, n_censored_weights, wei_nsig_threshold & wei_limit]
    11     11.261     10.757      0.504  [idt_all, wdt_TotTime, wdt_UsrTime & wdt_SysTime (sec)]

## Synthesis Results - Best model ##

 6.83157E-01                             [chi2/Nl_eff]
     6.41973                             [adev (%)]

   104.49339                             [sum-of-x (%)]
 4.29484E-15                             [Flux_tot (units of input spectrum!)]
 8.37527E-12                             [Mini_tot (???)]
 4.90854E-12                             [Mcor_tot (???)]

 -45.99                                  [v0_min  (km/s)]
 203.18                                  [vd_min  (km/s)]
-0.1393                                  [AV_min  (mag)]
 0.0000                                  [YAV_min (mag)]

# j     x_j(%)      Mini_j(%)     Mcor_j(%)     age_j(yr)     Z_j      (L/M)_j    YAV?  Mstars   component_j        a/Fe...       SSP_chi2r SSP_adev(%)   SSP_AV   SSP_x(%)
  1      0.0000     0.0000E+00    0.0000E+00    1.000000E+06  0.00400  1.094E-02    0   1.0000   age020_m42            0.0000     1.1101E+00     8.0510   1.9120    88.6839
  2      0.0000     0.0000E+00    0.0000E+00    3.160000E+06  0.00400  4.007E-02    0   0.9999   age045_m42            0.0000     8.2253E-01     7.1422   1.1410    96.7968
  3      0.0000     0.0000E+00    0.0000E+00    5.010000E+06  0.00400  2.539E-02    0   0.9488   age055_m42            0.0000     8.9820E-01     7.4064   1.4776    93.6961
  4      0.0000     0.0000E+00    0.0000E+00    6.610000E+06  0.00400  2.620E-02    0   0.9220   age061_m42            0.0000     7.9106E-01     7.0125   1.0614    97.2722
  5      0.5467     2.0294E-02    3.0687E-02    1.000000E+07  0.00400  1.322E-02    0   0.8862   age070_m42            0.0000     7.6610E-01     6.7191   0.7884    98.8586
  6      0.0000     0.0000E+00    0.0000E+00    1.445000E+07  0.00400  7.883E-03    0   0.8571   age078_m42            0.0000     8.2877E-01     6.9633   1.1267    95.8558
  7      3.3812     3.1600E-01    4.4072E-01    2.512000E+07  0.00400  5.251E-03    0   0.8174   age090_m42            0.0000     7.5993E-01     6.6846   0.6572    99.4633
  8     12.6265     1.6981E+00    2.2748E+00    4.000000E+07  0.00400  3.649E-03    0   0.7851   age104_m42            0.0000     7.2587E-01     6.5592   0.4211   100.7096
  9      3.7848     5.9955E-01    7.8044E-01    5.500000E+07  0.00400  3.098E-03    0   0.7629   age110_m42            0.0000     7.2121E-01     6.5931   0.5631   101.2944
 10      0.0000     0.0000E+00    0.0000E+00    1.015200E+08  0.00400  2.228E-03    0   0.7207   age116_m42            0.0000     7.4724E-01     6.6796   0.5750   101.9167
 11      0.0000     0.0000E+00    0.0000E+00    2.861200E+08  0.00400  1.093E-03    0   0.6648   age125_m42            0.0000     7.5589E-01     6.6151  -0.0015   105.3458
 12     18.4699     1.3740E+01    1.4922E+01    5.088000E+08  0.00400  6.597E-04    0   0.6365   age130_m42            0.0000     8.1695E-01     6.7670  -0.0224   106.8133
 13     20.0269     4.6098E+01    4.5605E+01    1.434000E+09  0.00400  2.132E-04    0   0.5798   age139_m42            0.0000     8.4043E-01     6.9172  -0.9938   108.9940
 14      3.8844     3.2337E+01    2.9668E+01    4.250000E+09  0.00400  5.895E-05    0   0.5377   age158_m42            0.0000     1.6838E+00     9.5640  -1.0000    88.6695
 15      0.0000     0.0000E+00    0.0000E+00    7.500000E+09  0.00400  3.510E-05    0   0.5212   age171_m42            0.0000     2.5151E+00    11.7037  -1.0000    81.4409
 16      0.0000     0.0000E+00    0.0000E+00    1.300000E+10  0.00400  2.005E-05    0   0.5034   age193_m42            0.0000     3.4207E+00    13.7383  -1.0000    75.3902
 17      0.0000     0.0000E+00    0.0000E+00    1.800000E+10  0.00400  1.525E-05    0   0.4967   age213_m42            0.0000     3.5216E+00    14.0214  -1.0000    74.2881
 18      0.0000     0.0000E+00    0.0000E+00    1.000000E+06  0.00800  1.238E-02    0   1.0000   age020_m52            0.0000     1.1146E+00     8.0645   1.9084    88.8523
 19      0.0000     0.0000E+00    0.0000E+00    3.160000E+06  0.00800  3.074E-02    0   0.9966   age045_m52            0.0000     1.0816E+00     7.9734   1.8276    89.8211
 20      0.0000     0.0000E+00    0.0000E+00    5.010000E+06  0.00800  2.668E-02    0   0.9443   age055_m52            0.0000     9.3538E-01     7.4988   1.5662    92.5831
 21     30.3571     6.9746E-01    1.0921E+00    6.610000E+06  0.00800  2.136E-02    0   0.9177   age061_m52            0.0000     7.9239E-01     6.7526   0.2986    99.5375
 22      0.0000     0.0000E+00    0.0000E+00    1.000000E+07  0.00800  1.215E-02    0   0.8827   age070_m52            0.0000     8.2086E-01     6.8630   0.9775    98.1616
 23      0.0000     0.0000E+00    0.0000E+00    1.445000E+07  0.00800  8.717E-03    0   0.8552   age078_m52            0.0000     8.0726E-01     6.8660   1.0894    97.3153
 24      2.8320     2.4854E-01    3.4613E-01    2.512000E+07  0.00800  5.592E-03    0   0.8162   age090_m52            0.0000     7.5698E-01     6.6589   0.7198   100.7097
 25      0.0000     0.0000E+00    0.0000E+00    4.000000E+07  0.00800  3.896E-03    0   0.7841   age104_m52            0.0000     7.2852E-01     6.5760   0.6216   102.0020
 26      0.0000     0.0000E+00    0.0000E+00    1.015200E+08  0.00800  2.148E-03    0   0.7226   age116_m52            0.0000     7.2437E-01     6.5931   0.5479   102.4606
 27      8.5712     4.2381E+00    4.8327E+00    2.861200E+08  0.00800  9.925E-04    0   0.6683   age125_m52            0.0000     8.2474E-01     6.7610   0.0419   107.8115
 28      0.0000     0.0000E+00    0.0000E+00    9.047900E+08  0.00800  3.141E-04    0   0.6138   age135_m52            0.0000     9.9811E-01     7.3644  -0.7627   112.6891
 29      0.0000     0.0000E+00    0.0000E+00    1.434000E+09  0.00800  1.719E-04    0   0.5853   age139_m52            0.0000     1.4169E+00     8.7415  -1.0000    96.9419
 30      0.0000     0.0000E+00    0.0000E+00    2.500000E+09  0.00800  7.872E-05    0   0.5600   age150_m52            0.0000     2.5102E+00    11.6261  -1.0000    84.4794
 31      0.0000     0.0000E+00    0.0000E+00    4.250000E+09  0.00800  4.336E-05    0   0.5426   age158_m52            0.0000     2.5939E+00    11.7691  -1.0000    83.1273
 32      0.0000     0.0000E+00    0.0000E+00    6.250000E+09  0.00800  3.159E-05    0   0.5319   age166_m52            0.0000     3.7535E+00    14.2269  -1.0000    76.1354
 33      0.0000     0.0000E+00    0.0000E+00    1.300000E+10  0.00800  1.361E-05    0   0.5073   age193_m52            0.0000     6.9246E+00    19.8695  -1.0000    60.8152
 34      0.0000     0.0000E+00    0.0000E+00    1.800000E+10  0.00800  9.886E-06    0   0.4990   age213_m52            0.0000     7.8166E+00    21.0078  -1.0000    57.4777
 35      0.0000     0.0000E+00    0.0000E+00    1.000000E+06  0.02000  1.544E-02    0   1.0000   age020_m62            0.0000     1.1266E+00     8.0979   1.9061    88.9927
 36      0.0000     0.0000E+00    0.0000E+00    3.160000E+06  0.02000  3.762E-02    0   0.9858   age045_m62            0.0000     1.1073E+00     8.0476   1.8417    89.9182
 37      0.0000     0.0000E+00    0.0000E+00    5.010000E+06  0.02000  3.296E-02    0   0.9342   age055_m62            0.0000     8.5886E-01     7.2960   1.4259    95.3715
 38      0.0000     9.0351E-07    1.3660E-06    8.710000E+06  0.02000  1.154E-02    0   0.8861   age067_m62            0.0000     1.2974E+00     8.4760   0.4607    99.1693
 39      0.0000     0.0000E+00    0.0000E+00    1.445000E+07  0.02000  7.663E-03    0   0.8472   age078_m62            0.0000     8.9332E-01     7.0466   0.6317   100.0134
 40      0.0000     0.0000E+00    0.0000E+00    2.512000E+07  0.02000  4.532E-03    0   0.8099   age090_m62            0.0000     8.9311E-01     7.1056   0.6190    99.9666
 41      0.0000     0.0000E+00    0.0000E+00    5.500000E+07  0.02000  2.733E-03    0   0.7595   age110_m62            0.0000     7.3410E-01     6.5974   0.6078   101.1207
 42      0.0000     0.0000E+00    0.0000E+00    1.609000E+08  0.02000  1.369E-03    0   0.6985   age120_m62            0.0000     7.8003E-01     6.6645   0.4169   105.3855
 43      0.0127     6.9257E-03    7.9340E-03    2.861200E+08  0.02000  9.013E-04    0   0.6714   age125_m62            0.0000     9.0135E-01     6.9010   0.1501   109.2569
 44      0.0000     0.0000E+00    0.0000E+00    5.088000E+08  0.02000  5.028E-04    0   0.6449   age130_m62            0.0000     1.0648E+00     7.5002  -0.2374   112.7268
 45      0.0000     0.0000E+00    0.0000E+00    9.047900E+08  0.02000  2.428E-04    0   0.6179   age135_m62            0.0000     1.0685E+00     7.6385  -0.8120   111.5270
 46      0.0000     0.0000E+00    0.0000E+00    1.434000E+09  0.02000  1.263E-04    0   0.5908   age139_m62            0.0000     1.3908E+00     8.5049  -1.0000    99.8331
 47      0.0000     0.0000E+00    0.0000E+00    2.500000E+09  0.02000  5.985E-05    0   0.5673   age150_m62            0.0000     2.7548E+00    11.9884  -1.0000    84.8474
 48      0.0000     0.0000E+00    0.0000E+00    4.250000E+09  0.02000  3.271E-05    0   0.5468   age158_m62            0.0000     4.5602E+00    15.5693  -1.0000    73.5858
 49      0.0000     0.0000E+00    0.0000E+00    1.000000E+10  0.02000  1.360E-05    0   0.5167   age181_m62            0.0000     7.0758E+00    19.5925  -1.0000    62.2980
 50      0.0000     0.0000E+00    0.0000E+00    1.800000E+10  0.02000  7.124E-06    0   0.5013   age213_m62            0.0000     8.7268E+00    21.8163  -1.0000    55.8600
 51      0.0000     0.0000E+00    0.0000E+00    1.000000E+06  0.05000  2.592E-02    0   0.9998   age020_m72            0.0000     1.1759E+00     8.2133   1.9033    88.7720
 52      0.0000     0.0000E+00    0.0000E+00    3.160000E+06  0.05000  4.845E-02    0   0.9577   age045_m72            0.0000     9.9891E-01     7.7634   1.7082    91.8227
 53      0.0000     0.0000E+00    0.0000E+00    5.010000E+06  0.05000  3.072E-02    0   0.9147   age055_m72            0.0000     9.4444E-01     7.2826   1.2291    95.8239
 54      0.0000     0.0000E+00    0.0000E+00    6.610000E+06  0.05000  1.455E-02    0   0.8877   age061_m72            0.0000     1.8321E+00    10.4096   0.5216    99.4737
 55      0.0000     0.0000E+00    0.0000E+00    1.000000E+07  0.05000  9.074E-03    0   0.8524   age070_m72            0.0000     1.0209E+00     7.6377   1.4169    95.5183
 56      0.0000     2.3797E-06    3.2085E-06    2.512000E+07  0.05000  4.250E-03    0   0.7902   age090_m72            0.0000     8.5944E-01     7.1026   1.0894    98.4213
 57      0.0000     0.0000E+00    0.0000E+00    4.000000E+07  0.05000  3.087E-03    0   0.7618   age104_m72            0.0000     8.4360E-01     7.0571   0.8528   100.4722
 58      0.0000     0.0000E+00    0.0000E+00    1.015200E+08  0.05000  1.700E-03    0   0.7096   age116_m72            0.0000     7.7601E-01     6.6813   0.5654   104.6404
 59      0.0000     0.0000E+00    0.0000E+00    2.861200E+08  0.05000  7.384E-04    0   0.6633   age125_m72            0.0000     1.0005E+00     7.2399   0.0118   111.0847
 60      0.0000     0.0000E+00    0.0000E+00    5.088000E+08  0.05000  3.819E-04    0   0.6372   age130_m72            0.0000     1.0740E+00     7.6643  -0.4810   112.9521
 61      0.0000     0.0000E+00    0.0000E+00    9.047900E+08  0.05000  1.676E-04    0   0.6110   age135_m72            0.0000     1.4304E+00     8.7019  -1.0000   103.9267
 62      0.0000     0.0000E+00    0.0000E+00    1.434000E+09  0.05000  8.837E-05    0   0.5874   age139_m72            0.0000     2.8518E+00    12.1682  -1.0000    86.0706
 63      0.0000     0.0000E+00    0.0000E+00    2.500000E+09  0.05000  4.233E-05    0   0.5598   age150_m72            0.0000     4.6692E+00    15.6598  -1.0000    74.2156
 64      0.0000     0.0000E+00    0.0000E+00    6.250000E+09  0.05000  1.435E-05    0   0.5249   age166_m72            0.0000     7.7802E+00    20.6886  -1.0000    59.2411
 65      0.0000     0.0000E+00    0.0000E+00    1.300000E+10  0.05000  6.513E-06    0   0.5036   age193_m72            0.0000     1.0007E+01    23.5537  -1.0000    52.1440
 66      0.0000     0.0000E+00    0.0000E+00    1.800000E+10  0.05000  4.527E-06    0   0.4945   age213_m72            0.0000     1.1296E+01    25.1043  -1.0000    48.0278


## Synthesis Results - Average & Chains ##

# j      x_j: min, <> & last-chain-values for 1 ...  7 chains
  1      0.0000      0.2408      0.0000      0.0000      1.1843      0.0000      0.0000      0.0000      0.0000
  2      0.0000      0.2117      0.4671      0.7323      0.0000      0.0000      0.0000      0.0000      0.6553
  3      0.0000      0.4313      0.0000      0.0000      0.0000      0.3486      0.0000      0.0000      0.0000
  4      0.0000      0.3137      0.8715      0.0000      0.0000      0.0000      0.0000      0.8867      0.0000
  5      0.5467      0.9092      0.4789      0.0000      1.0510      1.9673      2.1987      2.5577      0.0000
  6      0.0000      0.5981      0.0503      0.0000      0.0000      0.0000      2.6183      0.0000      0.0000
  7      3.3812      1.5032      5.7923      1.9589      1.6618      0.6197      0.0000      1.8857      0.0000
  8     12.6265      4.1483      2.0250      7.9058      8.8004      3.5495      1.9065      9.5750      0.6785
  9      3.7848      2.6674      0.0000      0.0000      5.3591      3.4405      4.7410      5.4101      8.3750
 10      0.0000      1.0713      5.5864      0.0000      0.0000      0.5051      0.0000      0.0000      0.0000
 11      0.0000      3.4927      6.7662      0.0000      1.1713      0.0000      0.0000      0.0000      0.0000
 12     18.4699     14.2868     11.3236     12.5800     20.8395     14.4260     23.4021     18.5642     13.2027
 13     20.0269      0.4508      1.4869      0.1904      1.7472      0.4220      0.0240      0.7440      1.4673
 14      3.8844      1.3523      2.7668      1.6046      3.0313      1.4339      3.6528      1.3576      0.0773
 15      0.0000      0.0452      0.0000      0.0000      0.0000      0.0000      0.2294      0.0000      0.0000
 16      0.0000      0.1315      0.1676      0.0000      0.0000      0.5792      0.0000      0.6069      0.0000
 17      0.0000      0.2451      1.0899      0.0000      0.3669      0.0000      0.0000      0.0000      0.0000
 18      0.0000      0.3347      0.5085      0.0000      0.0000      0.0000      0.0000      0.5587      0.0000
 19      0.0000      0.2564      0.0000      0.1454      0.0000      0.2051      0.8624      0.0000      0.0252
 20      0.0000      0.2717      0.0000      0.0000      0.0000      0.0000      0.0000      0.1310      0.0000
 21     30.3571     26.3214     29.1740     27.0270     25.0773     35.7998     28.5197     27.4126     34.9128
 22      0.0000      0.4325      0.0000      0.0000      0.0000      1.5792      0.0000      0.0000      1.1752
 23      0.0000      0.6700      2.3864      0.7377      0.0000      0.0000      0.0000      1.0367      0.0000
 24      2.8320      1.0847      0.0000      3.2412      5.8808      0.0000      0.8884      3.9785      0.0000
 25      0.0000      1.4341      2.9481      2.6264      0.2219      0.0000      7.7663      0.0000      5.9470
 26      0.0000      0.9819      0.0000      0.4707      0.0000      0.0000      0.0000      0.0000      2.0306
 27      8.5712     12.4817     14.0925     14.3607      7.8741     17.7889     15.9823     15.9252     17.7937
 28      0.0000      1.5890      0.0000      0.0000      0.0000      2.8234      1.2386      1.1528      0.0000
 29      0.0000      0.2768      0.6443      1.4222      0.3695      0.0000      0.0000      0.0000      1.0669
 30      0.0000      0.1003      0.6950      0.0000      0.0000      0.0000      0.0000      0.0000      0.5991
 31      0.0000      0.0808      0.1295      0.0000      0.4334      0.0000      0.0826      0.4186      0.0000
 32      0.0000      0.0537      0.0000      0.0000      0.0000      0.0000      0.8065      0.0000      0.0000
 33      0.0000      0.0386      0.0000      0.3733      0.0000      0.0000      0.0000      0.0000      0.0000
 34      0.0000      0.0210      0.0000      0.0000      0.0000      0.0000      0.0000      0.2769      0.0000
 35      0.0000      0.1423      0.0000      0.0000      0.0000      0.0000      0.0000      0.0549      0.0000
 36      0.0000      0.3499      0.0000      0.0000      0.0000      0.0000      2.8614      0.0000      0.0000
 37      0.0000      0.4363      0.0000      0.0000      0.1644      0.0000      0.0000      0.0000      0.0000
 38      0.0000      2.2479      0.6348      3.5237      1.9700      3.8857      0.0000      0.0000      5.0712
 39      0.0000      2.1182      0.0000      1.9940      0.7067      0.0000      0.0000      0.6539      0.0000
 40      0.0000      1.0491      3.2578      0.3307      1.3704      0.0000      0.0000      0.0000      0.0000
 41      0.0000      1.0456      1.5157      1.3218      0.0000      1.7362      0.0775      0.0000      1.0824
 42      0.0000      1.1249      2.6050      0.0000      0.9019      3.1842      0.0000      0.0000      0.0000
 43      0.0127      2.4363      0.0000      7.3431      3.7893      3.7451      2.7655      1.7155      1.1977
 44      0.0000      5.7908      5.4855      4.2397      6.8699      5.7379      0.0000      5.3766      6.0701
 45      0.0000      1.3678      0.0861      5.4601      0.7535      0.5565      0.0000      0.0000      0.0000
 46      0.0000      0.4044      0.0000      0.0000      0.8169      0.0000      0.0000      0.4026      0.0000
