###################################################################
## OUTPUT of StarlightChains_v04.for    [Cid@UFSC - 01/Apr/2007] ##
###################################################################

## Some input info
2011bh.txt                               [arq_obs]
Base.CB07.vall.4m                        [arq_base]
Masks.EmLines.NEW.gm                     [arq_masks]
StCv04.C11.config                        [arq_config]
   66                                    [N_base]
    0                                    [N_YAV_components = # of components with extra extinction!]
    0                                    [i_FitPowerLaw (1/0 = Yes/No)]
-9.99                                    [alpha_PowerLaw]
CCM                                      [red_law_option]
 1.458241                                [q_norm = A(l_norm)/A(V)]

## (Re)Sampling Parameters
 3741.00                                 [l_ini (A)]
 7218.00                                 [l_fin (A)]
    1.00                                 [dl    (A)]     (OBS: dl_cushion =    50.00 A)

## Normalization info
 4020.00                                 [l_norm (A) - for base]
 4010.00                                 [llow_norm (A) - window for f_obs]
 4060.00                                 [lupp_norm (A) - window for f_obs]
2.425500E-17                             [fobs_norm (in input units)]

## S/N
 3691.00                                 [llow_SN (A) - window for S/N]
 7268.00                                 [lupp_SN (A) - window for S/N]
   4.111                                 [S/N in S/N window]
   3.008                                 [S/N in norm. window]
   3.823                                 [S/N_err in S/N window]
   2.797                                 [S/N_err in norm. window]
  1.0000                                 [fscale_chi2]

## etc...
    -2007370                             [idum_orig]
  2360                                   [NOl_eff]
  2281                                   [Nl_eff]
    79    NSIGMA                         [Ntot_cliped & clip_method]
   449610                                [Nglobal_steps]
   7                                     [N_chains]
   9                                     [NEX0s_base = N_base in EX0s-fits]
 0   0   1       24   2.0   1.405E+01    [Clip-Bug, RC-Crash & Burn-In warning-flags, n_censored_weights, wei_nsig_threshold & wei_limit]
    12     11.341     10.741      0.601  [idt_all, wdt_TotTime, wdt_UsrTime & wdt_SysTime (sec)]

## Synthesis Results - Best model ##

 4.53399E-01                             [chi2/Nl_eff]
    22.77024                             [adev (%)]

   130.00000                             [sum-of-x (%)]
 1.68192E-17                             [Flux_tot (units of input spectrum!)]
 8.70534E-13                             [Mini_tot (???)]
 4.42562E-13                             [Mcor_tot (???)]

 -82.59                                  [v0_min  (km/s)]
 115.57                                  [vd_min  (km/s)]
-0.4679                                  [AV_min  (mag)]
 0.0000                                  [YAV_min (mag)]

# j     x_j(%)      Mini_j(%)     Mcor_j(%)     age_j(yr)     Z_j      (L/M)_j    YAV?  Mstars   component_j        a/Fe...       SSP_chi2r SSP_adev(%)   SSP_AV   SSP_x(%)
  1      0.0000     0.0000E+00    0.0000E+00    1.000000E+06  0.00400  1.094E-02    0   1.0000   age020_m42            0.0000     5.5417E-01    25.3254   3.1438   117.7310
  2      0.0000     0.0000E+00    0.0000E+00    3.160000E+06  0.00400  4.007E-02    0   0.9999   age045_m42            0.0000     5.2034E-01    26.2889   2.3231   132.2587
  3      0.0000     0.0000E+00    0.0000E+00    5.010000E+06  0.00400  2.539E-02    0   0.9488   age055_m42            0.0000     5.3733E-01    25.9568   2.6858   126.0624
  4      0.0000     0.0000E+00    0.0000E+00    6.610000E+06  0.00400  2.620E-02    0   0.9220   age061_m42            0.0000     5.2493E-01    26.5708   2.2350   133.3907
  5      0.0000     0.0000E+00    0.0000E+00    1.000000E+07  0.00400  1.322E-02    0   0.8862   age070_m42            0.0000     6.1033E-01    27.7364   1.9194   137.3929
  6      0.0000     0.0000E+00    0.0000E+00    1.445000E+07  0.00400  7.883E-03    0   0.8571   age078_m42            0.0000     6.1364E-01    27.2231   2.2802   131.6729
  7      0.0000     0.0000E+00    0.0000E+00    2.512000E+07  0.00400  5.251E-03    0   0.8174   age090_m42            0.0000     6.2744E-01    28.0605   1.7754   138.9426
  8      0.0000     0.0000E+00    0.0000E+00    4.000000E+07  0.00400  3.649E-03    0   0.7851   age104_m42            0.0000     6.0888E-01    28.0402   1.5338   141.3006
  9      0.0000     0.0000E+00    0.0000E+00    5.500000E+07  0.00400  3.098E-03    0   0.7629   age110_m42            0.0000     5.5767E-01    27.8141   1.6763   142.7261
 10      0.0000     0.0000E+00    0.0000E+00    1.015200E+08  0.00400  2.228E-03    0   0.7207   age116_m42            0.0000     5.2901E-01    27.8081   1.6836   144.3463
 11      0.0000     0.0000E+00    0.0000E+00    2.861200E+08  0.00400  1.093E-03    0   0.6648   age125_m42            0.0000     5.6505E-01    28.8136   1.0597   152.4134
 12      0.0000     0.0000E+00    0.0000E+00    5.088000E+08  0.00400  6.597E-04    0   0.6365   age130_m42            0.0000     5.1903E-01    28.4346   1.0442   154.8317
 13      0.0000     0.0000E+00    0.0000E+00    1.434000E+09  0.00400  2.132E-04    0   0.5798   age139_m42            0.0000     4.8536E-01    27.3279   0.0885   156.9873
 14      0.0000     0.0000E+00    0.0000E+00    4.250000E+09  0.00400  5.895E-05    0   0.5377   age158_m42            0.0000     4.5465E-01    25.1329  -0.2523   144.1349
 15      0.0000     0.0000E+00    0.0000E+00    7.500000E+09  0.00400  3.510E-05    0   0.5212   age171_m42            0.0000     4.4469E-01    24.6179  -0.4245   142.3511
 16      0.0000     0.0000E+00    0.0000E+00    1.300000E+10  0.00400  2.005E-05    0   0.5034   age193_m42            0.0000     4.3848E-01    24.1883  -0.5781   141.0382
 17     78.6885     7.6686E+01    7.4924E+01    1.800000E+10  0.00400  1.525E-05    0   0.4967   age213_m42            0.0000     4.4201E-01    24.1984  -0.5972   140.0346
 18      0.0000     0.0000E+00    0.0000E+00    1.000000E+06  0.00800  1.238E-02    0   1.0000   age020_m52            0.0000     5.5402E-01    25.3065   3.1420   117.8553
 19      0.0000     0.0000E+00    0.0000E+00    3.160000E+06  0.00800  3.074E-02    0   0.9966   age045_m52            0.0000     5.5131E-01    25.3157   3.0663   118.8761
 20      0.0000     0.0000E+00    0.0000E+00    5.010000E+06  0.00800  2.668E-02    0   0.9443   age055_m52            0.0000     5.4587E-01    25.7935   2.7827   123.9517
 21      0.0000     0.0000E+00    0.0000E+00    6.610000E+06  0.00800  2.136E-02    0   0.9177   age061_m52            0.0000     6.0539E-01    26.8675   1.4575   136.3638
 22      0.0000     0.0000E+00    0.0000E+00    1.000000E+07  0.00800  1.215E-02    0   0.8827   age070_m52            0.0000     6.5455E-01    27.8563   2.1057   136.1695
 23      0.0000     0.0000E+00    0.0000E+00    1.445000E+07  0.00800  8.717E-03    0   0.8552   age078_m52            0.0000     6.1292E-01    27.3391   2.2350   134.1871
 24      0.0000     0.0000E+00    0.0000E+00    2.512000E+07  0.00800  5.592E-03    0   0.8162   age090_m52            0.0000     6.3544E-01    28.1983   1.8285   141.2672
 25      0.0000     0.0000E+00    0.0000E+00    4.000000E+07  0.00800  3.896E-03    0   0.7841   age104_m52            0.0000     6.0741E-01    28.2238   1.7206   144.1573
 26      0.0000     0.0000E+00    0.0000E+00    1.015200E+08  0.00800  2.148E-03    0   0.7226   age116_m52            0.0000     5.5459E-01    27.9794   1.6489   145.3393
 27      0.0000     0.0000E+00    0.0000E+00    2.861200E+08  0.00800  9.925E-04    0   0.6683   age125_m52            0.0000     5.1958E-01    28.5515   1.0984   157.0718
 28      0.0000     0.0000E+00    0.0000E+00    9.047900E+08  0.00800  3.141E-04    0   0.6138   age135_m52            0.0000     4.7980E-01    27.2674   0.3058   163.9728
 29      0.0000     0.0000E+00    0.0000E+00    1.434000E+09  0.00800  1.719E-04    0   0.5853   age139_m52            0.0000     4.7368E-01    26.4099  -0.2318   157.1918
 30      0.0000     0.0000E+00    0.0000E+00    2.500000E+09  0.00800  7.872E-05    0   0.5600   age150_m52            0.0000     4.3516E-01    25.0351  -0.4435   149.5181
 31      0.0000     0.0000E+00    0.0000E+00    4.250000E+09  0.00800  4.336E-05    0   0.5426   age158_m52            0.0000     4.3489E-01    24.7726  -0.4435   147.0046
 32      0.0000     0.0000E+00    0.0000E+00    6.250000E+09  0.00800  3.159E-05    0   0.5319   age166_m52            0.0000     4.2410E-01    24.3676  -0.6436   147.3521
 33      0.0000     0.0000E+00    0.0000E+00    1.300000E+10  0.00800  1.361E-05    0   0.5073   age193_m52            0.0000     4.3079E-01    23.0420  -1.0000   139.0750
 34      0.0000     0.0000E+00    0.0000E+00    1.800000E+10  0.00800  9.886E-06    0   0.4990   age213_m52            0.0000     4.5682E-01    22.1179  -1.0000   131.5954
 35      0.0000     0.0000E+00    0.0000E+00    1.000000E+06  0.02000  1.544E-02    0   1.0000   age020_m62            0.0000     5.5695E-01    25.2811   3.1427   117.8402
 36      0.0000     0.0000E+00    0.0000E+00    3.160000E+06  0.02000  3.762E-02    0   0.9858   age045_m62            0.0000     5.5712E-01    25.2393   3.0894   118.4157
 37      0.0000     0.0000E+00    0.0000E+00    5.010000E+06  0.02000  3.296E-02    0   0.9342   age055_m62            0.0000     5.2015E-01    26.0146   2.6297   128.8428
 38      0.0000     0.0000E+00    0.0000E+00    8.710000E+06  0.02000  1.154E-02    0   0.8861   age067_m62            0.0000     9.9101E-01    30.3513   1.5456   138.0804
 39      0.0000     0.0000E+00    0.0000E+00    1.445000E+07  0.02000  7.663E-03    0   0.8472   age078_m62            0.0000     7.5205E-01    28.6422   1.7370   139.5137
 40      0.0000     0.0000E+00    0.0000E+00    2.512000E+07  0.02000  4.532E-03    0   0.8099   age090_m62            0.0000     7.6850E-01    29.1213   1.7096   140.4187
 41      0.0000     0.0000E+00    0.0000E+00    5.500000E+07  0.02000  2.733E-03    0   0.7595   age110_m62            0.0000     6.0958E-01    28.1401   1.7142   142.3012
 42      0.0000     0.0000E+00    0.0000E+00    1.609000E+08  0.02000  1.369E-03    0   0.6985   age120_m62            0.0000     5.3815E-01    28.4668   1.4945   151.5653
 43      0.0000     0.0000E+00    0.0000E+00    2.861200E+08  0.02000  9.013E-04    0   0.6714   age125_m62            0.0000     5.1076E-01    28.7624   1.1989   160.0307
 44      0.0000     0.0000E+00    0.0000E+00    5.088000E+08  0.02000  5.028E-04    0   0.6449   age130_m62            0.0000     4.7419E-01    27.8463   0.8221   165.1717
 45      0.0000     0.0000E+00    0.0000E+00    9.047900E+08  0.02000  2.428E-04    0   0.6179   age135_m62            0.0000     4.4616E-01    26.2419   0.2915   159.9714
 46      0.0000     0.0000E+00    0.0000E+00    1.434000E+09  0.02000  1.263E-04    0   0.5908   age139_m62            0.0000     4.3511E-01    25.3655  -0.1146   154.7867
 47      0.0000     0.0000E+00    0.0000E+00    2.500000E+09  0.02000  5.985E-05    0   0.5673   age150_m62            0.0000     4.1970E-01    24.4875  -0.4458   150.6913
 48     51.3115     2.3314E+01    2.5076E+01    4.250000E+09  0.02000  3.271E-05    0   0.5468   age158_m62            0.0000     4.1635E-01    23.8791  -0.7376   149.1559
 49      0.0000     0.0000E+00    0.0000E+00    1.000000E+10  0.02000  1.360E-05    0   0.5167   age181_m62            0.0000     4.3915E-01    22.7176  -1.0000   143.1638
 50      0.0000     0.0000E+00    0.0000E+00    1.800000E+10  0.02000  7.124E-06    0   0.5013   age213_m62            0.0000     5.1364E-01    21.2789  -1.0000   128.3945
 51      0.0000     0.0000E+00    0.0000E+00    1.000000E+06  0.05000  2.592E-02    0   0.9998   age020_m72            0.0000     5.6767E-01    25.2619   3.1438   117.2375
 52      0.0000     0.0000E+00    0.0000E+00    3.160000E+06  0.05000  4.845E-02    0   0.9577   age045_m72            0.0000     5.3834E-01    25.4504   2.9457   121.7815
 53      0.0000     0.0000E+00    0.0000E+00    5.010000E+06  0.05000  3.072E-02    0   0.9147   age055_m72            0.0000     6.9972E-01    27.4710   2.3725   131.6740
 54      0.0000     0.0000E+00    0.0000E+00    6.610000E+06  0.05000  1.455E-02    0   0.8877   age061_m72            0.0000     1.3846E+00    32.7925   1.5557   140.6815
 55      0.0000     0.0000E+00    0.0000E+00    1.000000E+07  0.05000  9.074E-03    0   0.8524   age070_m72            0.0000     7.8816E-01    28.0577   2.5351   132.7381
 56      0.0000     0.0000E+00    0.0000E+00    2.512000E+07  0.05000  4.250E-03    0   0.7902   age090_m72            0.0000     7.1134E-01    28.5431   2.1870   138.5664
 57      0.0000     0.0000E+00    0.0000E+00    4.000000E+07  0.05000  3.087E-03    0   0.7618   age104_m72            0.0000     7.1976E-01    29.2062   1.9253   143.1579
 58      0.0000     0.0000E+00    0.0000E+00    1.015200E+08  0.05000  1.700E-03    0   0.7096   age116_m72            0.0000     5.7616E-01    28.9293   1.6306   150.9730
 59      0.0000     0.0000E+00    0.0000E+00    2.861200E+08  0.05000  7.384E-04    0   0.6633   age125_m72            0.0000     4.8737E-01    28.3141   1.0574   163.4971
 60      0.0000     0.0000E+00    0.0000E+00    5.088000E+08  0.05000  3.819E-04    0   0.6372   age130_m72            0.0000     4.4762E-01    26.8149   0.6075   163.3811
 61      0.0000     0.0000E+00    0.0000E+00    9.047900E+08  0.05000  1.676E-04    0   0.6110   age135_m72            0.0000     4.1719E-01    24.7446  -0.0073   155.0318
 62      0.0000     0.0000E+00    0.0000E+00    1.434000E+09  0.05000  8.837E-05    0   0.5874   age139_m72            0.0000     4.2044E-01    24.3919  -0.4566   153.7831
 63      0.0000     0.0000E+00    0.0000E+00    2.500000E+09  0.05000  4.233E-05    0   0.5598   age150_m72            0.0000     4.2056E-01    23.8334  -0.7424   151.0010
 64      0.0000     0.0000E+00    0.0000E+00    6.250000E+09  0.05000  1.435E-05    0   0.5249   age166_m72            0.0000     4.6815E-01    22.0363  -1.0000   136.0436
 65      0.0000     0.0000E+00    0.0000E+00    1.300000E+10  0.05000  6.513E-06    0   0.5036   age193_m72            0.0000     6.0847E-01    20.8393  -1.0000   119.7619
 66      0.0000     0.0000E+00    0.0000E+00    1.800000E+10  0.05000  4.527E-06    0   0.4945   age213_m72            0.0000     7.1630E-01    20.6813  -1.0000   110.3365


## Synthesis Results - Average & Chains ##

# j      x_j: min, <> & last-chain-values for 1 ...  7 chains
  1      0.0000      0.0580      0.0000      0.3235      0.0000      0.0000      0.5916      0.0000      0.0000
  2      0.0000      0.1195      0.0000      0.0000      0.0000      0.0000      0.0000      0.0000      0.0000
  3      0.0000      0.0887      0.0000      0.3186      0.0000      0.0000      1.8120      0.0000      0.0000
  4      0.0000      0.1318      0.0000      0.0000      0.0000      0.0000      0.0229      1.3706      0.0000
  5      0.0000      0.1230      0.0000      0.0000      0.0000      0.0000      0.0000      0.0000      0.0000
  6      0.0000      0.1010      0.0000      0.0000      0.0000      0.0000      0.0000      0.0000      0.0000
  7      0.0000      0.0608      0.0000      0.1354      0.0000      0.0000      0.0000      0.0000      0.0000
  8      0.0000      0.0750      0.0000      0.0000      0.0000      0.0000      0.0000      0.0000      0.0000
  9      0.0000      0.4324      0.0000      0.1825      0.0000      0.0000      0.0000      1.0851      0.0000
 10      0.0000      0.1197      0.0000      0.0000      1.1402      0.0000      0.0000      0.0000      0.0000
 11      0.0000      0.2835      0.0000      0.0000      0.0000      0.0000      0.0000      0.0000      0.0000
 12      0.0000      0.2251      1.8231      0.0000      0.0000      0.0000      0.0000      0.0000      0.0000
 13      0.0000      0.5556      0.0000      2.2785      0.0000      0.0000      2.2362      0.0000      0.0000
 14      0.0000     23.0297     25.9953     41.0674     27.7585     26.0740     23.3913     36.5356     31.8729
 15      0.0000      9.8354     14.8401      6.9346     16.7234     18.5932     10.0253     14.5879      5.5172
 16      0.0000      5.3830      8.2164      5.2801      5.5335      0.3594      0.0000      4.9270      9.5663
 17     78.6885      1.2325      3.5833      2.1854      0.0000      0.0000      1.6046      0.3008      4.0059
 18      0.0000      0.3547      0.0000      0.0000      0.8175      0.1261      0.0000      0.0000      0.0000
 19      0.0000      0.2268      0.0000      0.0000      0.0000      0.0000      0.5453      0.0000      0.0000
 20      0.0000      0.1084      0.0000      0.0000      0.0000      0.0000      0.0826      0.0000      0.0000
 21      0.0000      0.2804      0.0000      0.0000      0.5000      3.5042      0.0000      0.0000      0.0000
 22      0.0000      0.1487      0.0000      0.0000      0.0000      0.0000      0.0000      0.0000      1.3253
 23      0.0000      0.0808      0.0000      0.0000      0.0000      0.0000      0.0000      0.0000      0.0000
 24      0.0000      0.1037      0.0000      0.0000      0.0000      0.0000      0.1265      0.0000      0.0000
 25      0.0000      0.2685      0.0000      0.0000      0.0000      0.0000      0.0000      0.0000      0.1962
 26      0.0000      0.0995      0.0515      0.0000      0.0000      0.0000      0.0000      0.0000      0.0000
 27      0.0000      0.1609      0.0000      0.0000      0.0000      0.0000      0.0000      0.0000      0.0000
 28      0.0000      0.3137      0.0000      0.0963      0.0000      0.0000      0.0000      0.0000      0.0000
 29      0.0000      0.3636      0.0000      0.4883      0.0000      0.0000      0.0000      0.0000      0.0752
 30      0.0000      2.4164      0.0000      1.0686      0.0000      0.0000      0.0000      0.0000      0.0000
 31      0.0000      4.4366      0.0000      7.0450      3.7753      0.0000      4.8749      2.6532      0.0239
 32      0.0000      1.5574      0.3477      0.0000      0.9363      2.0731      1.4331      0.0000      2.9339
 33      0.0000      0.1047      0.7825      0.0000      0.2335      0.0000      0.0000      0.0000      0.0000
 34      0.0000      0.2004      0.0000      1.6755      0.0000      0.0000      0.0000      0.0000      0.0000
 35      0.0000      0.1641      0.0000      0.0000      0.0000      0.0000      0.0000      0.0000      0.0000
 36      0.0000      0.1151      0.0000      0.0000      0.0000      0.0000      0.1571      0.0000      0.2457
 37      0.0000      0.0650      0.0000      0.0000      0.0000      0.0000      0.0000      0.0000      0.0000
 38      0.0000      0.0791      0.0000      0.0000      0.0387      1.5822      0.0000      0.0000      0.0000
 39      0.0000      0.0742      0.0000      0.0000      0.0000      0.0000      0.0000      0.0000      0.0000
 40      0.0000      0.0904      0.0000      0.0000      0.0000      0.0000      0.0000      0.0000      0.0000
 41      0.0000      0.1066      0.0000      0.0000      0.0000      0.0000      0.0000      0.0000      0.0000
 42      0.0000      0.1029      0.0000      0.0000      0.0000      0.0000      0.0000      0.0000      0.0000
 43      0.0000      0.1723      0.0000      0.0000      0.1465      0.0000      0.0000      0.0000      0.0000
 44      0.0000      0.5595      0.0000      0.0000      0.0000      0.0000      0.0000      0.0000      0.0000
 45      0.0000      1.4278      0.0000      0.0000      0.0000      0.0000      0.0000      1.8702      0.0000
 46      0.0000      2.4899      0.0000      2.5234      0.0000      0.0000      3.0460      1.3656      0.0000
