###################################################################
## OUTPUT of StarlightChains_v04.for    [Cid@UFSC - 01/Apr/2007] ##
###################################################################

## Some input info
2011cj.txt                               [arq_obs]
Base.CB07.vall.4m                        [arq_base]
Masks.EmLines.NEW.gm                     [arq_masks]
StCv04.C11.config                        [arq_config]
   66                                    [N_base]
    0                                    [N_YAV_components = # of components with extra extinction!]
    0                                    [i_FitPowerLaw (1/0 = Yes/No)]
-9.99                                    [alpha_PowerLaw]
CCM                                      [red_law_option]
 1.458241                                [q_norm = A(l_norm)/A(V)]

## (Re)Sampling Parameters
 3741.00                                 [l_ini (A)]
 7218.00                                 [l_fin (A)]
    1.00                                 [dl    (A)]     (OBS: dl_cushion =    50.00 A)

## Normalization info
 4020.00                                 [l_norm (A) - for base]
 4010.00                                 [llow_norm (A) - window for f_obs]
 4060.00                                 [lupp_norm (A) - window for f_obs]
6.862701E-16                             [fobs_norm (in input units)]

## S/N
 3691.00                                 [llow_SN (A) - window for S/N]
 7268.00                                 [lupp_SN (A) - window for S/N]
   4.962                                 [S/N in S/N window]
   6.969                                 [S/N in norm. window]
  14.019                                 [S/N_err in S/N window]
  19.691                                 [S/N_err in norm. window]
  1.0000                                 [fscale_chi2]

## etc...
    -2007372                             [idum_orig]
  2388                                   [NOl_eff]
  2386                                   [Nl_eff]
     2    NSIGMA                         [Ntot_cliped & clip_method]
  1503600                                [Nglobal_steps]
   7                                     [N_chains]
  21                                     [NEX0s_base = N_base in EX0s-fits]
 0   0   1        1   2.0   4.212E+01    [Clip-Bug, RC-Crash & Burn-In warning-flags, n_censored_weights, wei_nsig_threshold & wei_limit]
    14     13.806     13.298      0.508  [idt_all, wdt_TotTime, wdt_UsrTime & wdt_SysTime (sec)]

## Synthesis Results - Best model ##

 2.04443E-01                             [chi2/Nl_eff]
     2.32130                             [adev (%)]

   103.05757                             [sum-of-x (%)]
 1.13503E-15                             [Flux_tot (units of input spectrum!)]
 1.32985E-12                             [Mini_tot (???)]
 8.44724E-13                             [Mcor_tot (???)]

  -4.03                                  [v0_min  (km/s)]
 181.30                                  [vd_min  (km/s)]
 0.3522                                  [AV_min  (mag)]
 0.0000                                  [YAV_min (mag)]

# j     x_j(%)      Mini_j(%)     Mcor_j(%)     age_j(yr)     Z_j      (L/M)_j    YAV?  Mstars   component_j        a/Fe...       SSP_chi2r SSP_adev(%)   SSP_AV   SSP_x(%)
  1      0.0000     0.0000E+00    0.0000E+00    1.000000E+06  0.00400  1.094E-02    0   1.0000   age020_m42            0.0000     8.1390E-01     5.0387   2.2291    85.5586
  2      0.0000     0.0000E+00    0.0000E+00    3.160000E+06  0.00400  4.007E-02    0   0.9999   age045_m42            0.0000     5.2096E-01     3.8152   1.4708    93.0452
  3      0.0000     0.0000E+00    0.0000E+00    5.010000E+06  0.00400  2.539E-02    0   0.9488   age055_m42            0.0000     5.8314E-01     4.1555   1.7997    90.3136
  4      0.0000     0.0000E+00    0.0000E+00    6.610000E+06  0.00400  2.620E-02    0   0.9220   age061_m42            0.0000     4.6407E-01     3.5696   1.3881    93.7003
  5      2.2066     1.3824E-01    1.9286E-01    1.000000E+07  0.00400  1.322E-02    0   0.8862   age070_m42            0.0000     2.9120E-01     2.8054   1.0738    97.3456
  6      0.7608     7.9926E-02    1.0785E-01    1.445000E+07  0.00400  7.883E-03    0   0.8571   age078_m42            0.0000     3.6369E-01     3.1777   1.4141    94.2125
  7      2.7528     4.3416E-01    5.5870E-01    2.512000E+07  0.00400  5.251E-03    0   0.8174   age090_m42            0.0000     2.8151E-01     2.7430   0.9344    98.3673
  8      2.7118     6.1547E-01    7.6071E-01    4.000000E+07  0.00400  3.649E-03    0   0.7851   age104_m42            0.0000     2.5545E-01     2.6167   0.7052    99.2904
  9      0.0000     0.0000E+00    0.0000E+00    5.500000E+07  0.00400  3.098E-03    0   0.7629   age110_m42            0.0000     2.9939E-01     2.8114   0.8686    98.7992
 10      0.0000     0.0000E+00    0.0000E+00    1.015200E+08  0.00400  2.228E-03    0   0.7207   age116_m42            0.0000     3.7188E-01     3.1063   0.8934    98.7662
 11      0.0000     0.0000E+00    0.0000E+00    2.861200E+08  0.00400  1.093E-03    0   0.6648   age125_m42            0.0000     3.7024E-01     3.1569   0.3074   102.7883
 12      0.0000     0.0000E+00    0.0000E+00    5.088000E+08  0.00400  6.597E-04    0   0.6365   age130_m42            0.0000     4.8922E-01     3.5348   0.3091   103.0282
 13      0.0000     0.0000E+00    0.0000E+00    1.434000E+09  0.00400  2.132E-04    0   0.5798   age139_m42            0.0000     5.0532E-01     3.7104  -0.6568   104.8274
 14      0.0000     0.0000E+00    0.0000E+00    4.250000E+09  0.00400  5.895E-05    0   0.5377   age158_m42            0.0000     7.0220E-01     4.4438  -1.0000    96.3887
 15      0.0000     0.0000E+00    0.0000E+00    7.500000E+09  0.00400  3.510E-05    0   0.5212   age171_m42            0.0000     1.1887E+00     6.0724  -1.0000    88.2318
 16      0.0000     0.0000E+00    0.0000E+00    1.300000E+10  0.00400  2.005E-05    0   0.5034   age193_m42            0.0000     1.9201E+00     7.8917  -1.0000    81.5437
 17      0.0000     0.0000E+00    0.0000E+00    1.800000E+10  0.00400  1.525E-05    0   0.4967   age213_m42            0.0000     2.0159E+00     8.1684  -1.0000    80.3347
 18      0.0000     0.0000E+00    0.0000E+00    1.000000E+06  0.00800  1.238E-02    0   1.0000   age020_m52            0.0000     8.1322E-01     5.0392   2.2254    85.7223
 19      0.0000     0.0000E+00    0.0000E+00    3.160000E+06  0.00800  3.074E-02    0   0.9966   age045_m52            0.0000     7.7606E-01     4.9419   2.1455    86.6233
 20      0.0780     2.4212E-03    3.5994E-03    5.010000E+06  0.00800  2.668E-02    0   0.9443   age055_m52            0.0000     5.9902E-01     4.2612   1.8846    89.3826
 21     25.4247     9.8578E-01    1.4242E+00    6.610000E+06  0.00800  2.136E-02    0   0.9177   age061_m52            0.0000     2.8216E-01     2.7601   0.5863    97.8250
 22      0.0000     0.0000E+00    0.0000E+00    1.000000E+07  0.00800  1.215E-02    0   0.8827   age070_m52            0.0000     3.2385E-01     2.9878   1.2506    97.2934
 23      0.6692     6.3579E-02    8.5598E-02    1.445000E+07  0.00800  8.717E-03    0   0.8552   age078_m52            0.0000     3.2716E-01     3.0110   1.3748    95.7601
 24      0.2102     3.1135E-02    4.0007E-02    2.512000E+07  0.00800  5.592E-03    0   0.8162   age090_m52            0.0000     2.7060E-01     2.7160   0.9948    99.7628
 25      2.1889     4.6530E-01    5.7437E-01    4.000000E+07  0.00800  3.896E-03    0   0.7841   age104_m52            0.0000     2.5502E-01     2.6386   0.9084   100.5052
 26      5.5492     2.1396E+00    2.4339E+00    1.015200E+08  0.00800  2.148E-03    0   0.7226   age116_m52            0.0000     2.9792E-01     2.7882   0.8556    99.8803
 27      0.0056     4.6350E-03    4.8764E-03    2.861200E+08  0.00800  9.925E-04    0   0.6683   age125_m52            0.0000     4.6888E-01     3.3953   0.3719   104.1092
 28      0.0000     0.0000E+00    0.0000E+00    9.047900E+08  0.00800  3.141E-04    0   0.6138   age135_m52            0.0000     7.0697E-01     4.3316  -0.4028   107.3172
 29      0.0000     0.0000E+00    0.0000E+00    1.434000E+09  0.00800  1.719E-04    0   0.5853   age139_m52            0.0000     6.9063E-01     4.3687  -0.9713   104.5656
 30      0.0000     0.0000E+00    0.0000E+00    2.500000E+09  0.00800  7.872E-05    0   0.5600   age150_m52            0.0000     1.2329E+00     6.1390  -1.0000    91.5620
 31      0.5964     1.1392E+01    9.7312E+00    4.250000E+09  0.00800  4.336E-05    0   0.5426   age158_m52            0.0000     1.2894E+00     6.2597  -1.0000    90.0619
 32      0.0000     0.0000E+00    0.0000E+00    6.250000E+09  0.00800  3.159E-05    0   0.5319   age166_m52            0.0000     2.2617E+00     8.5097  -1.0000    82.2931
 33      0.0000     0.0000E+00    0.0000E+00    1.300000E+10  0.00800  1.361E-05    0   0.5073   age193_m52            0.0000     5.6269E+00    14.5864  -1.0000    65.8087
 34      0.0000     0.0000E+00    0.0000E+00    1.800000E+10  0.00800  9.886E-06    0   0.4990   age213_m52            0.0000     6.6349E+00    15.8740  -1.0000    62.2405
 35      0.0000     0.0000E+00    0.0000E+00    1.000000E+06  0.02000  1.544E-02    0   1.0000   age020_m62            0.0000     8.2034E-01     5.0758   2.2226    85.8723
 36      0.0000     0.0000E+00    0.0000E+00    3.160000E+06  0.02000  3.762E-02    0   0.9858   age045_m62            0.0000     8.0737E-01     5.0702   2.1605    86.6827
 37      0.0000     0.0000E+00    0.0000E+00    5.010000E+06  0.02000  3.296E-02    0   0.9342   age055_m62            0.0000     5.5858E-01     4.0191   1.7562    91.5984
 38     22.6765     1.6274E+00    2.2702E+00    8.710000E+06  0.02000  1.154E-02    0   0.8861   age067_m62            0.0000     1.0738E+00     5.3896   0.6600   102.3772
 39      0.0018     1.8948E-04    2.5272E-04    1.445000E+07  0.02000  7.663E-03    0   0.8472   age078_m62            0.0000     4.2302E-01     3.3694   0.8828   100.3734
 40      0.0000     0.0000E+00    0.0000E+00    2.512000E+07  0.02000  4.532E-03    0   0.8099   age090_m62            0.0000     4.5499E-01     3.5247   0.8672   100.5412
 41      0.0000     0.0000E+00    0.0000E+00    5.500000E+07  0.02000  2.733E-03    0   0.7595   age110_m62            0.0000     2.5750E-01     2.6297   0.8929    99.6775
 42      0.0000     0.0000E+00    0.0000E+00    1.609000E+08  0.02000  1.369E-03    0   0.6985   age120_m62            0.0000     3.7997E-01     3.0535   0.7322   102.4182
 43      1.2098     1.1117E+00    1.1750E+00    2.861200E+08  0.02000  9.013E-04    0   0.6714   age125_m62            0.0000     5.5498E-01     3.5857   0.4808   105.4273
 44      0.0000     0.0000E+00    0.0000E+00    5.088000E+08  0.02000  5.028E-04    0   0.6449   age130_m62            0.0000     8.0702E-01     4.4394   0.1282   106.9721
 45      0.0000     0.0000E+00    0.0000E+00    9.047900E+08  0.02000  2.428E-04    0   0.6179   age135_m62            0.0000     8.1047E-01     4.5809  -0.4353   105.2546
 46      0.0556     3.6464E-01    3.3915E-01    1.434000E+09  0.02000  1.263E-04    0   0.5908   age139_m62            0.0000     9.0315E-01     4.9052  -0.8646   102.9699
 47      0.0000     0.0000E+00    0.0000E+00    2.500000E+09  0.02000  5.985E-05    0   0.5673   age150_m62            0.0000     1.5096E+00     6.7252  -1.0000    91.8350
 48      0.0000     0.0000E+00    0.0000E+00    4.250000E+09  0.02000  3.271E-05    0   0.5468   age158_m62            0.0000     3.0811E+00     9.9944  -1.0000    79.4213
 49      0.0000     0.0000E+00    0.0000E+00    1.000000E+10  0.02000  1.360E-05    0   0.5167   age181_m62            0.0000     5.7428E+00    14.2870  -1.0000    67.3435
 50      0.0000     0.0000E+00    0.0000E+00    1.800000E+10  0.02000  7.124E-06    0   0.5013   age213_m62            0.0000     7.6518E+00    16.8424  -1.0000    60.5204
 51      0.0000     0.0000E+00    0.0000E+00    1.000000E+06  0.05000  2.592E-02    0   0.9998   age020_m72            0.0000     8.4655E-01     5.1712   2.2144    85.8651
 52      0.0000     0.0000E+00    0.0000E+00    3.160000E+06  0.05000  4.845E-02    0   0.9577   age045_m72            0.0000     7.2054E-01     4.7191   2.0349    88.2338
 53      0.0000     0.0000E+00    0.0000E+00    5.010000E+06  0.05000  3.072E-02    0   0.9147   age055_m72            0.0000     4.9038E-01     3.8097   1.5100    94.6370
 54      0.0000     0.0000E+00    0.0000E+00    6.610000E+06  0.05000  1.455E-02    0   0.8877   age061_m72            0.0000     2.2483E+00     7.8593   0.7111   103.8357
 55      0.0000     0.0000E+00    0.0000E+00    1.000000E+07  0.05000  9.074E-03    0   0.8524   age070_m72            0.0000     7.3842E-01     4.6253   1.7096    93.9845
 56      0.0000     0.0000E+00    0.0000E+00    2.512000E+07  0.05000  4.250E-03    0   0.7902   age090_m72            0.0000     4.8389E-01     3.6510   1.3762    97.1229
 57      0.0000     0.0000E+00    0.0000E+00    4.000000E+07  0.05000  3.087E-03    0   0.7618   age104_m72            0.0000     4.9137E-01     3.6341   1.1314    99.5929
 58      0.0000     0.0000E+00    0.0000E+00    1.015200E+08  0.05000  1.700E-03    0   0.7096   age116_m72            0.0000     3.5663E-01     3.0578   0.8669   102.4438
 59     10.0762     1.1301E+01    1.1801E+01    2.861200E+08  0.05000  7.384E-04    0   0.6633   age125_m72            0.0000     6.7750E-01     3.9489   0.3588   106.3767
 60     21.1545     4.5875E+01    4.6019E+01    5.088000E+08  0.05000  3.819E-04    0   0.6372   age130_m72            0.0000     8.1067E-01     4.5658  -0.1081   106.7742
 61      4.7288     2.3367E+01    2.2477E+01    9.047900E+08  0.05000  1.676E-04    0   0.6110   age135_m72            0.0000     1.2035E+00     5.8530  -0.7539   102.4468
 62      0.0000     0.0000E+00    0.0000E+00    1.434000E+09  0.05000  8.837E-05    0   0.5874   age139_m72            0.0000     1.6448E+00     7.0239  -1.0000    93.1825
 63      0.0000     0.0000E+00    0.0000E+00    2.500000E+09  0.05000  4.233E-05    0   0.5598   age150_m72            0.0000     3.2174E+00    10.1867  -1.0000    80.0900
 64      0.0000     0.0000E+00    0.0000E+00    6.250000E+09  0.05000  1.435E-05    0   0.5249   age166_m72            0.0000     6.5962E+00    15.5383  -1.0000    64.0742
 65      0.0000     0.0000E+00    0.0000E+00    1.300000E+10  0.05000  6.513E-06    0   0.5036   age193_m72            0.0000     9.2883E+00    18.8539  -1.0000    56.6111
 66      0.0000     0.0000E+00    0.0000E+00    1.800000E+10  0.05000  4.527E-06    0   0.4945   age213_m72            0.0000     1.0941E+01    20.6548  -1.0000    52.2907


## Synthesis Results - Average & Chains ##

# j      x_j: min, <> & last-chain-values for 1 ...  7 chains
  1      0.0000      0.3081      0.0000      0.0000      0.0000      0.0000      0.4442      0.0000      0.5382
  2      0.0000      0.3652      0.7632      0.1423      0.0000      0.0559      0.5514      0.9525      0.0000
  3      0.0000      0.2643      0.0000      0.0000      0.0000      0.9860      0.2493      0.0000      0.0000
  4      0.0000      0.7339      0.0000      0.6916      0.0000      2.0094      0.0000      0.9966      0.7626
  5      2.2066      3.1551      3.3508      5.0981      3.0131      2.2789      3.0867      3.4516      0.0000
  6      0.7608      0.5160      0.0000      1.3359      1.6653      0.2918      0.0000      0.0000      1.3913
  7      2.7528      0.8187      3.7223      0.0000      2.2421      0.1541      2.2379      1.1056      0.0000
  8      2.7118      1.8226      3.8369      4.0557      3.8283      0.0000      0.0000      0.0000      0.8443
  9      0.0000      1.2445      0.0000      3.6918      0.0000      0.9574      3.6809      1.1261      0.2358
 10      0.0000      1.2195      0.0000      0.0000      0.0000      0.3470      0.0000      0.5436      0.0000
 11      0.0000      1.7227      0.0000      0.4997      0.0000      0.0000      0.0000      0.0000      2.5548
 12      0.0000      1.7415      0.0000      0.0000      0.0000      0.0000      0.0000      0.5619      0.0000
 13      0.0000      0.1682      0.0000      1.4234      0.0000      0.0000      0.0000      0.0000      0.0000
 14      0.0000      0.1835      0.1261      0.0000      0.0000      0.0000      0.0000      0.0000      0.0000
 15      0.0000      0.0693      0.0000      0.0000      0.0000      0.0000      0.0000      0.0000      0.0000
 16      0.0000      0.1032      0.0000      0.0000      0.0000      0.0000      0.3727      0.0000      0.2741
 17      0.0000      0.0330      0.0000      0.0000      0.0000      0.2819      0.0000      0.0000      0.0000
 18      0.0000      0.2165      0.0000      0.0000      0.0000      0.0000      0.0000      0.0000      0.2056
 19      0.0000      0.2275      0.0000      0.5803      0.2029      0.0000      0.5053      0.0000      0.3863
 20      0.0780      0.3707      0.0000      1.6444      0.9066      0.0000      0.0071      0.0000      0.0000
 21     25.4247     24.2853     26.2254     24.5397     22.0217     28.0155     29.1860     28.7297     28.9601
 22      0.0000      0.8549      1.7671      0.2926      0.0000      0.4153      3.7317      0.0000      0.3565
 23      0.6692      0.8756      0.6846      0.1890      2.4994      0.3569      0.0000      4.6417      1.9693
 24      0.2102      1.1671      1.5822      0.0000      4.8617      0.0000      0.0936      0.0000      0.0000
 25      2.1889      1.0016      0.0000      0.0000      1.6424      0.0000      0.0000      2.3868      1.9147
 26      5.5492      2.1447      0.0000      0.0000      6.0857      1.2520      3.4173      2.2178      5.8739
 27      0.0056      1.8893      0.4238      2.0127      2.4891      2.2962      2.6435      2.7914      0.0000
 28      0.0000      0.2133      0.2734      0.0000      0.0000      0.0000      0.0000      0.1796      0.0440
 29      0.0000      0.1159      0.0000      0.0000      0.0000      0.2166      0.0000      0.0000      0.0000
 30      0.0000      0.0576      0.5465      0.0000      0.0000      0.0000      0.0000      0.0000      0.3515
 31      0.5964      0.8177      0.8609      0.9072      1.3346      1.1011      1.0020      0.6043      0.4677
 32      0.0000      0.0600      0.0000      0.0000      0.3078      0.0000      0.0000      0.4273      0.0000
 33      0.0000      0.0161      0.0000      0.0000      0.0000      0.0000      0.0172      0.0000      0.0000
 34      0.0000      0.0955      0.0000      0.3401      0.0000      0.0000      0.2997      0.2035      0.0000
 35      0.0000      0.1968      0.0000      0.1750      0.0000      0.4476      0.0000      0.0000      0.0000
 36      0.0000      0.2017      0.0000      0.0000      0.0000      0.3183      0.0000      1.2196      0.0000
 37      0.0000      0.3575      0.0000      0.0000      0.0000      0.6237      1.2241      0.0000      0.0000
 38     22.6765     14.9888     17.3493     17.6084     15.4259     17.9102     16.3034     16.3187     18.8430
 39      0.0018      0.7596      0.9229      1.5204      1.2836      0.0000      0.0000      0.7832      0.0000
 40      0.0000      0.7961      0.0000      0.0000      0.0000      0.6039      0.2722      0.7800      0.0000
 41      0.0000      0.6878      0.8821      0.1584      0.0000      0.8242      0.0000      0.0000      0.9387
 42      0.0000      1.8635      4.4962      2.3637      0.0000      2.8966      0.0000      0.1348      0.8322
 43      1.2098      2.5086      0.0000      1.9659      2.4299      0.9062      0.4538      4.2173      0.0000
 44      0.0000      1.7223      2.1999      0.0000      2.1342      0.0000      0.0000      0.2808      2.0592
 45      0.0000      3.0233      2.5018      0.0000      0.0000      3.4593      3.0810      2.0405      3.8253
 46      0.0556      0.9444      1.0434      0.8744      1.1238      1.3377      0.0000      0.4983      0.8897
