###################################################################
## OUTPUT of StarlightChains_v04.for    [Cid@UFSC - 01/Apr/2007] ##
###################################################################

## Some input info
2011aq.txt                               [arq_obs]
Base.CB07.vall.4m                        [arq_base]
Masks.EmLines.NEW.gm                     [arq_masks]
StCv04.C11.config                        [arq_config]
   66                                    [N_base]
    0                                    [N_YAV_components = # of components with extra extinction!]
    0                                    [i_FitPowerLaw (1/0 = Yes/No)]
-9.99                                    [alpha_PowerLaw]
CCM                                      [red_law_option]
 1.458241                                [q_norm = A(l_norm)/A(V)]

## (Re)Sampling Parameters
 3741.00                                 [l_ini (A)]
 7218.00                                 [l_fin (A)]
    1.00                                 [dl    (A)]     (OBS: dl_cushion =    50.00 A)

## Normalization info
 4020.00                                 [l_norm (A) - for base]
 4010.00                                 [llow_norm (A) - window for f_obs]
 4060.00                                 [lupp_norm (A) - window for f_obs]
8.692659E-15                             [fobs_norm (in input units)]

## S/N
 3691.00                                 [llow_SN (A) - window for S/N]
 7268.00                                 [lupp_SN (A) - window for S/N]
   7.407                                 [S/N in S/N window]
   6.392                                 [S/N in norm. window]
  49.080                                 [S/N_err in S/N window]
  42.357                                 [S/N_err in norm. window]
  1.0000                                 [fscale_chi2]

## etc...
    -2007369                             [idum_orig]
  2394                                   [NOl_eff]
  2279                                   [Nl_eff]
   115    NSIGMA                         [Ntot_cliped & clip_method]
  2549470                                [Nglobal_steps]
   7                                     [N_chains]
  37                                     [NEX0s_base = N_base in EX0s-fits]
 0   0   1       17   2.0   2.070E+02    [Clip-Bug, RC-Crash & Burn-In warning-flags, n_censored_weights, wei_nsig_threshold & wei_limit]
    23     22.407     21.897      0.511  [idt_all, wdt_TotTime, wdt_UsrTime & wdt_SysTime (sec)]

## Synthesis Results - Best model ##

 1.08628E+00                             [chi2/Nl_eff]
     1.11701                             [adev (%)]

   103.63256                             [sum-of-x (%)]
 2.68662E-14                             [Flux_tot (units of input spectrum!)]
 7.29937E-10                             [Mini_tot (???)]
 3.69359E-10                             [Mcor_tot (???)]

  23.29                                  [v0_min  (km/s)]
 201.63                                  [vd_min  (km/s)]
 0.8136                                  [AV_min  (mag)]
 0.0000                                  [YAV_min (mag)]

# j     x_j(%)      Mini_j(%)     Mcor_j(%)     age_j(yr)     Z_j      (L/M)_j    YAV?  Mstars   component_j        a/Fe...       SSP_chi2r SSP_adev(%)   SSP_AV   SSP_x(%)
  1      1.8795     6.1015E-03    1.2058E-02    1.000000E+06  0.00400  1.094E-02    0   1.0000   age020_m42            0.0000     2.0726E+01     4.6519   3.5336    90.5773
  2      1.4373     1.2740E-03    2.5174E-03    3.160000E+06  0.00400  4.007E-02    0   0.9999   age045_m42            0.0000     1.4489E+01     3.7472   2.8493    94.8090
  3      0.0000     0.0000E+00    0.0000E+00    5.010000E+06  0.00400  2.539E-02    0   0.9488   age055_m42            0.0000     1.6210E+01     3.9079   3.1486    93.4350
  4      0.0000     0.0000E+00    0.0000E+00    6.610000E+06  0.00400  2.620E-02    0   0.9220   age061_m42            0.0000     1.3079E+01     3.5796   2.7745    95.0508
  5      0.1451     3.8982E-04    6.8270E-04    1.000000E+07  0.00400  1.322E-02    0   0.8862   age070_m42            0.0000     8.0880E+00     2.4688   2.4707    97.8297
  6      1.6063     7.2369E-03    1.2258E-02    1.445000E+07  0.00400  7.883E-03    0   0.8571   age078_m42            0.0000     1.0074E+01     2.7588   2.7909    95.7381
  7      0.5719     3.8679E-03    6.2481E-03    2.512000E+07  0.00400  5.251E-03    0   0.8174   age090_m42            0.0000     7.7304E+00     2.3981   2.3414    98.2776
  8      2.3486     2.2859E-02    3.5467E-02    4.000000E+07  0.00400  3.649E-03    0   0.7851   age104_m42            0.0000     6.8748E+00     2.3437   2.1204    98.7953
  9      2.3181     2.6575E-02    4.0066E-02    5.500000E+07  0.00400  3.098E-03    0   0.7629   age110_m42            0.0000     8.4208E+00     2.7826   2.2912    98.0969
 10      0.0000     0.0000E+00    0.0000E+00    1.015200E+08  0.00400  2.228E-03    0   0.7207   age116_m42            0.0000     9.8148E+00     3.1516   2.3231    97.7968
 11      0.0000     0.0000E+00    0.0000E+00    2.861200E+08  0.00400  1.093E-03    0   0.6648   age125_m42            0.0000     8.4106E+00     3.0242   1.7553   100.5730
 12      0.0002     1.0075E-05    1.2674E-05    5.088000E+08  0.00400  6.597E-04    0   0.6365   age130_m42            0.0000     9.5744E+00     3.3313   1.7613   100.7508
 13      0.3832     6.3843E-02    7.3152E-02    1.434000E+09  0.00400  2.132E-04    0   0.5798   age139_m42            0.0000     6.8332E+00     2.7527   0.7994   102.2430
 14      0.0000     0.0000E+00    0.0000E+00    4.250000E+09  0.00400  5.895E-05    0   0.5377   age158_m42            0.0000     9.9978E+00     3.7430   0.3525    98.9062
 15      0.0000     2.0117E-05    2.0721E-05    7.500000E+09  0.00400  3.510E-05    0   0.5212   age171_m42            0.0000     1.3706E+01     4.3003   0.1690    98.1715
 16      8.6257     1.5279E+01    1.5200E+01    1.300000E+10  0.00400  2.005E-05    0   0.5034   age193_m42            0.0000     1.8199E+01     4.8330   0.0079    97.5898
 17      7.0908     1.6514E+01    1.6210E+01    1.800000E+10  0.00400  1.525E-05    0   0.4967   age213_m42            0.0000     1.7416E+01     4.7364  -0.0180    97.2409
 18      2.4079     6.9079E-03    1.3652E-02    1.000000E+06  0.00800  1.238E-02    0   1.0000   age020_m52            0.0000     2.0768E+01     4.6645   3.5300    90.7567
 19      2.5987     3.0025E-03    5.9135E-03    3.160000E+06  0.00800  3.074E-02    0   0.9966   age045_m52            0.0000     2.0533E+01     4.5974   3.4560    91.4440
 20      0.0000     0.0000E+00    0.0000E+00    5.010000E+06  0.00800  2.668E-02    0   0.9443   age055_m52            0.0000     1.6625E+01     3.9846   3.2239    92.9058
 21      0.0000     0.0000E+00    0.0000E+00    6.610000E+06  0.00800  2.136E-02    0   0.9177   age061_m52            0.0000     4.8388E+00     1.9836   1.9631    99.3919
 22      1.5737     4.6003E-03    8.0248E-03    1.000000E+07  0.00800  1.215E-02    0   0.8827   age070_m52            0.0000     8.3091E+00     2.4225   2.6401    98.0139
 23      1.3538     5.5160E-03    9.3224E-03    1.445000E+07  0.00800  8.717E-03    0   0.8552   age078_m52            0.0000     9.0732E+00     2.5772   2.7575    96.9508
 24      0.4478     2.8439E-03    4.5871E-03    2.512000E+07  0.00800  5.592E-03    0   0.8162   age090_m52            0.0000     7.1537E+00     2.2929   2.4072    99.2831
 25      1.2791     1.1660E-02    1.8068E-02    4.000000E+07  0.00800  3.896E-03    0   0.7841   age104_m52            0.0000     7.0597E+00     2.4103   2.3318    99.5134
 26      0.0000     0.0000E+00    0.0000E+00    1.015200E+08  0.00800  2.148E-03    0   0.7226   age116_m52            0.0000     8.0161E+00     2.7485   2.2852    98.7815
 27      0.0000     0.0000E+00    0.0000E+00    2.861200E+08  0.00800  9.925E-04    0   0.6683   age125_m52            0.0000     8.8444E+00     3.1165   1.8279   101.5798
 28      2.8143     3.1822E-01    3.8601E-01    9.047900E+08  0.00800  3.141E-04    0   0.6138   age135_m52            0.0000     1.0486E+01     3.4992   1.0588   104.4386
 29      0.0000     0.0000E+00    0.0000E+00    1.434000E+09  0.00800  1.719E-04    0   0.5853   age139_m52            0.0000     8.9295E+00     3.4530   0.4638   103.0837
 30      0.0000     0.0000E+00    0.0000E+00    2.500000E+09  0.00800  7.872E-05    0   0.5600   age150_m52            0.0000     1.5215E+01     4.5504   0.2016   100.3258
 31      0.0000     0.0000E+00    0.0000E+00    4.250000E+09  0.00800  4.336E-05    0   0.5426   age158_m52            0.0000     1.6281E+01     4.6573   0.1838    99.5397
 32      0.0000     0.0000E+00    0.0000E+00    6.250000E+09  0.00800  3.159E-05    0   0.5319   age166_m52            0.0000     2.3485E+01     5.4794  -0.0093    99.2474
 33      7.3610     1.9209E+01    1.9258E+01    1.300000E+10  0.00800  1.361E-05    0   0.5073   age193_m52            0.0000     3.5640E+01     6.6340  -0.4645    98.1134
 34      7.5235     2.7029E+01    2.6654E+01    1.800000E+10  0.00800  9.886E-06    0   0.4990   age213_m52            0.0000     4.5669E+01     7.5137  -0.5613    97.2555
 35      2.1167     4.8691E-03    9.6224E-03    1.000000E+06  0.02000  1.544E-02    0   1.0000   age020_m62            0.0000     2.1017E+01     4.7080   3.5254    91.0093
 36      2.1094     1.9914E-03    3.8797E-03    3.160000E+06  0.02000  3.762E-02    0   0.9858   age045_m62            0.0000     2.1313E+01     4.7348   3.4642    91.8363
 37      0.0248     2.6729E-05    4.9347E-05    5.010000E+06  0.02000  3.296E-02    0   0.9342   age055_m62            0.0000     1.5842E+01     3.9716   3.1160    94.2576
 38     11.9163     3.6674E-02    6.4221E-02    8.710000E+06  0.02000  1.154E-02    0   0.8861   age067_m62            0.0000     1.6840E+01     4.5298   2.0385   102.7695
 39      0.4810     2.2291E-03    3.7321E-03    1.445000E+07  0.02000  7.663E-03    0   0.8472   age078_m62            0.0000     7.9907E+00     2.5348   2.2734   100.7122
 40      0.0091     7.1072E-05    1.1375E-04    2.512000E+07  0.02000  4.532E-03    0   0.8099   age090_m62            0.0000     9.2939E+00     2.7677   2.2669   100.3232
 41      0.0000     0.0000E+00    0.0000E+00    5.500000E+07  0.02000  2.733E-03    0   0.7595   age110_m62            0.0000     6.5156E+00     2.2913   2.3076    99.1340
 42      0.0000     0.0000E+00    0.0000E+00    1.609000E+08  0.02000  1.369E-03    0   0.6985   age120_m62            0.0000     8.5389E+00     2.9268   2.1765   100.5149
 43      0.0000     0.0000E+00    0.0000E+00    2.861200E+08  0.02000  9.013E-04    0   0.6714   age125_m62            0.0000     1.0419E+01     3.2582   1.9440   102.5278
 44      3.2664     2.3073E-01    2.9406E-01    5.088000E+08  0.02000  5.028E-04    0   0.6449   age130_m62            0.0000     1.3763E+01     3.9207   1.5941   104.0496
 45      0.0000     0.0000E+00    0.0000E+00    9.047900E+08  0.02000  2.428E-04    0   0.6179   age135_m62            0.0000     1.2222E+01     3.9506   1.0084   103.5662
 46      0.0000     0.0000E+00    0.0000E+00    1.434000E+09  0.02000  1.263E-04    0   0.5908   age139_m62            0.0000     1.3856E+01     4.2840   0.5569   102.4840
 47      0.0000     0.0000E+00    0.0000E+00    2.500000E+09  0.02000  5.985E-05    0   0.5673   age150_m62            0.0000     2.2431E+01     5.4725   0.1950   101.1052
 48      0.0000     0.0000E+00    0.0000E+00    4.250000E+09  0.02000  3.271E-05    0   0.5468   age158_m62            0.0000     3.5952E+01     6.8136  -0.0963    99.7559
 49      0.0000     0.0000E+00    0.0000E+00    1.000000E+10  0.02000  1.360E-05    0   0.5167   age181_m62            0.0000     5.5184E+01     8.2811  -0.4231    98.5155
 50      0.0000     0.0000E+00    0.0000E+00    1.800000E+10  0.02000  7.124E-06    0   0.5013   age213_m62            0.0000     7.1365E+01     9.4094  -0.6157    97.1143
 51      7.4546     1.0214E-02    2.0182E-02    1.000000E+06  0.05000  2.592E-02    0   0.9998   age020_m72            0.0000     2.1764E+01     4.8281   3.5122    91.2415
 52      0.7442     5.4552E-04    1.0325E-03    3.160000E+06  0.05000  4.845E-02    0   0.9577   age045_m72            0.0000     2.0065E+01     4.4676   3.3591    92.5010
 53      2.0507     2.3708E-03    4.2857E-03    5.010000E+06  0.05000  3.072E-02    0   0.9147   age055_m72            0.0000     1.1374E+01     3.1242   2.8654    96.9915
 54      1.2071     2.9464E-03    5.1688E-03    6.610000E+06  0.05000  1.455E-02    0   0.8877   age061_m72            0.0000     4.5061E+01     7.1417   2.0746   104.3883
 55      0.0000     0.0000E+00    0.0000E+00    1.000000E+07  0.05000  9.074E-03    0   0.8524   age070_m72            0.0000     1.9043E+01     4.0594   3.0568    96.5951
 56      0.0000     0.0000E+00    0.0000E+00    2.512000E+07  0.05000  4.250E-03    0   0.7902   age090_m72            0.0000     1.3003E+01     3.2951   2.7671    97.6045
 57      0.0000     0.0000E+00    0.0000E+00    4.000000E+07  0.05000  3.087E-03    0   0.7618   age104_m72            0.0000     1.2938E+01     3.3431   2.5419    98.9651
 58      0.0000     0.0000E+00    0.0000E+00    1.015200E+08  0.05000  1.700E-03    0   0.7096   age116_m72            0.0000     8.9333E+00     2.8932   2.3104   100.4115
 59      0.2500     1.2023E-02    1.5760E-02    2.861200E+08  0.05000  7.384E-04    0   0.6633   age125_m72            0.0000     1.1776E+01     3.4925   1.8276   103.1904
 60      8.4309     7.8406E-01    9.8733E-01    5.088000E+08  0.05000  3.819E-04    0   0.6372   age130_m72            0.0000     1.3044E+01     4.0604   1.3497   104.3076
 61      5.8870     1.2475E+00    1.5063E+00    9.047900E+08  0.05000  1.676E-04    0   0.6110   age135_m72            0.0000     2.1073E+01     5.5112   0.6551   102.7784
 62      0.0000     0.0000E+00    0.0000E+00    1.434000E+09  0.05000  8.837E-05    0   0.5874   age139_m72            0.0000     2.5188E+01     5.7082   0.1989   102.3198
 63      0.0000     0.0000E+00    0.0000E+00    2.500000E+09  0.05000  4.233E-05    0   0.5598   age150_m72            0.0000     4.0680E+01     7.2468  -0.0923   100.4231
 64      0.7442     1.8419E+00    1.9106E+00    6.250000E+09  0.05000  1.435E-05    0   0.5249   age166_m72            0.0000     6.0627E+01     8.7258  -0.5166    97.9770
 65      3.1736     1.7306E+01    1.7224E+01    1.300000E+10  0.05000  6.513E-06    0   0.5036   age193_m72            0.0000     8.2515E+01    10.1354  -0.7744    98.0736
 66      0.0000     0.0000E+00    0.0000E+00    1.800000E+10  0.05000  4.527E-06    0   0.4945   age213_m72            0.0000     9.7309E+01    10.9912  -0.9211    97.3339


## Synthesis Results - Average & Chains ##

# j      x_j: min, <> & last-chain-values for 1 ...  7 chains
  1      1.8795      0.7405      0.7512      0.8015      0.8098      0.8225      0.7944      0.9426      0.6871
  2      1.4373      1.0021      0.9724      0.9813      1.0991      1.0273      1.0874      1.1150      1.2633
  3      0.0000      0.0980      0.0000      0.0000      0.0478      0.0000      0.0000      0.1097      0.0186
  4      0.0000      0.0404      0.0758      0.0000      0.0000      0.0000      0.0376      0.1361      0.0000
  5      0.1451      0.4443      0.5002      0.3377      0.5057      0.3763      0.6279      0.6466      0.2830
  6      1.6063      1.7283      1.4604      1.3856      1.9136      1.5797      2.0566      1.7504      1.6651
  7      0.5719      0.7177      0.9027      1.0203      0.5754      0.7465      0.9003      0.9925      0.7944
  8      2.3486      2.5139      2.5634      2.7436      2.6445      2.4278      2.7536      2.4644      2.6425
  9      2.3181      2.3353      2.3858      2.3235      2.1974      2.4676      2.1904      2.4137      2.2910
 10      0.0000      0.1450      0.0611      0.0494      0.3236      0.2657      0.0000      0.2525      0.2741
 11      0.0000      0.0851      0.0000      0.0000      0.0000      0.0000      0.0000      0.0000      0.0300
 12      0.0002      0.0712      0.4140      0.1466      0.0000      0.2068      0.0000      0.0586      0.3932
 13      0.3832      0.8984      0.7584      1.1330      1.3000      0.8535      1.4260      0.6035      0.1336
 14      0.0000      0.1072      0.1163      0.5484      0.0000      0.0000      0.1654      0.1457      0.3627
 15      0.0000      1.1159      0.6686      1.2321      1.2647      1.1282      0.9644      1.1782      1.0349
 16      8.6257     10.4187     10.4333     10.3627     10.4530     10.7065     10.2052     10.0187     10.5066
 17      7.0908      8.5592      8.6414      8.3892      8.1934      8.3759      8.6213      8.3866      8.6087
 18      2.4079      1.2458      1.3512      1.2698      1.4098      1.2287      1.6213      1.2439      1.2626
 19      2.5987      1.9398      1.9306      1.9464      1.9491      2.1017      1.9020      1.7494      2.1144
 20      0.0000      0.2481      0.1930      0.2520      0.0231      0.2246      0.2610      0.4254      0.2253
 21      0.0000      0.2327      0.0000      0.1557      0.7085      0.3183      0.0989      0.1782      0.0625
 22      1.5737      1.9927      1.8362      1.8350      1.8829      1.9319      2.1963      1.6183      1.5530
 23      1.3538      1.6319      0.9644      1.8043      1.6416      1.5024      1.7496      1.4953      1.6575
 24      0.4478      0.7702      1.0722      0.8203      0.7365      0.7497      1.0463      0.7405      0.7594
 25      1.2791      1.9590      1.9971      1.7546      1.9068      1.8133      1.8133      1.8364      1.9196
 26      0.0000      0.3532      0.2535      0.0224      0.0059      0.4240      0.2591      0.3127      0.0000
 27      0.0000      0.0810      0.0639      0.0561      0.2644      0.0000      0.0000      0.0000      0.0438
 28      2.8143      3.4987      3.4662      3.3365      4.1240      3.2542      3.4639      4.4192      3.1750
 29      0.0000      0.0468      0.0000      0.0000      0.0000      0.0000      0.0000      0.0000      0.0000
 30      0.0000      0.0500      0.0000      0.0000      0.0000      0.0214      0.0000      0.0000      0.0000
 31      0.0000      0.0575      0.2260      0.0000      0.0000      0.0000      0.0000      0.0000      0.0000
 32      0.0000      0.0317      0.1246      0.0000      0.0000      0.0000      0.0000      0.0000      0.0000
 33      7.3610      5.7732      5.8644      5.9383      5.6681      5.9964      5.6862      5.9636      5.8065
 34      7.5235      6.7578      6.5231      6.8187      6.7716      6.9223      6.8232      6.7790      6.7291
 35      2.1167      0.8142      1.0191      1.0035      0.8700      0.9693      0.5514      0.7257      1.1142
 36      2.1094      1.5400      1.4650      1.4192      1.6672      1.4754      1.4206      1.6525      1.4955
 37      0.0248      0.6125      0.6153      0.7848      0.8022      0.5391      0.4390      0.5637      0.7769
 38     11.9163      6.9775      7.6110      7.5771      7.8852      7.4891      7.1530      7.0941      6.8639
 39      0.4810      0.5719      0.8544      0.7286      0.1676      0.5139      0.5603      0.5885      0.9525
 40      0.0091      1.6728      1.8998      1.7757      1.5115      1.5822      1.6449      1.9982      1.7768
 41      0.0000      0.0617      0.0000      0.0000      0.0000      0.1108      0.0000      0.0000      0.0000
 42      0.0000      0.0790      0.0651      0.0683      0.0000      0.2583      0.0549      0.0000      0.0000
 43      0.0000      0.0808      0.0000      0.0000      0.1945      0.1565      0.1601      0.0000      0.0000
 44      3.2664      2.1880      2.0335      2.2250      1.9239      2.2161      2.0197      2.3284      2.2470
 45      0.0000      0.4773      0.0885      0.6928      0.5064      0.4863      0.2247      0.5733      0.5023
 46      0.0000      0.1832      0.0385      0.0743      0.0000      0.0223      0.1266      0.0000      0.0295
