###################################################################
## OUTPUT of StarlightChains_v04.for    [Cid@UFSC - 01/Apr/2007] ##
###################################################################

## Some input info
2011ck.txt                               [arq_obs]
Base.CB07.vall.4m                        [arq_base]
Masks.EmLines.NEW.gm                     [arq_masks]
StCv04.C11.config                        [arq_config]
   66                                    [N_base]
    0                                    [N_YAV_components = # of components with extra extinction!]
    0                                    [i_FitPowerLaw (1/0 = Yes/No)]
-9.99                                    [alpha_PowerLaw]
CCM                                      [red_law_option]
 1.458241                                [q_norm = A(l_norm)/A(V)]

## (Re)Sampling Parameters
 3741.00                                 [l_ini (A)]
 7218.00                                 [l_fin (A)]
    1.00                                 [dl    (A)]     (OBS: dl_cushion =    50.00 A)

## Normalization info
 4020.00                                 [l_norm (A) - for base]
 4010.00                                 [llow_norm (A) - window for f_obs]
 4060.00                                 [lupp_norm (A) - window for f_obs]
5.128146E-16                             [fobs_norm (in input units)]

## S/N
 3691.00                                 [llow_SN (A) - window for S/N]
 7268.00                                 [lupp_SN (A) - window for S/N]
   9.471                                 [S/N in S/N window]
  10.861                                 [S/N in norm. window]
  16.119                                 [S/N_err in S/N window]
  18.484                                 [S/N_err in norm. window]
  1.0000                                 [fscale_chi2]

## etc...
    -2007373                             [idum_orig]
  2390                                   [NOl_eff]
  2390                                   [Nl_eff]
     0    NSIGMA                         [Ntot_cliped & clip_method]
  1483720                                [Nglobal_steps]
   7                                     [N_chains]
  25                                     [NEX0s_base = N_base in EX0s-fits]
 0   0   1        2   2.0   3.551E+01    [Clip-Bug, RC-Crash & Burn-In warning-flags, n_censored_weights, wei_nsig_threshold & wei_limit]
    17     17.104     16.599      0.505  [idt_all, wdt_TotTime, wdt_UsrTime & wdt_SysTime (sec)]

## Synthesis Results - Best model ##

 2.17322E-01                             [chi2/Nl_eff]
     2.19172                             [adev (%)]

   103.22976                             [sum-of-x (%)]
 1.20118E-15                             [Flux_tot (units of input spectrum!)]
 3.76846E-12                             [Mini_tot (???)]
 2.22733E-12                             [Mcor_tot (???)]

-113.75                                  [v0_min  (km/s)]
 185.29                                  [vd_min  (km/s)]
 0.6101                                  [AV_min  (mag)]
 0.0000                                  [YAV_min (mag)]

# j     x_j(%)      Mini_j(%)     Mcor_j(%)     age_j(yr)     Z_j      (L/M)_j    YAV?  Mstars   component_j        a/Fe...       SSP_chi2r SSP_adev(%)   SSP_AV   SSP_x(%)
  1      0.0000     0.0000E+00    0.0000E+00    1.000000E+06  0.00400  1.094E-02    0   1.0000   age020_m42            0.0000     1.0087E+00     4.8561   2.8699    85.1602
  2      0.0000     0.0000E+00    0.0000E+00    3.160000E+06  0.00400  4.007E-02    0   0.9999   age045_m42            0.0000     5.6164E-01     3.5777   2.1080    92.7417
  3      1.9720     2.3982E-02    3.8499E-02    5.010000E+06  0.00400  2.539E-02    0   0.9488   age055_m42            0.0000     6.9518E-01     4.0416   2.4383    89.9694
  4      3.6151     4.2605E-02    6.6462E-02    6.610000E+06  0.00400  2.620E-02    0   0.9220   age061_m42            0.0000     5.1050E-01     3.4139   2.0235    93.4612
  5      0.0417     9.7362E-04    1.4598E-03    1.000000E+07  0.00400  1.322E-02    0   0.8862   age070_m42            0.0000     5.3438E-01     3.3830   1.7000    97.4929
  6      0.6880     2.6949E-02    3.9080E-02    1.445000E+07  0.00400  7.883E-03    0   0.8571   age078_m42            0.0000     6.2125E-01     3.7119   2.0422    94.2893
  7      0.0000     0.0000E+00    0.0000E+00    2.512000E+07  0.00400  5.251E-03    0   0.8174   age090_m42            0.0000     5.5868E-01     3.4367   1.5589    98.6007
  8      3.9881     3.3746E-01    4.4826E-01    4.000000E+07  0.00400  3.649E-03    0   0.7851   age104_m42            0.0000     4.7327E-01     3.1698   1.3291    99.5382
  9      3.7222     3.7099E-01    4.7886E-01    5.500000E+07  0.00400  3.098E-03    0   0.7629   age110_m42            0.0000     3.9986E-01     2.9410   1.4959    98.8945
 10      5.1211     7.0972E-01    8.6540E-01    1.015200E+08  0.00400  2.228E-03    0   0.7207   age116_m42            0.0000     3.9966E-01     2.9218   1.5224    98.7774
 11      0.0000     0.0000E+00    0.0000E+00    2.861200E+08  0.00400  1.093E-03    0   0.6648   age125_m42            0.0000     4.3205E-01     3.0827   0.9313   102.9891
 12      6.8275     3.1956E+00    3.4414E+00    5.088000E+08  0.00400  6.597E-04    0   0.6365   age130_m42            0.0000     4.1999E-01     2.9741   0.9358   103.0896
 13      0.7302     1.0575E+00    1.0374E+00    1.434000E+09  0.00400  2.132E-04    0   0.5798   age139_m42            0.0000     3.3520E-01     2.6397  -0.0313   104.8821
 14      4.6826     2.4527E+01    2.2313E+01    4.250000E+09  0.00400  5.895E-05    0   0.5377   age158_m42            0.0000     4.4054E-01     3.1321  -0.4207    98.2881
 15      1.1951     1.0513E+01    9.2709E+00    7.500000E+09  0.00400  3.510E-05    0   0.5212   age171_m42            0.0000     5.9822E-01     3.6906  -0.5889    96.7387
 16      0.0000     0.0000E+00    0.0000E+00    1.300000E+10  0.00400  2.005E-05    0   0.5034   age193_m42            0.0000     7.7971E-01     4.2538  -0.7357    95.3997
 17      0.0000     0.0000E+00    0.0000E+00    1.800000E+10  0.00400  1.525E-05    0   0.4967   age213_m42            0.0000     7.5381E-01     4.1974  -0.7620    95.1113
 18      0.0000     0.0000E+00    0.0000E+00    1.000000E+06  0.00800  1.238E-02    0   1.0000   age020_m52            0.0000     1.0075E+00     4.8599   2.8662    85.3220
 19      1.1763     1.1815E-02    1.9922E-02    3.160000E+06  0.00800  3.074E-02    0   0.9966   age045_m52            0.0000     9.4379E-01     4.7426   2.7863    86.2162
 20      0.0000     0.0000E+00    0.0000E+00    5.010000E+06  0.00800  2.668E-02    0   0.9443   age055_m52            0.0000     7.2614E-01     4.1533   2.5232    89.0454
 21     22.1579     3.2031E-01    4.9733E-01    6.610000E+06  0.00800  2.136E-02    0   0.9177   age061_m52            0.0000     4.6607E-01     3.1360   1.2131    97.9318
 22      0.0000     0.0000E+00    0.0000E+00    1.000000E+07  0.00800  1.215E-02    0   0.8827   age070_m52            0.0000     6.5998E-01     3.7977   1.8750    97.5135
 23      0.0099     3.5117E-04    5.0811E-04    1.445000E+07  0.00800  8.717E-03    0   0.8552   age078_m52            0.0000     5.7747E-01     3.5590   2.0015    95.8803
 24      0.0000     0.0000E+00    0.0000E+00    2.512000E+07  0.00800  5.592E-03    0   0.8162   age090_m52            0.0000     5.5459E-01     3.4521   1.6173   100.0591
 25      0.0000     0.0000E+00    0.0000E+00    4.000000E+07  0.00800  3.896E-03    0   0.7841   age104_m52            0.0000     4.6092E-01     3.1722   1.5320   100.7533
 26      1.6869     2.4248E-01    2.9646E-01    1.015200E+08  0.00800  2.148E-03    0   0.7226   age116_m52            0.0000     3.6125E-01     2.8383   1.4818   100.0217
 27      0.0017     5.2027E-04    5.8828E-04    2.861200E+08  0.00800  9.925E-04    0   0.6683   age125_m52            0.0000     3.9594E-01     2.9007   0.9988   104.1884
 28      0.0047     4.6388E-03    4.8174E-03    9.047900E+08  0.00800  3.141E-04    0   0.6138   age135_m52            0.0000     4.5363E-01     3.1729   0.2240   107.3402
 29      0.0000     0.0000E+00    0.0000E+00    1.434000E+09  0.00800  1.719E-04    0   0.5853   age139_m52            0.0000     4.7070E-01     3.2799  -0.3416   104.3509
 30      0.0000     0.0000E+00    0.0000E+00    2.500000E+09  0.00800  7.872E-05    0   0.5600   age150_m52            0.0000     6.8327E-01     3.9602  -0.5669    99.3958
 31      0.0000     0.0000E+00    0.0000E+00    4.250000E+09  0.00800  4.336E-05    0   0.5426   age158_m52            0.0000     7.1093E-01     4.0386  -0.5765    98.1901
 32      0.0000     0.0000E+00    0.0000E+00    6.250000E+09  0.00800  3.159E-05    0   0.5319   age166_m52            0.0000     9.9281E-01     4.8348  -0.7563    97.1672
 33      0.0000     0.0000E+00    0.0000E+00    1.300000E+10  0.00800  1.361E-05    0   0.5073   age193_m52            0.0000     1.7696E+00     6.8097  -1.0000    87.4564
 34      0.0000     0.0000E+00    0.0000E+00    1.800000E+10  0.00800  9.886E-06    0   0.4990   age213_m52            0.0000     2.4267E+00     8.1077  -1.0000    82.9166
 35      0.0000     0.0000E+00    0.0000E+00    1.000000E+06  0.02000  1.544E-02    0   1.0000   age020_m62            0.0000     1.0165E+00     4.8967   2.8640    85.4502
 36      0.0000     0.0000E+00    0.0000E+00    3.160000E+06  0.02000  3.762E-02    0   0.9858   age045_m62            0.0000     9.8727E-01     4.8711   2.8005    86.3004
 37      0.0486     4.5565E-04    7.2020E-04    5.010000E+06  0.02000  3.296E-02    0   0.9342   age055_m62            0.0000     6.1897E-01     3.8176   2.3948    91.2397
 38      0.0000     0.0000E+00    0.0000E+00    8.710000E+06  0.02000  1.154E-02    0   0.8861   age067_m62            0.0000     2.1462E+00     6.9595   1.2698   103.2498
 39      0.0000     0.0000E+00    0.0000E+00    1.445000E+07  0.02000  7.663E-03    0   0.8472   age078_m62            0.0000     9.1586E-01     4.5247   1.5013   100.8402
 40      0.0000     0.0000E+00    0.0000E+00    2.512000E+07  0.02000  4.532E-03    0   0.8099   age090_m62            0.0000     9.8384E-01     4.7542   1.4849   101.0397
 41      0.0000     0.0000E+00    0.0000E+00    5.500000E+07  0.02000  2.733E-03    0   0.7595   age110_m62            0.0000     4.6772E-01     3.1810   1.5168    99.8969
 42      0.0000     0.0000E+00    0.0000E+00    1.609000E+08  0.02000  1.369E-03    0   0.6985   age120_m62            0.0000     4.0446E-01     2.8840   1.3593   102.4961
 43      0.0000     0.0000E+00    0.0000E+00    2.861200E+08  0.02000  9.013E-04    0   0.6714   age125_m62            0.0000     4.7063E-01     3.0526   1.1063   105.5622
 44      0.3306     2.0303E-01    2.2153E-01    5.088000E+08  0.02000  5.028E-04    0   0.6449   age130_m62            0.0000     5.4978E-01     3.2994   0.7554   106.9949
 45     16.9918     2.1609E+01    2.2591E+01    9.047900E+08  0.02000  2.428E-04    0   0.6179   age135_m62            0.0000     5.0705E-01     3.2252   0.1951   105.0788
 46      3.2751     8.0068E+00    8.0034E+00    1.434000E+09  0.02000  1.263E-04    0   0.5908   age139_m62            0.0000     6.1276E-01     3.6383  -0.2310   102.5957
 47      0.0000     0.0000E+00    0.0000E+00    2.500000E+09  0.02000  5.985E-05    0   0.5673   age150_m62            0.0000     9.5051E-01     4.7266  -0.5587    99.3305
 48      0.0000     0.0000E+00    0.0000E+00    4.250000E+09  0.02000  3.271E-05    0   0.5468   age158_m62            0.0000     1.4684E+00     6.0735  -0.8278    96.8253
 49      0.0000     0.0000E+00    0.0000E+00    1.000000E+10  0.02000  1.360E-05    0   0.5167   age181_m62            0.0000     2.3452E+00     7.7953  -1.0000    89.2612
 50      0.0000     0.0000E+00    0.0000E+00    1.800000E+10  0.02000  7.124E-06    0   0.5013   age213_m62            0.0000     3.4829E+00     9.7328  -1.0000    80.6592
 51      0.0000     0.0000E+00    0.0000E+00    1.000000E+06  0.05000  2.592E-02    0   0.9998   age020_m72            0.0000     1.0627E+00     5.0015   2.8558    85.4442
 52      0.0000     0.0000E+00    0.0000E+00    3.160000E+06  0.05000  4.845E-02    0   0.9577   age045_m72            0.0000     8.4229E-01     4.5102   2.6748    87.8375
 53      0.0000     0.0000E+00    0.0000E+00    5.010000E+06  0.05000  3.072E-02    0   0.9147   age055_m72            0.0000     8.3716E-01     4.4741   2.1382    94.6934
 54      0.0000     0.0000E+00    0.0000E+00    6.610000E+06  0.05000  1.455E-02    0   0.8877   age061_m72            0.0000     3.7168E+00     9.5451   1.3200   104.8097
 55      0.0000     0.0000E+00    0.0000E+00    1.000000E+07  0.05000  9.074E-03    0   0.8524   age070_m72            0.0000     1.1072E+00     5.2279   2.3437    93.8712
 56      0.0000     0.0000E+00    0.0000E+00    2.512000E+07  0.05000  4.250E-03    0   0.7902   age090_m72            0.0000     8.0663E-01     4.3743   2.0029    97.2482
 57      0.0000     0.0000E+00    0.0000E+00    4.000000E+07  0.05000  3.087E-03    0   0.7618   age104_m72            0.0000     8.3096E-01     4.3989   1.7553    99.8205
 58      0.0000     0.0000E+00    0.0000E+00    1.015200E+08  0.05000  1.700E-03    0   0.7096   age116_m72            0.0000     4.6517E-01     3.1708   1.4908   102.6631
 59      0.0000     0.0000E+00    0.0000E+00    2.861200E+08  0.05000  7.384E-04    0   0.6633   age125_m72            0.0000     5.0950E-01     3.1968   0.9855   106.4181
 60     16.6322     1.3447E+01    1.4498E+01    5.088000E+08  0.05000  3.819E-04    0   0.6372   age130_m72            0.0000     5.2452E-01     3.2770   0.5220   106.6167
 61      8.3305     1.5347E+01    1.5866E+01    9.047900E+08  0.05000  1.676E-04    0   0.6110   age135_m72            0.0000     8.7387E-01     4.5497  -0.1172   101.9052
 62      0.0000     0.0000E+00    0.0000E+00    1.434000E+09  0.05000  8.837E-05    0   0.5874   age139_m72            0.0000     1.0946E+00     5.0700  -0.5594   100.7986
 63      0.0000     0.0000E+00    0.0000E+00    2.500000E+09  0.05000  4.233E-05    0   0.5598   age150_m72            0.0000     1.6719E+00     6.5100  -0.8185    97.2010
 64      0.0000     0.0000E+00    0.0000E+00    6.250000E+09  0.05000  1.435E-05    0   0.5249   age166_m72            0.0000     2.7884E+00     8.6600  -1.0000    85.1460
 65      0.0000     0.0000E+00    0.0000E+00    1.300000E+10  0.05000  6.513E-06    0   0.5036   age193_m72            0.0000     4.6372E+00    11.6004  -1.0000    75.7600
 66      0.0000     0.0000E+00    0.0000E+00    1.800000E+10  0.05000  4.527E-06    0   0.4945   age213_m72            0.0000     5.9905E+00    13.5061  -1.0000    70.2316


## Synthesis Results - Average & Chains ##

# j      x_j: min, <> & last-chain-values for 1 ...  7 chains
  1      0.0000      0.1218      0.0000      0.4687      0.0000      0.3793      0.5567      0.1738      0.0000
  2      0.0000      0.7487      1.1472      0.9906      0.3645      0.0000      0.7231      1.3081      0.0000
  3      1.9720      1.1550      0.0000      0.9398      1.2758      2.2548      1.8037      1.1651      0.0000
  4      3.6151      1.5237      1.5066      2.5593      1.7679      1.4595      2.7342      1.1604      1.4475
  5      0.0417      0.5316      0.0000      0.5464      0.0000      1.3982      0.1410      0.0000      0.0000
  6      0.6880      1.3095      1.2904      1.6797      2.3998      0.4620      0.0000      0.8922      0.5151
  7      0.0000      0.5085      0.6081      0.7683      2.0137      0.0000      0.1768      1.4413      1.2418
  8      3.9881      2.0186      2.0200      4.3975      1.9920      4.1312      3.0265      1.4307      1.2542
  9      3.7222      2.4244      2.0875      1.4317      2.7728      5.3735      2.2663      3.5433      1.6791
 10      5.1211      1.5894      1.7370      1.5883      1.0391      1.9081      1.2162      3.1560      4.3067
 11      0.0000      2.4198      1.7180      2.4317      2.5202      0.0000      0.8347      1.2393      1.4637
 12      6.8275      1.7668      3.2562      1.3242      1.7778      1.9994      2.8722      0.0000      2.3859
 13      0.7302      2.7385      0.0000      4.0916      2.0308      2.8762      2.7243      4.4822      2.6590
 14      4.6826      1.8284      2.4860      2.0654      2.7640      1.9929      2.5996      2.1275      1.7012
 15      1.1951      0.2748      0.0000      0.3302      0.0000      0.4278      0.0000      0.3481      1.3744
 16      0.0000      0.1345      0.0000      0.0000      0.0000      0.0668      0.0000      0.8365      0.0869
 17      0.0000      0.2381      0.0000      0.2675      0.0025      0.0118      0.1585      0.0000      0.0000
 18      0.0000      0.4893      0.1729      0.0000      0.0000      0.0000      0.0000      1.5897      0.7121
 19      1.1763      1.7613      2.0164      3.6289      1.7311      1.9766      1.9707      3.1186      0.0000
 20      0.0000      0.1846      0.0000      0.0000      0.0000      0.0000      0.6089      0.0000      1.4665
 21     22.1579     12.6511     19.3142     12.7335     13.8845     15.5122     12.7919     12.4115     16.0414
 22      0.0000      0.8188      0.0000      0.0000      0.0000      1.6037      1.8962      1.2855      2.3371
 23      0.0099      0.3551      0.0385      0.2101      0.1792      2.2182      2.3678      0.6469      0.1246
 24      0.0000      0.5309      0.6030      0.0000      1.0351      0.0000      1.5217      0.0000      0.1729
 25      0.0000      0.4209      0.0000      0.0000      0.0000      0.0000      0.3067      0.0393      0.0000
 26      1.6869      0.4585      0.0000      2.3743      0.0000      0.5246      0.0000      1.7962      2.5730
 27      0.0017      1.7467      1.4706      0.0000      0.0000      1.0995      0.0000      0.0000      0.9972
 28      0.0047      3.8981      6.1865      3.5430      3.6317      2.4647      1.6833      2.8590      2.2144
 29      0.0000      0.1307      0.0000      0.0000      0.0000      0.0000      0.0000      0.0000      0.0000
 30      0.0000      0.1451      0.0000      0.0000      0.0000      0.3655      0.0000      0.0000      0.0000
 31      0.0000      0.0703      0.0000      0.0000      0.0000      0.0000      0.0000      0.0000      0.0000
 32      0.0000      0.0762      0.0698      0.0000      0.0000      0.0000      0.0000      0.0000      0.5932
 33      0.0000      0.0274      0.0000      0.0000      0.3470      0.0000      0.0000      0.0000      0.0000
 34      0.0000      0.0241      0.3832      0.0000      0.0000      0.0000      0.0000      0.0000      0.0000
 35      0.0000      0.5944      1.2700      0.0000      0.0000      0.0996      0.0000      0.6800      0.3391
 36      0.0000      0.4293      0.0079      0.0000      0.8778      0.0382      0.0000      0.0000      0.0000
 37      0.0486      1.4546      1.5233      0.0000      1.9161      1.6702      2.2369      0.1962      0.7654
 38      0.0000      0.3053      0.0000      0.0000      0.0000      0.0000      0.0000      0.0000      0.4980
 39      0.0000      0.4268      0.0000      0.0000      0.0000      0.4832      0.4763      0.0000      0.0000
 40      0.0000      0.3196      0.0000      0.0000      0.3825      0.2168      0.0000      0.0000      0.0000
 41      0.0000      0.5657      0.0000      3.3482      0.0000      0.0000      0.0000      0.0000      0.0000
 42      0.0000      0.5514      1.6202      0.0000      1.5003      0.0000      0.0000      0.0000      0.0000
 43      0.0000      0.4927      0.0000      0.1937      0.0000      0.1242      0.0000      0.8447      0.0000
 44      0.3306      2.5852      2.9236      0.8897      0.0000      1.3916      3.1255      3.2209      0.6982
 45     16.9918     14.5271     14.0580     15.0713     18.8936     15.7624     15.3858     14.0398     16.2816
 46      3.2751      2.5322      3.0099      2.5091      3.2119      3.4574      1.2198      2.3745      2.1146
