###################################################################
## OUTPUT of StarlightChains_v04.for    [Cid@UFSC - 01/Apr/2007] ##
###################################################################

## Some input info
2011jf.txt                               [arq_obs]
Base.CB07.vall.4m                        [arq_base]
Masks.EmLines.NEW.gm                     [arq_masks]
StCv04.C11.config                        [arq_config]
   66                                    [N_base]
    0                                    [N_YAV_components = # of components with extra extinction!]
    0                                    [i_FitPowerLaw (1/0 = Yes/No)]
-9.99                                    [alpha_PowerLaw]
CCM                                      [red_law_option]
 1.458241                                [q_norm = A(l_norm)/A(V)]

## (Re)Sampling Parameters
 3741.00                                 [l_ini (A)]
 7218.00                                 [l_fin (A)]
    1.00                                 [dl    (A)]     (OBS: dl_cushion =    50.00 A)

## Normalization info
 4020.00                                 [l_norm (A) - for base]
 4010.00                                 [llow_norm (A) - window for f_obs]
 4060.00                                 [lupp_norm (A) - window for f_obs]
4.435166E-16                             [fobs_norm (in input units)]

## S/N
 3691.00                                 [llow_SN (A) - window for S/N]
 7268.00                                 [lupp_SN (A) - window for S/N]
   4.978                                 [S/N in S/N window]
   3.600                                 [S/N in norm. window]
  43.015                                 [S/N_err in S/N window]
  31.113                                 [S/N_err in norm. window]
  1.0000                                 [fscale_chi2]

## etc...
    -2007384                             [idum_orig]
  2385                                   [NOl_eff]
  2330                                   [Nl_eff]
    55    NSIGMA                         [Ntot_cliped & clip_method]
  2269890                                [Nglobal_steps]
   7                                     [N_chains]
  33                                     [NEX0s_base = N_base in EX0s-fits]
 0   0   1        7   2.0   5.835E+01    [Clip-Bug, RC-Crash & Burn-In warning-flags, n_censored_weights, wei_nsig_threshold & wei_limit]
    19     18.492     17.982      0.510  [idt_all, wdt_TotTime, wdt_UsrTime & wdt_SysTime (sec)]

## Synthesis Results - Best model ##

 9.85759E-01                             [chi2/Nl_eff]
     1.67642                             [adev (%)]

   109.74664                             [sum-of-x (%)]
 1.05010E-15                             [Flux_tot (units of input spectrum!)]
 4.08897E-11                             [Mini_tot (???)]
 2.08919E-11                             [Mcor_tot (???)]

 -45.76                                  [v0_min  (km/s)]
 181.89                                  [vd_min  (km/s)]
 0.5725                                  [AV_min  (mag)]
 0.0000                                  [YAV_min (mag)]

# j     x_j(%)      Mini_j(%)     Mcor_j(%)     age_j(yr)     Z_j      (L/M)_j    YAV?  Mstars   component_j        a/Fe...       SSP_chi2r SSP_adev(%)   SSP_AV   SSP_x(%)
  1      0.0000     0.0000E+00    0.0000E+00    1.000000E+06  0.00400  1.094E-02    0   1.0000   age020_m42            0.0000     1.1114E+01     5.5885   3.8566    94.8471
  2      0.0000     0.0000E+00    0.0000E+00    3.160000E+06  0.00400  4.007E-02    0   0.9999   age045_m42            0.0000     8.9872E+00     4.6112   3.1551   100.2645
  3      0.0000     0.0000E+00    0.0000E+00    5.010000E+06  0.00400  2.539E-02    0   0.9488   age055_m42            0.0000     9.7365E+00     4.9102   3.4619    98.3925
  4      0.0061     5.4271E-06    9.7934E-06    6.610000E+06  0.00400  2.620E-02    0   0.9220   age061_m42            0.0000     8.7167E+00     4.5962   3.0788   100.6448
  5      0.4678     8.2798E-04    1.4361E-03    1.000000E+07  0.00400  1.322E-02    0   0.8862   age070_m42            0.0000     8.8698E+00     4.9888   2.7671   104.2863
  6      1.5722     4.6670E-03    7.8290E-03    1.445000E+07  0.00400  7.883E-03    0   0.8571   age078_m42            0.0000     9.3870E+00     5.0688   3.0930   101.7047
  7      0.0000     0.0000E+00    0.0000E+00    2.512000E+07  0.00400  5.251E-03    0   0.8174   age090_m42            0.0000     9.1622E+00     5.1590   2.6328   105.0695
  8      0.4938     3.1667E-03    4.8659E-03    4.000000E+07  0.00400  3.649E-03    0   0.7851   age104_m42            0.0000     8.4106E+00     4.9523   2.4095   105.7374
  9      0.0000     0.0000E+00    0.0000E+00    5.500000E+07  0.00400  3.098E-03    0   0.7629   age110_m42            0.0000     8.0443E+00     4.6997   2.5831   104.7730
 10      0.0000     0.0000E+00    0.0000E+00    1.015200E+08  0.00400  2.228E-03    0   0.7207   age116_m42            0.0000     7.9266E+00     4.6701   2.6150   104.4007
 11      0.0000     0.0000E+00    0.0000E+00    2.861200E+08  0.00400  1.093E-03    0   0.6648   age125_m42            0.0000     7.9959E+00     5.1574   2.0473   107.7425
 12      0.0000     0.0000E+00    0.0000E+00    5.088000E+08  0.00400  6.597E-04    0   0.6365   age130_m42            0.0000     6.8858E+00     4.8541   2.0532   107.7933
 13      0.0000     0.0000E+00    0.0000E+00    1.434000E+09  0.00400  2.132E-04    0   0.5798   age139_m42            0.0000     3.1778E+00     3.3885   1.0792   109.9039
 14      0.0000     0.0000E+00    0.0000E+00    4.250000E+09  0.00400  5.895E-05    0   0.5377   age158_m42            0.0000     1.7146E+00     2.2624   0.6439   105.4408
 15      0.0021     1.4004E-03    1.4285E-03    7.500000E+09  0.00400  3.510E-05    0   0.5212   age171_m42            0.0000     1.7629E+00     2.4126   0.4654   104.3884
 16      0.8447     9.8586E-01    9.7133E-01    1.300000E+10  0.00400  2.005E-05    0   0.5034   age193_m42            0.0000     2.2008E+00     2.7027   0.3093   103.5223
 17     16.4298     2.5211E+01    2.4509E+01    1.800000E+10  0.00400  1.525E-05    0   0.4967   age213_m42            0.0000     2.1214E+00     2.6099   0.2826   103.1994
 18      1.3910     2.6292E-03    5.1460E-03    1.000000E+06  0.00800  1.238E-02    0   1.0000   age020_m52            0.0000     1.1085E+01     5.5897   3.8529    95.0309
 19      3.2081     2.4421E-03    4.7635E-03    3.160000E+06  0.00800  3.074E-02    0   0.9966   age045_m52            0.0000     1.0909E+01     5.5001   3.7775    95.7934
 20      0.8469     7.4284E-04    1.3729E-03    5.010000E+06  0.00800  2.668E-02    0   0.9443   age055_m52            0.0000     9.7481E+00     4.9845   3.5396    97.7205
 21      0.0000     0.0000E+00    0.0000E+00    6.610000E+06  0.00800  2.136E-02    0   0.9177   age061_m52            0.0000     6.4267E+00     4.3698   2.2564   105.9337
 22      0.0000     0.0000E+00    0.0000E+00    1.000000E+07  0.00800  1.215E-02    0   0.8827   age070_m52            0.0000     9.4140E+00     5.3205   2.9366   104.6035
 23      0.0149     4.0088E-05    6.7100E-05    1.445000E+07  0.00800  8.717E-03    0   0.8552   age078_m52            0.0000     8.9237E+00     4.9487   3.0568   103.1715
 24      0.9953     4.1650E-03    6.6535E-03    2.512000E+07  0.00800  5.592E-03    0   0.8162   age090_m52            0.0000     8.8133E+00     5.1509   2.6963   106.3672
 25      1.0106     6.0699E-03    9.3151E-03    4.000000E+07  0.00800  3.896E-03    0   0.7841   age104_m52            0.0000     8.2173E+00     4.9589   2.6215   106.6087
 26      0.0000     0.0000E+00    0.0000E+00    1.015200E+08  0.00800  2.148E-03    0   0.7226   age116_m52            0.0000     7.4726E+00     4.6517   2.5757   105.6264
 27      0.0000     0.0000E+00    0.0000E+00    2.861200E+08  0.00800  9.925E-04    0   0.6683   age125_m52            0.0000     6.3118E+00     4.7117   2.1162   108.8658
 28      0.0000     0.0000E+00    0.0000E+00    9.047900E+08  0.00800  3.141E-04    0   0.6138   age135_m52            0.0000     3.3936E+00     3.6367   1.3392   112.3006
 29      0.0000     0.0000E+00    0.0000E+00    1.434000E+09  0.00800  1.719E-04    0   0.5853   age139_m52            0.0000     2.0094E+00     2.6531   0.7523   110.4306
 30      0.0000     0.0000E+00    0.0000E+00    2.500000E+09  0.00800  7.872E-05    0   0.5600   age150_m52            0.0000     1.6844E+00     2.4982   0.4963   106.8368
 31      0.0000     0.0000E+00    0.0000E+00    4.250000E+09  0.00800  4.336E-05    0   0.5426   age158_m52            0.0000     1.8541E+00     2.5868   0.4804   105.8666
 32      0.0000     0.0000E+00    0.0000E+00    6.250000E+09  0.00800  3.159E-05    0   0.5319   age166_m52            0.0000     2.6204E+00     3.1776   0.2911   105.3171
 33     10.6355     1.8286E+01    1.8156E+01    1.300000E+10  0.00800  1.361E-05    0   0.5073   age193_m52            0.0000     4.1979E+00     4.0632  -0.1625   103.9745
 34      0.0000     0.0000E+00    0.0000E+00    1.800000E+10  0.00800  9.886E-06    0   0.4990   age213_m52            0.0000     5.9690E+00     4.9008  -0.2548   102.8073
 35      2.3090     3.4994E-03    6.8491E-03    1.000000E+06  0.02000  1.544E-02    0   1.0000   age020_m62            0.0000     1.1174E+01     5.6299   3.8470    95.3351
 36      0.8501     5.2876E-04    1.0202E-03    3.160000E+06  0.02000  3.762E-02    0   0.9858   age045_m62            0.0000     1.1219E+01     5.6089   3.7871    96.1268
 37      0.0000     0.0000E+00    0.0000E+00    5.010000E+06  0.02000  3.296E-02    0   0.9342   age055_m62            0.0000     9.2710E+00     4.7347   3.4295    99.2709
 38      7.0381     1.4272E-02    2.4751E-02    8.710000E+06  0.02000  1.154E-02    0   0.8861   age067_m62            0.0000     1.7315E+01     8.4829   2.3245   110.9690
 39      0.0000     0.0000E+00    0.0000E+00    1.445000E+07  0.02000  7.663E-03    0   0.8472   age078_m62            0.0000     1.0422E+01     6.1015   2.5670   107.9569
 40      0.7719     3.9856E-03    6.3177E-03    2.512000E+07  0.02000  4.532E-03    0   0.8099   age090_m62            0.0000     1.1332E+01     6.3209   2.5602   107.6674
 41      0.0000     0.0000E+00    0.0000E+00    5.500000E+07  0.02000  2.733E-03    0   0.7595   age110_m62            0.0000     7.9543E+00     4.8895   2.5995   106.0668
 42      0.0000     0.0000E+00    0.0000E+00    1.609000E+08  0.02000  1.369E-03    0   0.6985   age120_m62            0.0000     7.3054E+00     4.7614   2.4656   107.6176
 43      0.0000     0.0000E+00    0.0000E+00    2.861200E+08  0.02000  9.013E-04    0   0.6714   age125_m62            0.0000     6.7669E+00     4.8128   2.2277   110.0315
 44      0.1551     7.2193E-03    9.1122E-03    5.088000E+08  0.02000  5.028E-04    0   0.6449   age130_m62            0.0000     5.2223E+00     4.4128   1.8759   111.6568
 45      0.0000     0.0000E+00    0.0000E+00    9.047900E+08  0.02000  2.428E-04    0   0.6179   age135_m62            0.0000     2.4415E+00     2.9430   1.2935   110.9060
 46      0.1019     1.8887E-02    2.1840E-02    1.434000E+09  0.02000  1.263E-04    0   0.5908   age139_m62            0.0000     1.6507E+00     2.4543   0.8463   109.4403
 47      0.0000     0.0000E+00    0.0000E+00    2.500000E+09  0.02000  5.985E-05    0   0.5673   age150_m62            0.0000     2.3849E+00     3.1012   0.4923   107.4168
 48      1.8767     1.3426E+00    1.4368E+00    4.250000E+09  0.02000  3.271E-05    0   0.5468   age158_m62            0.0000     4.1858E+00     4.1852   0.2049   105.7052
 49      3.7521     6.4560E+00    6.5289E+00    1.000000E+10  0.02000  1.360E-05    0   0.5167   age181_m62            0.0000     7.5344E+00     5.6176  -0.1184   104.2100
 50      1.0231     3.3607E+00    3.2973E+00    1.800000E+10  0.02000  7.124E-06    0   0.5013   age213_m62            0.0000     1.0821E+01     6.7434  -0.3061   102.4725
 51      0.0000     0.0000E+00    0.0000E+00    1.000000E+06  0.05000  2.592E-02    0   0.9998   age020_m72            0.0000     1.1417E+01     5.7488   3.8360    95.4659
 52      3.0082     1.4529E-03    2.7234E-03    3.160000E+06  0.05000  4.845E-02    0   0.9577   age045_m72            0.0000     1.0619E+01     5.2647   3.6795    96.9833
 53      0.0000     0.0000E+00    0.0000E+00    5.010000E+06  0.05000  3.072E-02    0   0.9147   age055_m72            0.0000     1.0062E+01     5.6763   3.1793   102.8149
 54      0.0005     7.8227E-07    1.3591E-06    6.610000E+06  0.05000  1.455E-02    0   0.8877   age061_m72            0.0000     2.9738E+01    11.1861   2.3843   112.5512
 55      0.0000     0.0000E+00    0.0000E+00    1.000000E+07  0.05000  9.074E-03    0   0.8524   age070_m72            0.0000     1.2251E+01     6.4100   3.3902   101.8689
 56      0.0000     0.0000E+00    0.0000E+00    2.512000E+07  0.05000  4.250E-03    0   0.7902   age090_m72            0.0000     1.0917E+01     5.8844   3.0788   103.8623
 57      0.0000     0.0000E+00    0.0000E+00    4.000000E+07  0.05000  3.087E-03    0   0.7618   age104_m72            0.0000     1.1409E+01     6.0763   2.8485   105.6759
 58      0.0000     0.0000E+00    0.0000E+00    1.015200E+08  0.05000  1.700E-03    0   0.7096   age116_m72            0.0000     8.3386E+00     5.1421   2.6017   107.5677
 59      0.0043     1.3762E-04    1.7865E-04    2.861200E+08  0.05000  7.384E-04    0   0.6633   age125_m72            0.0000     5.6370E+00     4.4893   2.1080   110.9105
 60      7.6280     4.6740E-01    5.8291E-01    5.088000E+08  0.05000  3.819E-04    0   0.6372   age130_m72            0.0000     3.1305E+00     3.3755   1.6289   111.9838
 61     14.4604     2.0190E+00    2.4144E+00    9.047900E+08  0.05000  1.676E-04    0   0.6110   age135_m72            0.0000     2.4602E+00     3.2265   0.9468   109.4293
 62     14.8428     3.9304E+00    4.5186E+00    1.434000E+09  0.05000  8.837E-05    0   0.5874   age139_m72            0.0000     2.6280E+00     3.2647   0.4956   108.7900
 63      3.0903     1.7084E+00    1.8718E+00    2.500000E+09  0.05000  4.233E-05    0   0.5598   age150_m72            0.0000     5.0154E+00     4.5792   0.2111   106.3029
 64      4.6911     7.6498E+00    7.8589E+00    6.250000E+09  0.05000  1.435E-05    0   0.5249   age166_m72            0.0000     8.6436E+00     6.0228  -0.2093   103.5076
 65      2.3257     8.3559E+00    8.2359E+00    1.300000E+10  0.05000  6.513E-06    0   0.5036   age193_m72            0.0000     1.3382E+01     7.4721  -0.4616   103.3345
 66      3.8984     2.0151E+01    1.9503E+01    1.800000E+10  0.05000  4.527E-06    0   0.4945   age213_m72            0.0000     1.6789E+01     8.3485  -0.6037   102.3328


## Synthesis Results - Average & Chains ##

# j      x_j: min, <> & last-chain-values for 1 ...  7 chains
  1      0.0000      0.0367      0.1278      0.1361      0.0000      0.0000      0.1149      0.0000      0.0000
  2      0.0000      0.2239      0.3803      0.4265      0.0000      0.0000      0.1907      0.2041      0.0000
  3      0.0000      0.2360      0.0000      0.3404      0.2485      0.4037      0.0000      0.0192      0.2389
  4      0.0061      0.9492      0.9324      1.0673      1.2759      0.8374      0.8848      1.0899      0.8368
  5      0.4678      1.1634      1.0590      1.1282      1.0315      1.6832      1.5216      0.9066      1.3442
  6      1.5722      1.6723      1.3921      1.7559      1.7132      1.5144      1.8475      1.8259      2.0319
  7      0.0000      0.0727      0.2656      0.0000      0.0000      0.3451      0.1445      0.0000      0.0000
  8      0.4938      1.1874      0.8715      0.9701      0.9679      1.0581      1.2383      1.2615      1.2425
  9      0.0000      0.1376      0.0000      0.0000      0.1834      0.2147      0.1020      0.0000      0.0000
 10      0.0000      0.0409      0.0000      0.0000      0.3199      0.0000      0.0000      0.0000      0.0000
 11      0.0000      0.0675      0.0000      0.0000      0.0000      0.0800      0.0279      0.0000      0.0000
 12      0.0000      0.0434      0.0000      0.0000      0.0000      0.0000      0.1030      0.0000      0.0000
 13      0.0000      1.0259      0.9006      0.7204      0.0000      0.9442      0.0000      1.0876      1.0349
 14      0.0000      0.4187      1.1729      0.2129      0.2252      0.0393      0.7051      0.0000      0.5868
 15      0.0021      0.4794      1.3633      0.2271      1.0907      0.0863      0.4095      0.0000      0.4910
 16      0.8447      3.3360      1.7881      1.8509      3.1937      2.4612      2.8744      3.1554      3.1236
 17     16.4298     17.3219     16.2084     17.1280     17.3136     17.7806     16.9278     17.0410     16.9521
 18      1.3910      0.8214      0.8241      0.8223      1.2187      0.8429      0.8940      0.8011      0.9112
 19      3.2081      2.6629      2.6916      2.8298      2.6421      2.7214      3.2174      2.8388      2.6824
 20      0.8469      0.9805      1.0082      1.2599      1.0093      1.0521      0.9342      1.2411      0.8536
 21      0.0000      0.0506      0.0272      0.0000      0.0867      0.0000      0.0000      0.0000      0.1128
 22      0.0000      0.5457      0.5996      0.4045      0.1364      0.9166      0.2911      0.4944      0.5654
 23      0.0149      0.5911      0.6560      0.5475      0.4371      0.0858      0.0000      0.7513      1.2040
 24      0.9953      0.9653      0.8160      0.7955      1.2133      0.8844      0.8479      0.8970      0.2983
 25      1.0106      0.8513      1.2670      0.8679      0.6941      1.0533      0.8699      0.8978      0.8481
 26      0.0000      0.0522      0.0000      0.0000      0.0000      0.0000      0.0171      0.0000      0.0000
 27      0.0000      0.0485      0.1436      0.0418      0.0000      0.1906      0.0000      0.0000      0.0000
 28      0.0000      0.3081      0.0709      0.3680      0.0000      0.3481      0.0941      0.3240      0.3788
 29      0.0000      0.1704      0.0363      0.0000      0.0000      0.0000      0.0000      0.0000      0.0000
 30      0.0000      0.2207      0.0100      0.0000      0.0000      0.0000      0.0000      0.0000      0.0000
 31      0.0000      0.2373      0.0000      0.0000      0.0301      0.0000      0.0000      0.0462      0.0000
 32      0.0000      0.1889      0.0926      0.0000      0.0000      0.0000      0.0000      0.3485      0.0018
 33     10.6355      9.9177     10.1244     10.4110     10.1968      9.5603      9.7760     10.5251      9.9393
 34      0.0000      0.0498      0.0000      0.1561      0.0000      0.1236      0.0000      0.0000      0.0000
 35      2.3090      1.3867      1.4256      1.5431      1.5056      1.2871      1.3263      1.5193      1.5273
 36      0.8501      0.7164      0.6460      0.6653      0.7770      0.5562      0.9857      0.8224      0.8282
 37      0.0000      0.1013      0.5326      0.2289      0.0000      0.0000      0.0000      0.0000      0.0000
 38      7.0381      3.4205      3.2672      3.5695      3.7042      3.5250      3.7054      3.4186      3.9644
 39      0.0000      0.0447      0.0000      0.1087      0.0000      0.0338      0.0000      0.1479      0.0000
 40      0.7719      1.2636      1.4762      1.2072      1.2379      0.9758      1.6576      1.3775      1.1233
 41      0.0000      0.1076      0.4058      0.0000      0.0000      0.0000      0.2363      0.0000      0.0000
 42      0.0000      0.0368      0.0000      0.0000      0.0000      0.0000      0.1801      0.0000      0.0376
 43      0.0000      0.0567      0.0000      0.0000      0.0000      0.0000      0.0000      0.0000      0.0000
 44      0.1551      0.2157      0.1799      0.0000      0.5355      0.2951      0.2669      0.6248      0.2181
 45      0.0000      0.4226      0.3876      0.0000      0.2879      0.5355      0.9193      0.8744      0.5339
 46      0.1019      1.3487      0.5542      1.9461      1.1867      1.2029      1.7367      1.8574      0.6024
