###################################################################
## OUTPUT of StarlightChains_v04.for    [Cid@UFSC - 01/Apr/2007] ##
###################################################################

## Some input info
2012gn.txt                               [arq_obs]
Base.CB07.vall.4m                        [arq_base]
Masks.EmLines.NEW.gm                     [arq_masks]
StCv04.C11.config                        [arq_config]
   66                                    [N_base]
    0                                    [N_YAV_components = # of components with extra extinction!]
    0                                    [i_FitPowerLaw (1/0 = Yes/No)]
-9.99                                    [alpha_PowerLaw]
CCM                                      [red_law_option]
 1.458241                                [q_norm = A(l_norm)/A(V)]

## (Re)Sampling Parameters
 3741.00                                 [l_ini (A)]
 7218.00                                 [l_fin (A)]
    1.00                                 [dl    (A)]     (OBS: dl_cushion =    50.00 A)

## Normalization info
 4020.00                                 [l_norm (A) - for base]
 4010.00                                 [llow_norm (A) - window for f_obs]
 4060.00                                 [lupp_norm (A) - window for f_obs]
7.066037E-16                             [fobs_norm (in input units)]

## S/N
 3691.00                                 [llow_SN (A) - window for S/N]
 7268.00                                 [lupp_SN (A) - window for S/N]
   6.664                                 [S/N in S/N window]
   8.505                                 [S/N in norm. window]
  15.133                                 [S/N_err in S/N window]
  19.313                                 [S/N_err in norm. window]
  1.0000                                 [fscale_chi2]

## etc...
    -2007398                             [idum_orig]
  2385                                   [NOl_eff]
  2374                                   [Nl_eff]
    11    NSIGMA                         [Ntot_cliped & clip_method]
  1643530                                [Nglobal_steps]
   7                                     [N_chains]
  22                                     [NEX0s_base = N_base in EX0s-fits]
 0   0   1        7   2.0   5.931E+01    [Clip-Bug, RC-Crash & Burn-In warning-flags, n_censored_weights, wei_nsig_threshold & wei_limit]
    16     15.400     14.890      0.510  [idt_all, wdt_TotTime, wdt_UsrTime & wdt_SysTime (sec)]

## Synthesis Results - Best model ##

 3.51852E-01                             [chi2/Nl_eff]
     2.62200                             [adev (%)]

   101.81155                             [sum-of-x (%)]
 1.22874E-15                             [Flux_tot (units of input spectrum!)]
 4.10130E-12                             [Mini_tot (???)]
 2.37163E-12                             [Mcor_tot (???)]

 -44.35                                  [v0_min  (km/s)]
 168.65                                  [vd_min  (km/s)]
 0.3986                                  [AV_min  (mag)]
 0.0000                                  [YAV_min (mag)]

# j     x_j(%)      Mini_j(%)     Mcor_j(%)     age_j(yr)     Z_j      (L/M)_j    YAV?  Mstars   component_j        a/Fe...       SSP_chi2r SSP_adev(%)   SSP_AV   SSP_x(%)
  1      0.0000     0.0000E+00    0.0000E+00    1.000000E+06  0.00400  1.094E-02    0   1.0000   age020_m42            0.0000     1.1877E+00     6.1722   2.6940    79.9246
  2      0.0000     0.0000E+00    0.0000E+00    3.160000E+06  0.00400  4.007E-02    0   0.9999   age045_m42            0.0000     7.8339E-01     4.6604   1.8988    88.5535
  3      0.0000     0.0000E+00    0.0000E+00    5.010000E+06  0.00400  2.539E-02    0   0.9488   age055_m42            0.0000     8.8940E-01     5.1698   2.2418    85.3286
  4      0.0000     0.0000E+00    0.0000E+00    6.610000E+06  0.00400  2.620E-02    0   0.9220   age061_m42            0.0000     7.0141E-01     4.3631   1.8070    89.5148
  5      0.0000     0.0000E+00    0.0000E+00    1.000000E+07  0.00400  1.322E-02    0   0.8862   age070_m42            0.0000     6.1963E-01     3.8906   1.4544    94.1107
  6      0.0000     0.0000E+00    0.0000E+00    1.445000E+07  0.00400  7.883E-03    0   0.8571   age078_m42            0.0000     7.3415E-01     4.3795   1.8070    90.6050
  7      4.4970     2.5201E-01    3.5623E-01    2.512000E+07  0.00400  5.251E-03    0   0.8174   age090_m42            0.0000     6.1342E-01     3.7768   1.3076    95.3314
  8     10.9935     8.8655E-01    1.2037E+00    4.000000E+07  0.00400  3.649E-03    0   0.7851   age104_m42            0.0000     5.3489E-01     3.4830   1.0766    96.3784
  9      3.6552     3.4719E-01    4.5805E-01    5.500000E+07  0.00400  3.098E-03    0   0.7629   age110_m42            0.0000     5.0186E-01     3.4111   1.2475    95.8609
 10      3.5890     4.7402E-01    5.9079E-01    1.015200E+08  0.00400  2.228E-03    0   0.7207   age116_m42            0.0000     5.2127E-01     3.4518   1.2766    95.8137
 11      0.0000     0.0000E+00    0.0000E+00    2.861200E+08  0.00400  1.093E-03    0   0.6648   age125_m42            0.0000     5.9390E-01     3.2865   0.6473   101.5657
 12      0.0000     0.0000E+00    0.0000E+00    5.088000E+08  0.00400  6.597E-04    0   0.6365   age130_m42            0.0000     5.8568E-01     3.3728   0.6631   101.4033
 13      4.9743     6.8657E+00    6.8840E+00    1.434000E+09  0.00400  2.132E-04    0   0.5798   age139_m42            0.0000     4.8331E-01     3.1043  -0.2862   102.3716
 14      2.0355     1.0161E+01    9.4479E+00    4.250000E+09  0.00400  5.895E-05    0   0.5377   age158_m42            0.0000     7.2288E-01     4.1178  -0.6381    94.5136
 15      3.4023     2.8524E+01    2.5709E+01    7.500000E+09  0.00400  3.510E-05    0   0.5212   age171_m42            0.0000     8.8241E-01     4.6630  -0.8027    92.9663
 16      0.6555     9.6199E+00    8.3745E+00    1.300000E+10  0.00400  2.005E-05    0   0.5034   age193_m42            0.0000     1.0561E+00     5.2170  -0.9477    91.6985
 17      0.0000     0.0000E+00    0.0000E+00    1.800000E+10  0.00400  1.525E-05    0   0.4967   age213_m42            0.0000     1.0467E+00     5.1592  -0.9725    91.3312
 18      0.0000     0.0000E+00    0.0000E+00    1.000000E+06  0.00800  1.238E-02    0   1.0000   age020_m52            0.0000     1.1833E+00     6.1637   2.6904    80.0831
 19      0.0000     0.0000E+00    0.0000E+00    3.160000E+06  0.00800  3.074E-02    0   0.9966   age045_m52            0.0000     1.1327E+00     6.0270   2.6113    80.9133
 20      0.0000     0.0000E+00    0.0000E+00    5.010000E+06  0.00800  2.668E-02    0   0.9443   age055_m52            0.0000     9.1554E-01     5.2921   2.3304    84.2575
 21      0.4039     5.5639E-03    8.8298E-03    6.610000E+06  0.00800  2.136E-02    0   0.9177   age061_m52            0.0000     5.9450E-01     3.8047   0.9824    93.8720
 22      0.0000     0.0000E+00    0.0000E+00    1.000000E+07  0.00800  1.215E-02    0   0.8827   age070_m52            0.0000     7.6038E-01     4.1745   1.6224    94.2373
 23      0.4447     1.5013E-02    2.2203E-02    1.445000E+07  0.00800  8.717E-03    0   0.8552   age078_m52            0.0000     6.7449E-01     4.1492   1.7635    92.2369
 24      1.5101     7.9468E-02    1.1217E-01    2.512000E+07  0.00800  5.592E-03    0   0.8162   age090_m52            0.0000     6.1653E-01     3.6577   1.3598    96.9769
 25      2.1096     1.5934E-01    2.1606E-01    4.000000E+07  0.00800  3.896E-03    0   0.7841   age104_m52            0.0000     5.4937E-01     3.3941   1.2689    98.0532
 26      4.0121     5.4964E-01    6.8683E-01    1.015200E+08  0.00800  2.148E-03    0   0.7226   age116_m52            0.0000     4.8181E-01     3.2254   1.2260    97.3015
 27      0.0000     0.0000E+00    0.0000E+00    2.861200E+08  0.00800  9.925E-04    0   0.6683   age125_m52            0.0000     5.7131E-01     3.2865   0.7230   102.5135
 28      0.0000     0.0000E+00    0.0000E+00    9.047900E+08  0.00800  3.141E-04    0   0.6138   age135_m52            0.0000     7.1002E-01     3.8247  -0.0474   105.6881
 29      0.0000     0.0000E+00    0.0000E+00    1.434000E+09  0.00800  1.719E-04    0   0.5853   age139_m52            0.0000     7.8240E-01     3.9795  -0.5999   102.1446
 30      0.0000     0.0000E+00    0.0000E+00    2.500000E+09  0.00800  7.872E-05    0   0.5600   age150_m52            0.0000     9.7852E-01     4.9127  -0.7900    95.9872
 31      0.0000     0.0000E+00    0.0000E+00    4.250000E+09  0.00800  4.336E-05    0   0.5426   age158_m52            0.0000     1.0028E+00     4.9818  -0.7960    94.6765
 32      0.0000     0.0000E+00    0.0000E+00    6.250000E+09  0.00800  3.159E-05    0   0.5319   age166_m52            0.0000     1.2897E+00     5.7414  -0.9694    93.5534
 33      0.0000     0.0000E+00    0.0000E+00    1.300000E+10  0.00800  1.361E-05    0   0.5073   age193_m52            0.0000     2.8578E+00     9.6569  -1.0000    74.5089
 34      0.0000     0.0000E+00    0.0000E+00    1.800000E+10  0.00800  9.886E-06    0   0.4990   age213_m52            0.0000     3.6200E+00    11.0090  -1.0000    70.3232
 35      0.0013     2.4469E-05    4.2315E-05    1.000000E+06  0.02000  1.544E-02    0   1.0000   age020_m62            0.0000     1.1891E+00     6.1933   2.6881    80.2005
 36      0.0000     0.0000E+00    0.0000E+00    3.160000E+06  0.02000  3.762E-02    0   0.9858   age045_m62            0.0000     1.1696E+00     6.1543   2.6269    80.9411
 37      0.0000     0.0000E+00    0.0000E+00    5.010000E+06  0.02000  3.296E-02    0   0.9342   age055_m62            0.0000     8.2360E-01     4.9218   2.1957    86.7247
 38     12.0275     3.0670E-01    4.6997E-01    8.710000E+06  0.02000  1.154E-02    0   0.8861   age067_m62            0.0000     2.2511E+00     6.7624   0.9829   100.0185
 39      0.0000     0.0000E+00    0.0000E+00    1.445000E+07  0.02000  7.663E-03    0   0.8472   age078_m62            0.0000     1.1141E+00     4.5882   1.2263    98.0860
 40      0.0000     0.0000E+00    0.0000E+00    2.512000E+07  0.02000  4.532E-03    0   0.8099   age090_m62            0.0000     1.2016E+00     4.6563   1.2009    98.6426
 41      0.0000     0.0000E+00    0.0000E+00    5.500000E+07  0.02000  2.733E-03    0   0.7595   age110_m62            0.0000     5.5340E-01     3.4401   1.2579    97.0353
 42      0.0298     6.4160E-03    7.7500E-03    1.609000E+08  0.02000  1.369E-03    0   0.6985   age120_m62            0.0000     5.0847E-01     3.2109   1.0948   100.2099
 43      6.8436     2.2344E+00    2.5943E+00    2.861200E+08  0.02000  9.013E-04    0   0.6714   age125_m62            0.0000     5.7843E-01     3.4143   0.8409   103.4354
 44      0.0000     0.0000E+00    0.0000E+00    5.088000E+08  0.02000  5.028E-04    0   0.6449   age130_m62            0.0000     7.6399E-01     4.0175   0.4988   104.7675
 45      0.0000     0.0000E+00    0.0000E+00    9.047900E+08  0.02000  2.428E-04    0   0.6179   age135_m62            0.0000     7.8677E-01     4.2161  -0.0478   102.3121
 46      0.0000     0.0000E+00    0.0000E+00    1.434000E+09  0.02000  1.263E-04    0   0.5908   age139_m62            0.0000     8.9558E-01     4.5715  -0.4575    99.1712
 47      0.0000     0.0000E+00    0.0000E+00    2.500000E+09  0.02000  5.985E-05    0   0.5673   age150_m62            0.0000     1.2641E+00     5.6593  -0.7656    95.3336
 48      0.0000     0.0000E+00    0.0000E+00    4.250000E+09  0.02000  3.271E-05    0   0.5468   age158_m62            0.0000     1.7893E+00     6.9985  -1.0000    91.5639
 49      0.0000     0.0000E+00    0.0000E+00    1.000000E+10  0.02000  1.360E-05    0   0.5167   age181_m62            0.0000     3.1597E+00     9.8949  -1.0000    76.6448
 50      0.0000     0.0000E+00    0.0000E+00    1.800000E+10  0.02000  7.124E-06    0   0.5013   age213_m62            0.0000     4.5280E+00    12.2258  -1.0000    68.4505
 51      0.0000     0.0000E+00    0.0000E+00    1.000000E+06  0.05000  2.592E-02    0   0.9998   age020_m72            0.0000     1.2246E+00     6.3040   2.6830    80.0499
 52      0.0000     0.0000E+00    0.0000E+00    3.160000E+06  0.05000  4.845E-02    0   0.9577   age045_m72            0.0000     1.0391E+00     5.7342   2.4953    82.7017
 53      0.0000     0.0000E+00    0.0000E+00    5.010000E+06  0.05000  3.072E-02    0   0.9147   age055_m72            0.0000     1.2577E+00     5.0723   1.8700    92.1551
 54      0.0000     0.0000E+00    0.0000E+00    6.610000E+06  0.05000  1.455E-02    0   0.8877   age061_m72            0.0000     6.0257E+00     9.2980   0.9587   104.2450
 55      0.0000     0.0000E+00    0.0000E+00    1.000000E+07  0.05000  9.074E-03    0   0.8524   age070_m72            0.0000     2.3309E+00     5.9072   2.0303    93.0979
 56      0.0000     0.0000E+00    0.0000E+00    2.512000E+07  0.05000  4.250E-03    0   0.7902   age090_m72            0.0000     1.4318E+00     4.7441   1.7042    95.9891
 57      0.0000     0.0000E+00    0.0000E+00    4.000000E+07  0.05000  3.087E-03    0   0.7618   age104_m72            0.0000     1.4584E+00     4.5963   1.4488    98.8493
 58      0.0000     0.0000E+00    0.0000E+00    1.015200E+08  0.05000  1.700E-03    0   0.7096   age116_m72            0.0000     6.0044E-01     3.3095   1.2145   100.7373
 59      1.6800     6.6951E-01    7.6796E-01    2.861200E+08  0.05000  7.384E-04    0   0.6633   age125_m72            0.0000     6.4969E-01     3.6621   0.7230   104.3289
 60     29.9796     2.3100E+01    2.5455E+01    5.088000E+08  0.05000  3.819E-04    0   0.6372   age130_m72            0.0000     7.7306E-01     4.1928   0.2868   103.4431
 61      8.9670     1.5744E+01    1.6635E+01    9.047900E+08  0.05000  1.676E-04    0   0.6110   age135_m72            0.0000     1.2348E+00     5.6272  -0.3147    97.4058
 62      0.0000     0.0000E+00    0.0000E+00    1.434000E+09  0.05000  8.837E-05    0   0.5874   age139_m72            0.0000     1.4156E+00     5.9678  -0.7647    96.6713
 63      0.0000     0.0000E+00    0.0000E+00    2.500000E+09  0.05000  4.233E-05    0   0.5598   age150_m72            0.0000     2.0200E+00     7.4147  -1.0000    92.4126
 64      0.0000     0.0000E+00    0.0000E+00    6.250000E+09  0.05000  1.435E-05    0   0.5249   age166_m72            0.0000     3.7563E+00    11.0499  -1.0000    72.6821
 65      0.0000     0.0000E+00    0.0000E+00    1.300000E+10  0.05000  6.513E-06    0   0.5036   age193_m72            0.0000     5.7949E+00    14.2758  -1.0000    63.6857
 66      0.0000     0.0000E+00    0.0000E+00    1.800000E+10  0.05000  4.527E-06    0   0.4945   age213_m72            0.0000     7.1593E+00    16.1777  -1.0000    58.5572


## Synthesis Results - Average & Chains ##

# j      x_j: min, <> & last-chain-values for 1 ...  7 chains
  1      0.0000      0.1004      0.0000      0.0000      0.0000      0.6445      0.1962      0.0000      0.0000
  2      0.0000      0.3918      0.0000      0.0000      0.4109      0.3798      0.0000      0.0149      0.0000
  3      0.0000      0.7146      0.5269      1.5283      1.5902      0.0000      0.2542      0.0000      0.0000
  4      0.0000      0.3112      0.6851      0.1235      1.8312      0.0000      0.0000      0.0000      0.7254
  5      0.0000      0.3243      0.0000      1.6201      0.6867      0.8987      0.2616      0.0000      0.1963
  6      0.0000      0.2446      0.7339      0.4008      0.0000      0.0000      1.4270      0.3386      0.3393
  7      4.4970      1.1142      0.0000      0.9103      0.0000      1.8251      0.8548      4.0089      2.1632
  8     10.9935      5.7330      6.3559      7.4408      7.1876      5.5736      5.7745      6.8111      7.0876
  9      3.6552      2.7082      3.0624      2.0422      3.3529      4.2959      4.8813      2.7248      2.5155
 10      3.5890      2.6936      3.1435      3.1044      1.6680      3.1037      3.2737      3.5959      3.1863
 11      0.0000      0.9754      0.0000      0.0000      0.4110      0.0000      1.0738      0.1705      0.0000
 12      0.0000      0.7599      0.0000      0.0000      0.0000      0.0000      0.0000      1.4979      0.0000
 13      4.9743      2.7221      4.1591      2.7193      2.8410      3.0167      3.0723      3.5650      2.6783
 14      2.0355      0.8638      1.0942      0.9745      0.3987      0.0000      1.1704      1.1217      0.7747
 15      3.4023      2.3957      2.5859      3.3503      3.0068      2.3826      2.1084      2.4749      2.7890
 16      0.6555      1.3823      1.3267      1.1063      1.7262      1.3552      1.2311      1.2273      1.7794
 17      0.0000      0.0873      0.0000      0.0000      0.0843      0.2890      0.0000      0.1100      0.0000
 18      0.0000      0.1202      0.0000      0.3177      0.0000      0.3792      0.2742      0.0000      0.0176
 19      0.0000      0.1958      0.0000      0.0516      0.0000      0.0000      0.0000      0.0000      0.0000
 20      0.0000      0.1188      0.0000      0.0000      0.0000      0.2485      0.0000      0.0407      0.3984
 21      0.4039      3.4623      3.7189      1.3143      2.8208      3.6066      3.7984      5.6251      1.3167
 22      0.0000      0.4752      1.4367      0.0000      1.2323      0.0000      0.7719      0.0000      0.0000
 23      0.4447      0.2402      0.4562      0.1702      0.0000      1.4164      0.0000      0.0000      0.6691
 24      1.5101      2.3711      2.5219      2.3080      1.9124      2.4722      1.9338      1.9679      2.0729
 25      2.1096      2.5225      2.8996      4.7734      2.6093      2.4589      3.2623      1.4791      2.1359
 26      4.0121      4.3881      5.1366      5.1348      1.2982      3.9425      4.1324      3.9381      4.0567
 27      0.0000      0.6217      0.2016      0.0000      0.1651      0.0000      0.0000      0.0000      0.0000
 28      0.0000      0.2693      0.1531      0.0229      0.0568      0.0000      0.0000      0.0000      0.0004
 29      0.0000      0.0640      0.0000      0.0000      0.0000      0.0000      0.0000      0.0000      0.0000
 30      0.0000      0.0658      0.0000      0.0000      0.0000      0.6767      0.0000      0.0000      0.0000
 31      0.0000      0.2380      0.3499      0.0000      0.1191      0.6403      0.2183      0.0000      0.0000
 32      0.0000      0.2362      0.0000      0.0000      0.1968      0.5816      0.0000      0.0169      0.0000
 33      0.0000      0.0625      0.0000      0.5033      0.0000      0.2868      0.2487      0.0279      0.0000
 34      0.0000      0.0468      0.0000      0.0000      0.0000      0.0000      0.3632      0.1654      0.0000
 35      0.0013      0.1504      0.0000      0.7803      0.0000      0.0000      0.1058      0.2609      0.6305
 36      0.0000      0.1439      0.0000      0.2144      0.0000      0.9187      0.4281      0.0000      0.0000
 37      0.0000      0.2220      0.2319      0.6044      0.0000      0.0000      0.1959      0.3633      0.0000
 38     12.0275      9.6154     11.2917      7.3828     11.1412      8.6574      9.6490      9.5977     13.5225
 39      0.0000      0.3601      0.0000      0.9071      1.1350      0.0000      0.0000      0.0000      0.0000
 40      0.0000      0.4475      0.3510      0.0000      0.0000      0.0000      0.2038      0.5408      0.0000
 41      0.0000      0.3631      0.1009      0.6008      1.2339      0.4106      0.1041      0.0000      0.0000
 42      0.0298      0.6419      0.0000      0.0000      0.0000      0.7709      0.3838      0.5652      1.5145
 43      6.8436      5.3899      5.4121      6.5226      6.2779      6.3950      6.5409      6.0501      5.6350
 44      0.0000      0.9837      0.0000      0.0000      0.6763      0.0783      0.0000      0.0000      0.0335
 45      0.0000      0.4550      0.0000      0.0000      0.0000      0.0000      0.0000      0.0000      0.0000
 46      0.0000      0.8271      0.3703      0.0000      0.5745      0.0000      0.4762      0.8912      1.6826
