###################################################################
## OUTPUT of StarlightChains_v04.for    [Cid@UFSC - 01/Apr/2007] ##
###################################################################

## Some input info
2012ei.txt                               [arq_obs]
Base.CB07.vall.4m                        [arq_base]
Masks.EmLines.NEW.gm                     [arq_masks]
StCv04.C11.config                        [arq_config]
   66                                    [N_base]
    0                                    [N_YAV_components = # of components with extra extinction!]
    0                                    [i_FitPowerLaw (1/0 = Yes/No)]
-9.99                                    [alpha_PowerLaw]
CCM                                      [red_law_option]
 1.458241                                [q_norm = A(l_norm)/A(V)]

## (Re)Sampling Parameters
 3741.00                                 [l_ini (A)]
 7218.00                                 [l_fin (A)]
    1.00                                 [dl    (A)]     (OBS: dl_cushion =    50.00 A)

## Normalization info
 4020.00                                 [l_norm (A) - for base]
 4010.00                                 [llow_norm (A) - window for f_obs]
 4060.00                                 [lupp_norm (A) - window for f_obs]
8.579933E-16                             [fobs_norm (in input units)]

## S/N
 3691.00                                 [llow_SN (A) - window for S/N]
 7268.00                                 [lupp_SN (A) - window for S/N]
   4.671                                 [S/N in S/N window]
   3.615                                 [S/N in norm. window]
  21.593                                 [S/N_err in S/N window]
  16.713                                 [S/N_err in norm. window]
  1.0000                                 [fscale_chi2]

## etc...
    -2007393                             [idum_orig]
  2390                                   [NOl_eff]
  2369                                   [Nl_eff]
    21    NSIGMA                         [Ntot_cliped & clip_method]
   604170                                [Nglobal_steps]
   7                                     [N_chains]
   8                                     [NEX0s_base = N_base in EX0s-fits]
 0   0   1       25   2.0   4.200E+01    [Clip-Bug, RC-Crash & Burn-In warning-flags, n_censored_weights, wei_nsig_threshold & wei_limit]
    11     10.645     10.141      0.505  [idt_all, wdt_TotTime, wdt_UsrTime & wdt_SysTime (sec)]

## Synthesis Results - Best model ##

 4.34780E-01                             [chi2/Nl_eff]
     2.24798                             [adev (%)]

   107.92470                             [sum-of-x (%)]
 8.81831E-16                             [Flux_tot (units of input spectrum!)]
 3.22892E-11                             [Mini_tot (???)]
 1.71797E-11                             [Mcor_tot (???)]

-153.04                                  [v0_min  (km/s)]
 187.89                                  [vd_min  (km/s)]
-0.0364                                  [AV_min  (mag)]
 0.0000                                  [YAV_min (mag)]

# j     x_j(%)      Mini_j(%)     Mcor_j(%)     age_j(yr)     Z_j      (L/M)_j    YAV?  Mstars   component_j        a/Fe...       SSP_chi2r SSP_adev(%)   SSP_AV   SSP_x(%)
  1      0.0000     0.0000E+00    0.0000E+00    1.000000E+06  0.00400  1.094E-02    0   1.0000   age020_m42            0.0000     7.1614E+00     9.0933   3.8219    89.0095
  2      0.0000     0.0000E+00    0.0000E+00    3.160000E+06  0.00400  4.007E-02    0   0.9999   age045_m42            0.0000     6.3344E+00     8.2888   3.0433    97.7476
  3      0.0000     0.0000E+00    0.0000E+00    5.010000E+06  0.00400  2.539E-02    0   0.9488   age055_m42            0.0000     6.8275E+00     8.6577   3.3843    94.2922
  4      0.0000     0.0000E+00    0.0000E+00    6.610000E+06  0.00400  2.620E-02    0   0.9220   age061_m42            0.0000     6.5302E+00     8.3941   2.9563    98.5720
  5      0.0000     0.0000E+00    0.0000E+00    1.000000E+07  0.00400  1.322E-02    0   0.8862   age070_m42            0.0000     8.2844E+00     9.7789   2.6077   103.6769
  6      0.0000     0.0000E+00    0.0000E+00    1.445000E+07  0.00400  7.883E-03    0   0.8571   age078_m42            0.0000     8.3681E+00     9.7596   2.9582    99.9021
  7      0.0000     0.0000E+00    0.0000E+00    2.512000E+07  0.00400  5.251E-03    0   0.8174   age090_m42            0.0000     8.6491E+00    10.0845   2.4606   105.0665
  8      0.0000     0.0000E+00    0.0000E+00    4.000000E+07  0.00400  3.649E-03    0   0.7851   age104_m42            0.0000     8.0608E+00     9.8032   2.2263   106.3738
  9      0.0000     0.0000E+00    0.0000E+00    5.500000E+07  0.00400  3.098E-03    0   0.7629   age110_m42            0.0000     7.2415E+00     9.0756   2.4035   105.3431
 10      0.0000     0.0000E+00    0.0000E+00    1.015200E+08  0.00400  2.228E-03    0   0.7207   age116_m42            0.0000     6.7397E+00     8.6124   2.4369   104.9960
 11      0.0000     0.0000E+00    0.0000E+00    2.861200E+08  0.00400  1.093E-03    0   0.6648   age125_m42            0.0000     7.0233E+00     9.2753   1.8166   110.9840
 12      0.0000     0.0000E+00    0.0000E+00    5.088000E+08  0.00400  6.597E-04    0   0.6365   age130_m42            0.0000     5.7486E+00     8.3252   1.8248   111.1254
 13      0.0000     0.0000E+00    0.0000E+00    1.434000E+09  0.00400  2.132E-04    0   0.5798   age139_m42            0.0000     3.4531E+00     6.9212   0.8257   115.0338
 14      0.0000     0.0000E+00    0.0000E+00    4.250000E+09  0.00400  5.895E-05    0   0.5377   age158_m42            0.0000     1.8165E+00     5.1041   0.4297   108.4855
 15      0.0000     0.0000E+00    0.0000E+00    7.500000E+09  0.00400  3.510E-05    0   0.5212   age171_m42            0.0000     1.3544E+00     4.3554   0.2552   107.2349
 16     12.3110     1.5538E+01    1.4701E+01    1.300000E+10  0.00400  2.005E-05    0   0.5034   age193_m42            0.0000     1.0514E+00     3.7280   0.1036   106.1173
 17      0.0607     1.0072E-01    9.4028E-02    1.800000E+10  0.00400  1.525E-05    0   0.4967   age213_m42            0.0000     1.1300E+00     3.8619   0.0791   105.6810
 18      0.0000     0.0000E+00    0.0000E+00    1.000000E+06  0.00800  1.238E-02    0   1.0000   age020_m52            0.0000     7.1286E+00     9.0860   3.8182    89.1852
 19      0.0000     0.0000E+00    0.0000E+00    3.160000E+06  0.00800  3.074E-02    0   0.9966   age045_m52            0.0000     7.0044E+00     8.9787   3.7406    90.0248
 20      0.0000     0.0000E+00    0.0000E+00    5.010000E+06  0.00800  2.668E-02    0   0.9443   age055_m52            0.0000     6.8618E+00     8.7725   3.4701    93.2632
 21      0.0000     0.0000E+00    0.0000E+00    6.610000E+06  0.00800  2.136E-02    0   0.9177   age061_m52            0.0000     6.8610E+00     9.1131   2.0998   105.3219
 22      0.0000     0.0000E+00    0.0000E+00    1.000000E+07  0.00800  1.215E-02    0   0.8827   age070_m52            0.0000     8.9640E+00    10.3231   2.7776   103.8595
 23      0.0000     0.0000E+00    0.0000E+00    1.445000E+07  0.00800  8.717E-03    0   0.8552   age078_m52            0.0000     8.1979E+00     9.7195   2.9142   101.7481
 24      0.0000     0.0000E+00    0.0000E+00    2.512000E+07  0.00800  5.592E-03    0   0.8162   age090_m52            0.0000     8.5674E+00    10.1570   2.5150   106.8437
 25      0.0000     0.0000E+00    0.0000E+00    4.000000E+07  0.00800  3.896E-03    0   0.7841   age104_m52            0.0000     7.9395E+00     9.7921   2.4264   107.8761
 26      0.0000     0.0000E+00    0.0000E+00    1.015200E+08  0.00800  2.148E-03    0   0.7226   age116_m52            0.0000     6.7472E+00     8.9283   2.3807   107.0619
 27      0.0000     0.0000E+00    0.0000E+00    2.861200E+08  0.00800  9.925E-04    0   0.6683   age125_m52            0.0000     5.5615E+00     8.2721   1.8824   112.5867
 28      0.0000     0.0000E+00    0.0000E+00    9.047900E+08  0.00800  3.141E-04    0   0.6138   age135_m52            0.0000     2.7024E+00     6.5466   1.0628   119.0198
 29      0.0000     0.0000E+00    0.0000E+00    1.434000E+09  0.00800  1.719E-04    0   0.5853   age139_m52            0.0000     2.2091E+00     5.8896   0.4968   115.8198
 30      0.0000     0.0000E+00    0.0000E+00    2.500000E+09  0.00800  7.872E-05    0   0.5600   age150_m52            0.0000     1.1250E+00     4.0683   0.2751   110.3875
 31      0.0000     0.0000E+00    0.0000E+00    4.250000E+09  0.00800  4.336E-05    0   0.5426   age158_m52            0.0000     1.0792E+00     3.9480   0.2621   109.2438
 32      0.0000     0.0000E+00    0.0000E+00    6.250000E+09  0.00800  3.159E-05    0   0.5319   age166_m52            0.0000     7.0788E-01     3.0865   0.0791   108.4340
 33      0.0000     0.0000E+00    0.0000E+00    1.300000E+10  0.00800  1.361E-05    0   0.5073   age193_m52            0.0000     4.5652E-01     2.3063  -0.3650   106.6741
 34      3.6869     9.4373E+00    8.8509E+00    1.800000E+10  0.00800  9.886E-06    0   0.4990   age213_m52            0.0000     4.2198E-01     2.2214  -0.4454   104.9415
 35      0.0000     0.0000E+00    0.0000E+00    1.000000E+06  0.02000  1.544E-02    0   1.0000   age020_m62            0.0000     7.1323E+00     9.1122   3.8159    89.3182
 36      0.0000     0.0000E+00    0.0000E+00    3.160000E+06  0.02000  3.762E-02    0   0.9858   age045_m62            0.0000     7.0688E+00     9.0865   3.7561    90.0604
 37      0.0000     0.0000E+00    0.0000E+00    5.010000E+06  0.02000  3.296E-02    0   0.9342   age055_m62            0.0000     6.4438E+00     8.3617   3.3422    95.6157
 38      0.0000     0.0000E+00    0.0000E+00    8.710000E+06  0.02000  1.154E-02    0   0.8861   age067_m62            0.0000     1.5453E+01    14.0848   2.1308   111.2969
 39      0.0000     0.0000E+00    0.0000E+00    1.445000E+07  0.02000  7.663E-03    0   0.8472   age078_m62            0.0000     1.0297E+01    11.4216   2.3793   108.4926
 40      0.0000     0.0000E+00    0.0000E+00    2.512000E+07  0.02000  4.532E-03    0   0.8099   age090_m62            0.0000     1.0902E+01    11.7094   2.3643   108.5758
 41      0.0000     0.0000E+00    0.0000E+00    5.500000E+07  0.02000  2.733E-03    0   0.7595   age110_m62            0.0000     7.9455E+00     9.7128   2.4154   106.7292
 42      0.0000     0.0000E+00    0.0000E+00    1.609000E+08  0.02000  1.369E-03    0   0.6985   age120_m62            0.0000     6.6190E+00     8.7346   2.2601   109.6511
 43      0.0000     0.0000E+00    0.0000E+00    2.861200E+08  0.02000  9.013E-04    0   0.6714   age125_m62            0.0000     5.6620E+00     8.2426   1.9970   113.6578
 44      0.0000     0.0000E+00    0.0000E+00    5.088000E+08  0.02000  5.028E-04    0   0.6449   age130_m62            0.0000     3.5379E+00     6.9053   1.6238   116.8771
 45      0.0000     0.0000E+00    0.0000E+00    9.047900E+08  0.02000  2.428E-04    0   0.6179   age135_m62            0.0000     1.8770E+00     5.3817   1.0409   116.2926
 46      0.0000     0.0000E+00    0.0000E+00    1.434000E+09  0.02000  1.263E-04    0   0.5908   age139_m62            0.0000     1.3084E+00     4.5060   0.6089   113.9758
 47      0.0000     0.0000E+00    0.0000E+00    2.500000E+09  0.02000  5.985E-05    0   0.5673   age150_m62            0.0000     7.6019E-01     3.2240   0.2805   110.6099
 48      1.7651     1.3655E+00    1.4034E+00    4.250000E+09  0.02000  3.271E-05    0   0.5468   age158_m62            0.0000     4.6485E-01     2.2867   0.0109   108.0498
 49      9.8663     1.8358E+01    1.7828E+01    1.000000E+10  0.02000  1.360E-05    0   0.5167   age181_m62            0.0000     5.1559E-01     2.5264  -0.3028   106.1390
 50      2.4494     8.7005E+00    8.1976E+00    1.800000E+10  0.02000  7.124E-06    0   0.5013   age213_m62            0.0000     7.6092E-01     3.2899  -0.4741   103.6140
 51      0.0000     0.0000E+00    0.0000E+00    1.000000E+06  0.05000  2.592E-02    0   0.9998   age020_m72            0.0000     7.2186E+00     9.2438   3.8086    89.2676
 52      0.0000     0.0000E+00    0.0000E+00    3.160000E+06  0.05000  4.845E-02    0   0.9577   age045_m72            0.0000     6.7459E+00     8.7575   3.6328    91.5946
 53      0.0000     0.0000E+00    0.0000E+00    5.010000E+06  0.05000  3.072E-02    0   0.9147   age055_m72            0.0000     9.0807E+00    10.4418   3.0404   101.0188
 54      0.0000     0.0000E+00    0.0000E+00    6.610000E+06  0.05000  1.455E-02    0   0.8877   age061_m72            0.0000     2.2330E+01    16.9779   2.1582   114.0914
 55      0.0000     0.0000E+00    0.0000E+00    1.000000E+07  0.05000  9.074E-03    0   0.8524   age070_m72            0.0000     1.0134E+01    10.9419   3.2454   100.2425
 56      0.0000     0.0000E+00    0.0000E+00    2.512000E+07  0.05000  4.250E-03    0   0.7902   age090_m72            0.0000     9.5726E+00    10.6902   2.9010   103.9554
 57      0.0000     0.0000E+00    0.0000E+00    4.000000E+07  0.05000  3.087E-03    0   0.7618   age104_m72            0.0000     9.9644E+00    10.9960   2.6475   106.9588
 58      0.0000     0.0000E+00    0.0000E+00    1.015200E+08  0.05000  1.700E-03    0   0.7096   age116_m72            0.0000     7.4562E+00     9.4194   2.3903   109.7955
 59      0.0000     0.0000E+00    0.0000E+00    2.861200E+08  0.05000  7.384E-04    0   0.6633   age125_m72            0.0000     4.5223E+00     7.5457   1.8632   115.5200
 60      0.0000     0.0000E+00    0.0000E+00    5.088000E+08  0.05000  3.819E-04    0   0.6372   age130_m72            0.0000     2.4659E+00     5.8299   1.3813   117.1030
 61      0.0000     0.0000E+00    0.0000E+00    9.047900E+08  0.05000  1.676E-04    0   0.6110   age135_m72            0.0000     1.0244E+00     3.7010   0.7317   112.8932
 62      0.0000     0.0000E+00    0.0000E+00    1.434000E+09  0.05000  8.837E-05    0   0.5874   age139_m72            0.0000     6.7868E-01     3.0870   0.2780   112.3849
 63     77.7853     4.6500E+01    4.8925E+01    2.500000E+09  0.05000  4.233E-05    0   0.5598   age150_m72            0.0000     4.5304E-01     2.3067   0.0208   108.5268
 64      0.0000     0.0000E+00    0.0000E+00    6.250000E+09  0.05000  1.435E-05    0   0.5249   age166_m72            0.0000     6.5153E-01     2.8872  -0.3829   104.9255
 65      0.0000     0.0000E+00    0.0000E+00    1.300000E+10  0.05000  6.513E-06    0   0.5036   age193_m72            0.0000     1.0807E+00     4.0110  -0.6126   103.6844
 66      0.0000     0.0000E+00    0.0000E+00    1.800000E+10  0.05000  4.527E-06    0   0.4945   age213_m72            0.0000     1.4656E+00     4.8386  -0.7388   101.9446


## Synthesis Results - Average & Chains ##

# j      x_j: min, <> & last-chain-values for 1 ...  7 chains
  1      0.0000      0.0048      0.0000      0.0000      0.0000      0.0000      0.0000      0.0000      0.0000
  2      0.0000      0.0111      0.2041      0.0000      0.0000      0.0000      0.0000      0.0000      0.0000
  3      0.0000      0.0068      0.0000      0.0000      0.0000      0.0000      0.0000      0.0000      0.0000
  4      0.0000      0.0058      0.0000      0.0000      0.0000      0.0000      0.0000      0.0000      0.0000
  5      0.0000      0.0057      0.0000      0.0000      0.0000      0.0000      0.0000      0.0000      0.0000
  6      0.0000      0.0061      0.0000      0.0000      0.0000      0.0000      0.0000      0.0000      0.0000
  7      0.0000      0.0058      0.0000      0.0000      0.0000      0.0000      0.0000      0.0000      0.0000
  8      0.0000      0.0081      0.0000      0.0000      0.0000      0.0000      0.0741      0.0000      0.0000
  9      0.0000      0.0204      0.0000      0.0000      0.0000      0.0000      0.0127      0.0000      0.0000
 10      0.0000      0.0120      0.0000      0.0000      0.0000      0.0000      0.0000      0.0000      0.0000
 11      0.0000      0.0288      0.0000      0.0469      0.0000      0.0000      0.0000      0.0000      0.0000
 12      0.0000      0.0115      0.0000      0.0000      0.0000      0.0000      0.0000      0.0000      0.0000
 13      0.0000      0.0503      0.0000      0.0000      0.0000      0.0000      0.0000      0.0000      0.0040
 14      0.0000      0.1445      0.0000      0.0000      0.0000      0.0000      0.3905      0.0000      0.0000
 15      0.0000      0.3119      0.0000      0.0000      0.1945      0.0000      0.3405      0.0000      0.3205
 16     12.3110      3.4763      4.6600      5.3984      3.6151      5.6636      3.7845      7.2422      2.9753
 17      0.0607      1.0816      1.6023      0.3785      2.1261      0.0000      0.2859      1.4587      0.3436
 18      0.0000      0.0037      0.0000      0.0000      0.0000      0.0000      0.0000      0.0000      0.0000
 19      0.0000      0.0046      0.0000      0.0000      0.0000      0.0494      0.0000      0.0000      0.0000
 20      0.0000      0.0055      0.0000      0.0000      0.0000      0.0000      0.0000      0.0000      0.0000
 21      0.0000      0.0083      0.0000      0.0000      0.0000      0.0000      0.0000      0.0000      0.0000
 22      0.0000      0.0064      0.0000      0.0000      0.0000      0.0000      0.0000      0.0000      0.0000
 23      0.0000      0.0113      0.0000      0.0042      0.0000      0.0287      0.0000      0.0000      0.0000
 24      0.0000      0.0125      0.0000      0.0000      0.0000      0.0000      0.0000      0.0000      0.0000
 25      0.0000      0.0063      0.0000      0.0000      0.0000      0.0000      0.0000      0.0000      0.0000
 26      0.0000      0.0054      0.0000      0.0000      0.0000      0.0000      0.0000      0.0000      0.0000
 27      0.0000      0.0510      0.0000      0.0000      0.0000      0.0000      0.0000      0.0068      0.0000
 28      0.0000      0.0573      0.0000      0.0000      0.0000      0.0000      0.0000      0.0000      0.0000
 29      0.0000      0.1679      0.0000      0.0000      0.6820      0.0000      0.0000      0.0000      0.1562
 30      0.0000      0.4383      0.0000      0.0000      0.0000      0.0000      0.7406      0.7158      0.2658
 31      0.0000      0.4694      1.0550      0.0000      0.4449      0.0000      0.0000      0.3833      0.0000
 32      0.0000      1.1016      0.0000      2.3416      0.6875      0.4157      1.5442      1.7063      2.5723
 33      0.0000      0.1024      0.0351      0.0000      0.0000      0.0000      0.0000      0.0000      0.0000
 34      3.6869      0.1657      1.1954      0.4809      0.0000      0.0000      0.0000      0.0000      0.2170
 35      0.0000      0.0055      0.0000      0.0000      0.0000      0.0000      0.0000      0.0000      0.0000
 36      0.0000      0.0020      0.0000      0.0000      0.0000      0.0000      0.0000      0.0000      0.0535
 37      0.0000      0.0052      0.0000      0.0000      0.0000      0.0000      0.0000      0.0000      0.0000
 38      0.0000      0.0024      0.0000      0.0000      0.0000      0.0000      0.0000      0.0000      0.0000
 39      0.0000      0.0257      0.0000      0.0000      0.0000      0.0000      0.0000      0.0000      0.0940
 40      0.0000      0.0115      0.0000      0.0004      0.0000      0.0000      0.0000      0.0000      0.0000
 41      0.0000      0.0058      0.0000      0.0000      0.0000      0.0000      0.0000      0.0000      0.0000
 42      0.0000      0.0046      0.0000      0.0000      0.0018      0.0000      0.0000      0.0000      0.0000
 43      0.0000      0.0132      0.0000      0.0000      0.0000      0.0000      0.0000      0.0000      0.0000
 44      0.0000      0.0357      0.0000      0.0000      0.0000      0.0261      0.0000      0.0000      0.0000
 45      0.0000      0.0760      0.0046      0.2770      0.2591      0.0000      0.1284      0.0000      0.0000
 46      0.0000      0.3258      0.0000      0.0000      0.0000      0.0000      0.6107      0.0000      0.0000
