###################################################################
## OUTPUT of StarlightChains_v04.for    [Cid@UFSC - 01/Apr/2007] ##
###################################################################

## Some input info
2012as.txt                               [arq_obs]
Base.CB07.vall.4m                        [arq_base]
Masks.EmLines.NEW.gm                     [arq_masks]
StCv04.C11.config                        [arq_config]
   66                                    [N_base]
    0                                    [N_YAV_components = # of components with extra extinction!]
    0                                    [i_FitPowerLaw (1/0 = Yes/No)]
-9.99                                    [alpha_PowerLaw]
CCM                                      [red_law_option]
 1.458241                                [q_norm = A(l_norm)/A(V)]

## (Re)Sampling Parameters
 3741.00                                 [l_ini (A)]
 7218.00                                 [l_fin (A)]
    1.00                                 [dl    (A)]     (OBS: dl_cushion =    50.00 A)

## Normalization info
 4020.00                                 [l_norm (A) - for base]
 4010.00                                 [llow_norm (A) - window for f_obs]
 4060.00                                 [lupp_norm (A) - window for f_obs]
2.199844E-17                             [fobs_norm (in input units)]

## S/N
 3691.00                                 [llow_SN (A) - window for S/N]
 7268.00                                 [lupp_SN (A) - window for S/N]
   4.692                                 [S/N in S/N window]
   5.574                                 [S/N in norm. window]
  10.000                                 [S/N_err in S/N window]
  11.880                                 [S/N_err in norm. window]
  1.0000                                 [fscale_chi2]

## etc...
    -2007388                             [idum_orig]
  2320                                   [NOl_eff]
  1994                                   [Nl_eff]
   326    NSIGMA                         [Ntot_cliped & clip_method]
   997990                                [Nglobal_steps]
   7                                     [N_chains]
  17                                     [NEX0s_base = N_base in EX0s-fits]
 0   0   1        4   2.0   5.495E+01    [Clip-Bug, RC-Crash & Burn-In warning-flags, n_censored_weights, wei_nsig_threshold & wei_limit]
    11     11.240     10.734      0.506  [idt_all, wdt_TotTime, wdt_UsrTime & wdt_SysTime (sec)]

## Synthesis Results - Best model ##

 2.01413E+00                             [chi2/Nl_eff]
    11.79833                             [adev (%)]

    86.88451                             [sum-of-x (%)]
 1.96568E-17                             [Flux_tot (units of input spectrum!)]
 2.76824E-13                             [Mini_tot (???)]
 1.50394E-13                             [Mcor_tot (???)]

  81.71                                  [v0_min  (km/s)]
 106.07                                  [vd_min  (km/s)]
 0.0209                                  [AV_min  (mag)]
 0.0000                                  [YAV_min (mag)]

# j     x_j(%)      Mini_j(%)     Mcor_j(%)     age_j(yr)     Z_j      (L/M)_j    YAV?  Mstars   component_j        a/Fe...       SSP_chi2r SSP_adev(%)   SSP_AV   SSP_x(%)
  1      0.0000     0.0000E+00    0.0000E+00    1.000000E+06  0.00400  1.094E-02    0   1.0000   age020_m42            0.0000     2.5447E+00    12.7901   3.0575    73.0608
  2      0.0000     0.0000E+00    0.0000E+00    3.160000E+06  0.00400  4.007E-02    0   0.9999   age045_m42            0.0000     2.3469E+00    12.4327   2.3282    78.2809
  3      0.0000     0.0000E+00    0.0000E+00    5.010000E+06  0.00400  2.539E-02    0   0.9488   age055_m42            0.0000     2.4287E+00    12.5836   2.6520    76.2028
  4      0.0000     0.0000E+00    0.0000E+00    6.610000E+06  0.00400  2.620E-02    0   0.9220   age061_m42            0.0000     2.3449E+00    12.4142   2.2550    78.4370
  5      0.0000     0.0000E+00    0.0000E+00    1.000000E+07  0.00400  1.322E-02    0   0.8862   age070_m42            0.0000     2.4102E+00    12.4810   1.9659    80.3028
  6      0.0000     0.0000E+00    0.0000E+00    1.445000E+07  0.00400  7.883E-03    0   0.8571   age078_m42            0.0000     2.4552E+00    12.5775   2.2957    78.1602
  7      0.0000     0.0000E+00    0.0000E+00    2.512000E+07  0.00400  5.251E-03    0   0.8174   age090_m42            0.0000     2.4281E+00    12.5134   1.8330    80.8447
  8      0.0000     0.0000E+00    0.0000E+00    4.000000E+07  0.00400  3.649E-03    0   0.7851   age104_m42            0.0000     2.3692E+00    12.4032   1.6032    81.6493
  9      4.2898     1.1317E-01    1.5891E-01    5.500000E+07  0.00400  3.098E-03    0   0.7629   age110_m42            0.0000     2.3169E+00    12.2995   1.7599    81.5822
 10      0.0000     0.0000E+00    0.0000E+00    1.015200E+08  0.00400  2.228E-03    0   0.7207   age116_m42            0.0000     2.3003E+00    12.2700   1.7827    81.6676
 11      0.0000     0.0000E+00    0.0000E+00    2.861200E+08  0.00400  1.093E-03    0   0.6648   age125_m42            0.0000     2.2940E+00    12.2610   1.2108    84.3008
 12      0.0000     0.0000E+00    0.0000E+00    5.088000E+08  0.00400  6.597E-04    0   0.6365   age130_m42            0.0000     2.2309E+00    12.1363   1.2026    85.0202
 13      0.0192     7.3701E-03    7.8655E-03    1.434000E+09  0.00400  2.132E-04    0   0.5798   age139_m42            0.0000     2.0844E+00    11.9102   0.2226    87.1848
 14     20.8246     2.8871E+01    2.8574E+01    4.250000E+09  0.00400  5.895E-05    0   0.5377   age158_m42            0.0000     2.0286E+00    11.8279  -0.2204    84.0059
 15      0.0293     6.8272E-02    6.5497E-02    7.500000E+09  0.00400  3.510E-05    0   0.5212   age171_m42            0.0000     2.0550E+00    11.8853  -0.4068    83.4541
 16      0.0000     0.0000E+00    0.0000E+00    1.300000E+10  0.00400  2.005E-05    0   0.5034   age193_m42            0.0000     2.0953E+00    11.9538  -0.5709    83.0240
 17      4.5086     2.4162E+01    2.2091E+01    1.800000E+10  0.00400  1.525E-05    0   0.4967   age213_m42            0.0000     2.0883E+00    11.9486  -0.5944    82.6728
 18      0.0000     0.0000E+00    0.0000E+00    1.000000E+06  0.00800  1.238E-02    0   1.0000   age020_m52            0.0000     2.5454E+00    12.7913   3.0557    73.1502
 19      0.0000     0.0000E+00    0.0000E+00    3.160000E+06  0.00800  3.074E-02    0   0.9966   age045_m52            0.0000     2.5365E+00    12.7775   2.9801    73.7719
 20      0.0000     0.0000E+00    0.0000E+00    5.010000E+06  0.00800  2.668E-02    0   0.9443   age055_m52            0.0000     2.4535E+00    12.6233   2.7347    75.5073
 21      0.0000     0.0000E+00    0.0000E+00    6.610000E+06  0.00800  2.136E-02    0   0.9177   age061_m52            0.0000     2.3016E+00    12.3215   1.4575    81.5761
 22      0.0000     0.0000E+00    0.0000E+00    1.000000E+07  0.00800  1.215E-02    0   0.8827   age070_m52            0.0000     2.4706E+00    12.5930   2.1450    80.1298
 23      0.0000     0.0000E+00    0.0000E+00    1.445000E+07  0.00800  8.717E-03    0   0.8552   age078_m52            0.0000     2.4340E+00    12.5344   2.2601    79.2911
 24      0.0000     0.0000E+00    0.0000E+00    2.512000E+07  0.00800  5.592E-03    0   0.8162   age090_m52            0.0000     2.4228E+00    12.4955   1.8979    81.8056
 25      0.0000     0.0000E+00    0.0000E+00    4.000000E+07  0.00800  3.896E-03    0   0.7841   age104_m52            0.0000     2.3645E+00    12.3849   1.8101    82.4809
 26      0.0000     0.0000E+00    0.0000E+00    1.015200E+08  0.00800  2.148E-03    0   0.7226   age116_m52            0.0000     2.2932E+00    12.2694   1.7503    82.3216
 27      0.0000     0.0000E+00    0.0000E+00    2.861200E+08  0.00800  9.925E-04    0   0.6683   age125_m52            0.0000     2.2279E+00    12.1203   1.2661    85.8447
 28     11.7992     3.0701E+00    3.4686E+00    9.047900E+08  0.00800  3.141E-04    0   0.6138   age135_m52            0.0000     2.0760E+00    11.8799   0.4590    89.9963
 29      0.0000     0.0000E+00    0.0000E+00    1.434000E+09  0.00800  1.719E-04    0   0.5853   age139_m52            0.0000     2.0403E+00    11.8636  -0.1157    88.0607
 30      0.0000     0.0000E+00    0.0000E+00    2.500000E+09  0.00800  7.872E-05    0   0.5600   age150_m52            0.0000     2.0651E+00    11.9250  -0.3851    85.7636
 31      0.0000     0.0000E+00    0.0000E+00    4.250000E+09  0.00800  4.336E-05    0   0.5426   age158_m52            0.0000     2.0728E+00    11.9301  -0.4021    85.0138
 32      0.0000     0.0000E+00    0.0000E+00    6.250000E+09  0.00800  3.159E-05    0   0.5319   age166_m52            0.0000     2.1463E+00    12.0857  -0.6022    85.0036
 33      0.0000     0.0000E+00    0.0000E+00    1.300000E+10  0.00800  1.361E-05    0   0.5073   age193_m52            0.0000     2.3230E+00    12.4626  -1.0000    82.2234
 34      0.0000     0.0000E+00    0.0000E+00    1.800000E+10  0.00800  9.886E-06    0   0.4990   age213_m52            0.0000     2.5411E+00    12.8777  -1.0000    78.4232
 35      0.0000     0.0000E+00    0.0000E+00    1.000000E+06  0.02000  1.544E-02    0   1.0000   age020_m62            0.0000     2.5547E+00    12.8044   3.0528    73.2880
 36      0.0000     0.0000E+00    0.0000E+00    3.160000E+06  0.02000  3.762E-02    0   0.9858   age045_m62            0.0000     2.5540E+00    12.8020   2.9925    73.9292
 37      0.0000     0.0000E+00    0.0000E+00    5.010000E+06  0.02000  3.296E-02    0   0.9342   age055_m62            0.0000     2.3932E+00    12.5113   2.6127    77.1470
 38      0.0000     0.0000E+00    0.0000E+00    8.710000E+06  0.02000  1.154E-02    0   0.8861   age067_m62            0.0000     2.9980E+00    13.5399   1.5859    82.6436
 39      4.1041     4.3770E-02    6.8256E-02    1.445000E+07  0.02000  7.663E-03    0   0.8472   age078_m62            0.0000     2.5416E+00    12.7137   1.7864    82.1938
 40      0.0000     0.0000E+00    0.0000E+00    2.512000E+07  0.02000  4.532E-03    0   0.8099   age090_m62            0.0000     2.5874E+00    12.7972   1.7805    81.9019
 41      0.0000     0.0000E+00    0.0000E+00    5.500000E+07  0.02000  2.733E-03    0   0.7595   age110_m62            0.0000     2.3673E+00    12.3876   1.7955    81.7983
 42      0.0000     0.0000E+00    0.0000E+00    1.609000E+08  0.02000  1.369E-03    0   0.6985   age120_m62            0.0000     2.2935E+00    12.2352   1.6343    84.1136
 43      0.0000     0.0000E+00    0.0000E+00    2.861200E+08  0.02000  9.013E-04    0   0.6714   age125_m62            0.0000     2.2609E+00    12.1576   1.3790    86.7769
 44      0.0000     0.0000E+00    0.0000E+00    5.088000E+08  0.02000  5.028E-04    0   0.6449   age130_m62            0.0000     2.1638E+00    11.9967   0.9948    89.5135
 45     12.7972     4.3076E+00    4.8992E+00    9.047900E+08  0.02000  2.428E-04    0   0.6179   age135_m62            0.0000     2.0496E+00    11.8609   0.4054    89.2541
 46      0.2354     1.5235E-01    1.6568E-01    1.434000E+09  0.02000  1.263E-04    0   0.5908   age139_m62            0.0000     2.0523E+00    11.8881  -0.0389    87.9950
 47     19.3236     2.6387E+01    2.7554E+01    2.500000E+09  0.02000  5.985E-05    0   0.5673   age150_m62            0.0000     2.1336E+00    12.0764  -0.4016    86.7395
 48      4.6296     1.1567E+01    1.1642E+01    4.250000E+09  0.02000  3.271E-05    0   0.5468   age158_m62            0.0000     2.2936E+00    12.4352  -0.6998    85.8239
 49      0.0000     0.0000E+00    0.0000E+00    1.000000E+10  0.02000  1.360E-05    0   0.5167   age181_m62            0.0000     2.5756E+00    12.9967  -1.0000    83.9437
 50      0.0000     0.0000E+00    0.0000E+00    1.800000E+10  0.02000  7.124E-06    0   0.5013   age213_m62            0.0000     2.9917E+00    13.6627  -1.0000    76.6219
 51      0.5249     1.6549E-03    3.0455E-03    1.000000E+06  0.05000  2.592E-02    0   0.9998   age020_m72            0.0000     2.5911E+00    12.8592   3.0462    73.2295
 52      0.0000     0.0000E+00    0.0000E+00    3.160000E+06  0.05000  4.845E-02    0   0.9577   age045_m72            0.0000     2.5008E+00    12.7183   2.8758    74.9168
 53      0.0000     0.0000E+00    0.0000E+00    5.010000E+06  0.05000  3.072E-02    0   0.9147   age055_m72            0.0000     2.5241E+00    12.6846   2.3880    78.6336
 54      0.0000     0.0000E+00    0.0000E+00    6.610000E+06  0.05000  1.455E-02    0   0.8877   age061_m72            0.0000     3.5079E+00    14.5499   1.6453    83.3031
 55      3.1570     2.8434E-02    4.4613E-02    1.000000E+07  0.05000  9.074E-03    0   0.8524   age070_m72            0.0000     2.5975E+00    12.8276   2.5839    78.2296
 56      0.0000     0.0000E+00    0.0000E+00    2.512000E+07  0.05000  4.250E-03    0   0.7902   age090_m72            0.0000     2.5144E+00    12.6607   2.2720    79.9301
 57      0.0000     0.0000E+00    0.0000E+00    4.000000E+07  0.05000  3.087E-03    0   0.7618   age104_m72            0.0000     2.5243E+00    12.6802   2.0422    81.3359
 58      0.0000     0.0000E+00    0.0000E+00    1.015200E+08  0.05000  1.700E-03    0   0.7096   age116_m72            0.0000     2.3548E+00    12.3391   1.7782    83.7078
 59      0.0000     0.0000E+00    0.0000E+00    2.861200E+08  0.05000  7.384E-04    0   0.6633   age125_m72            0.0000     2.2211E+00    12.0957   1.2447    88.1215
 60      0.0000     0.0000E+00    0.0000E+00    5.088000E+08  0.05000  3.819E-04    0   0.6372   age130_m72            0.0000     2.1030E+00    11.9309   0.7472    89.8905
 61      0.0000     0.0000E+00    0.0000E+00    9.047900E+08  0.05000  1.676E-04    0   0.6110   age135_m72            0.0000     2.1223E+00    12.0524   0.0518    88.4339
 62      0.0192     1.7782E-02    1.9226E-02    1.434000E+09  0.05000  8.837E-05    0   0.5874   age139_m72            0.0000     2.1729E+00    12.1648  -0.4013    88.0097
 63      0.6227     1.2022E+00    1.2387E+00    2.500000E+09  0.05000  4.233E-05    0   0.5598   age150_m72            0.0000     2.3614E+00    12.5919  -0.6989    86.5414
 64      0.0000     0.0000E+00    0.0000E+00    6.250000E+09  0.05000  1.435E-05    0   0.5249   age166_m72            0.0000     2.7054E+00    13.2329  -1.0000    80.5121
 65      0.0000     0.0000E+00    0.0000E+00    1.300000E+10  0.05000  6.513E-06    0   0.5036   age193_m72            0.0000     3.4469E+00    14.4202  -1.0000    72.4675
 66      0.0000     0.0000E+00    0.0000E+00    1.800000E+10  0.05000  4.527E-06    0   0.4945   age213_m72            0.0000     4.0467E+00    15.3658  -1.0000    67.5129


## Synthesis Results - Average & Chains ##

# j      x_j: min, <> & last-chain-values for 1 ...  7 chains
  1      0.0000      0.0844      0.0000      0.0000      0.0000      0.0000      0.0000      0.0000      0.0000
  2      0.0000      0.1439      0.0000      1.6875      0.2143      0.0000      0.1957      0.0000      0.0000
  3      0.0000      0.2090      0.0000      0.0000      1.4912      0.0000      0.0000      0.6958      0.0000
  4      0.0000      0.4571      0.0000      0.0000      0.0000      0.0000      0.0000      0.2653      0.0000
  5      0.0000      0.1542      0.0000      2.1542      0.0000      0.0000      0.0000      0.0000      0.0000
  6      0.0000      0.2395      0.0000      0.1701      1.5470      0.9270      0.0000      0.0000      0.0000
  7      0.0000      0.2745      0.0000      0.0000      0.0000      1.3669      0.0000      0.0000      0.5641
  8      0.0000      0.2735      0.0000      1.2144      0.0000      0.4864      0.0000      0.0000      0.0000
  9      4.2898      0.5642      2.0609      0.0052      0.6967      0.9758      1.9109      5.2696      1.5499
 10      0.0000      0.1196      0.5544      0.0728      0.0000      1.5167      0.0000      0.0000      0.0000
 11      0.0000      0.6546      2.3160      1.4911      0.0000      0.0000      0.0000      0.0000      0.0000
 12      0.0000      0.4616      0.0000      0.2955      3.1388      0.0000      0.7621      0.0000      0.0000
 13      0.0192      5.2794      5.3006      7.2532      4.0586      1.9183      5.9379      6.8211     12.7751
 14     20.8246     18.6650     21.1052     20.5484     20.0376     19.2166     16.6183     20.3446     22.9127
 15      0.0293      7.4298      3.8503      1.6645      8.7280      7.1622      7.1357      3.0673      4.5762
 16      0.0000      0.7705      2.3561      1.0065      1.4268      0.0000      1.9251      0.0000      0.0000
 17      4.5086      1.3000      1.9459      1.7509      2.1392      4.9026      1.2143      3.7726      0.0655
 18      0.0000      0.1668      0.0000      0.0000      0.0000      0.0000      0.0000      0.0000      0.0000
 19      0.0000      0.4954      1.5903      0.0000      1.4660      0.0000      0.0000      0.0000      0.0000
 20      0.0000      0.1305      0.0000      0.0000      0.0000      0.5391      0.0000      0.0000      0.0000
 21      0.0000      0.7376      2.2431      0.7764      0.0000      0.0000      2.0945      0.1798      0.0000
 22      0.0000      0.2496      0.0000      0.0000      0.0000      0.0000      0.0000      0.0000      1.3331
 23      0.0000      0.1259      0.0000      0.0000      0.0000      0.0000      0.0000      0.0000      0.0000
 24      0.0000      0.1778      0.0000      0.0000      0.0000      0.0000      0.1321      0.0000      0.0000
 25      0.0000      0.4896      1.0695      0.0000      0.0000      0.0000      1.3455      2.6892      0.0000
 26      0.0000      0.1624      0.0000      1.6488      0.0000      0.2608      0.0000      0.0537      0.0000
 27      0.0000      0.8070      0.0000      1.6203      0.0000      0.0000      0.0000      0.4386      0.0000
 28     11.7992      1.4537      0.0000      1.0755      1.4764      2.4050      1.1027      3.1461      2.8576
 29      0.0000      4.9419      6.4582      0.0000      0.0000      2.3135      0.0193      0.0000      3.6189
 30      0.0000      1.5458      0.0000      0.0000      0.0000      0.0000      1.7605      0.0000      1.5952
 31      0.0000      1.4177      0.2849      1.5525      2.3983      0.0000      0.0000      2.3239      0.0000
 32      0.0000      1.4645      0.2492      1.9862      0.8624      0.0000      0.0000      0.0000      0.0000
 33      0.0000      0.1266      0.0000      0.0000      0.0000      0.0000      0.0000      0.0000      0.0000
 34      0.0000      0.1021      0.0000      0.0000      0.0000      0.0000      0.0000      0.0000      0.0000
 35      0.0000      0.0824      0.0000      0.0000      0.0000      0.0000      0.0000      0.0000      0.0000
 36      0.0000      0.1699      0.0000      0.0000      0.0000      0.0000      0.3853      0.0000      0.0000
 37      0.0000      0.0799      0.0000      0.0000      0.0000      0.2766      0.0000      0.0000      0.6365
 38      0.0000      0.2034      0.5115      0.0000      0.0000      0.0000      0.0000      0.0000      0.0000
 39      4.1041      0.1329      0.0000      0.0000      0.0000      0.0000      0.0000      1.0855      0.7035
 40      0.0000      0.2566      0.6324      0.0000      0.0000      0.0000      0.2492      0.0000      0.2542
 41      0.0000      0.2510      0.0000      0.0000      0.0000      0.0000      0.0000      0.0000      0.0198
 42      0.0000      0.3690      0.4598      0.0000      0.0000      0.0000      0.0000      0.0000      0.0000
 43      0.0000      0.3714      0.1756      0.0000      0.0000      0.4889      0.3520      0.0000      0.0000
 44      0.0000      0.5333      0.0000      1.1680      2.1325      0.0000      0.8545      0.0000      0.0000
 45     12.7972      2.5610      1.6373      2.9994      3.2255      7.7319      4.6415      3.5942      4.0680
 46      0.2354     10.2472     12.5298      6.1454      6.2614     11.2452     13.0256     15.2484      6.3821
