###################################################################
## OUTPUT of StarlightChains_v04.for    [Cid@UFSC - 01/Apr/2007] ##
###################################################################

## Some input info
2012an.txt                               [arq_obs]
Base.CB07.vall.4m                        [arq_base]
Masks.EmLines.NEW.gm                     [arq_masks]
StCv04.C11.config                        [arq_config]
   66                                    [N_base]
    0                                    [N_YAV_components = # of components with extra extinction!]
    0                                    [i_FitPowerLaw (1/0 = Yes/No)]
-9.99                                    [alpha_PowerLaw]
CCM                                      [red_law_option]
 1.458241                                [q_norm = A(l_norm)/A(V)]

## (Re)Sampling Parameters
 3741.00                                 [l_ini (A)]
 7218.00                                 [l_fin (A)]
    1.00                                 [dl    (A)]     (OBS: dl_cushion =    50.00 A)

## Normalization info
 4020.00                                 [l_norm (A) - for base]
 4010.00                                 [llow_norm (A) - window for f_obs]
 4060.00                                 [lupp_norm (A) - window for f_obs]
4.569080E-17                             [fobs_norm (in input units)]

## S/N
 3691.00                                 [llow_SN (A) - window for S/N]
 7268.00                                 [lupp_SN (A) - window for S/N]
   2.514                                 [S/N in S/N window]
   4.565                                 [S/N in norm. window]
  10.000                                 [S/N_err in S/N window]
  18.159                                 [S/N_err in norm. window]
  1.0000                                 [fscale_chi2]

## etc...
    -2007387                             [idum_orig]
  2384                                   [NOl_eff]
  2284                                   [Nl_eff]
   100    NSIGMA                         [Ntot_cliped & clip_method]
   552720                                [Nglobal_steps]
   7                                     [N_chains]
  10                                     [NEX0s_base = N_base in EX0s-fits]
 0   0   1       50   2.0   3.755E+01    [Clip-Bug, RC-Crash & Burn-In warning-flags, n_censored_weights, wei_nsig_threshold & wei_limit]
    11     10.679     10.174      0.504  [idt_all, wdt_TotTime, wdt_UsrTime & wdt_SysTime (sec)]

## Synthesis Results - Best model ##

 1.34199E+00                             [chi2/Nl_eff]
     9.32090                             [adev (%)]

    95.17160                             [sum-of-x (%)]
 2.67351E-17                             [Flux_tot (units of input spectrum!)]
 3.18471E-14                             [Mini_tot (???)]
 2.06388E-14                             [Mcor_tot (???)]

  69.67                                  [v0_min  (km/s)]
 137.78                                  [vd_min  (km/s)]
-0.3622                                  [AV_min  (mag)]
 0.0000                                  [YAV_min (mag)]

# j     x_j(%)      Mini_j(%)     Mcor_j(%)     age_j(yr)     Z_j      (L/M)_j    YAV?  Mstars   component_j        a/Fe...       SSP_chi2r SSP_adev(%)   SSP_AV   SSP_x(%)
  1      0.0000     0.0000E+00    0.0000E+00    1.000000E+06  0.00400  1.094E-02    0   1.0000   age020_m42            0.0000     2.1449E+00    10.9588   1.5809    78.2834
  2      0.0000     0.0000E+00    0.0000E+00    3.160000E+06  0.00400  4.007E-02    0   0.9999   age045_m42            0.0000     1.6483E+00    10.1014   0.7924    86.1965
  3      0.0000     0.0000E+00    0.0000E+00    5.010000E+06  0.00400  2.539E-02    0   0.9488   age055_m42            0.0000     1.7946E+00    10.3692   1.1368    83.1249
  4      0.0000     0.0000E+00    0.0000E+00    6.610000E+06  0.00400  2.620E-02    0   0.9220   age061_m42            0.0000     1.5838E+00     9.9741   0.7134    86.6214
  5      0.0000     0.0000E+00    0.0000E+00    1.000000E+07  0.00400  1.322E-02    0   0.8862   age070_m42            0.0000     1.6288E+00     9.9225   0.4438    87.8892
  6      0.0000     0.0000E+00    0.0000E+00    1.445000E+07  0.00400  7.883E-03    0   0.8571   age078_m42            0.0000     1.7334E+00    10.1227   0.7859    85.0512
  7      0.0000     0.0000E+00    0.0000E+00    2.512000E+07  0.00400  5.251E-03    0   0.8174   age090_m42            0.0000     1.6193E+00     9.9062   0.3105    88.5088
  8      0.0000     0.0000E+00    0.0000E+00    4.000000E+07  0.00400  3.649E-03    0   0.7851   age104_m42            0.0000     1.5524E+00     9.7730   0.0728    89.7067
  9      0.0000     0.0000E+00    0.0000E+00    5.500000E+07  0.00400  3.098E-03    0   0.7629   age110_m42            0.0000     1.4737E+00     9.6719   0.2107    90.4105
 10      0.0000     0.0000E+00    0.0000E+00    1.015200E+08  0.00400  2.228E-03    0   0.7207   age116_m42            0.0000     1.4302E+00     9.6263   0.2179    91.1667
 11     47.5850     3.8402E+01    3.9394E+01    2.861200E+08  0.00400  1.093E-03    0   0.6648   age125_m42            0.0000     1.3454E+00     9.3264  -0.3642    94.5193
 12     45.6562     6.1046E+01    5.9957E+01    5.088000E+08  0.00400  6.597E-04    0   0.6365   age130_m42            0.0000     1.3548E+00     9.3473  -0.3894    96.0174
 13      0.0000     0.0000E+00    0.0000E+00    1.434000E+09  0.00400  2.132E-04    0   0.5798   age139_m42            0.0000     1.9633E+00    10.9012  -1.0000    85.2310
 14      0.0000     0.0000E+00    0.0000E+00    4.250000E+09  0.00400  5.895E-05    0   0.5377   age158_m42            0.0000     3.8962E+00    15.0603  -1.0000    67.7455
 15      0.0000     0.0000E+00    0.0000E+00    7.500000E+09  0.00400  3.510E-05    0   0.5212   age171_m42            0.0000     5.0404E+00    17.1244  -1.0000    61.7390
 16      0.0000     0.0000E+00    0.0000E+00    1.300000E+10  0.00400  2.005E-05    0   0.5034   age193_m42            0.0000     6.1517E+00    18.9422  -1.0000    56.7993
 17      0.0000     0.0000E+00    0.0000E+00    1.800000E+10  0.00400  1.525E-05    0   0.4967   age213_m42            0.0000     6.2852E+00    19.2123  -1.0000    55.9239
 18      0.0000     0.0000E+00    0.0000E+00    1.000000E+06  0.00800  1.238E-02    0   1.0000   age020_m52            0.0000     2.1410E+00    10.9569   1.5772    78.4379
 19      0.0000     0.0000E+00    0.0000E+00    3.160000E+06  0.00800  3.074E-02    0   0.9966   age045_m52            0.0000     2.0693E+00    10.8798   1.4936    79.4058
 20      0.0000     0.0000E+00    0.0000E+00    5.010000E+06  0.00800  2.668E-02    0   0.9443   age055_m52            0.0000     1.8573E+00    10.4767   1.2283    82.0247
 21      0.0000     0.0000E+00    0.0000E+00    6.610000E+06  0.00800  2.136E-02    0   0.9177   age061_m52            0.0000     1.7380E+00    10.0287  -0.0416    88.2909
 22      0.0000     0.0000E+00    0.0000E+00    1.000000E+07  0.00800  1.215E-02    0   0.8827   age070_m52            0.0000     1.7171E+00    10.0542   0.6359    87.1334
 23      0.0000     0.0000E+00    0.0000E+00    1.445000E+07  0.00800  8.717E-03    0   0.8552   age078_m52            0.0000     1.6928E+00    10.0404   0.7464    86.4333
 24      0.0000     0.0000E+00    0.0000E+00    2.512000E+07  0.00800  5.592E-03    0   0.8162   age090_m52            0.0000     1.5916E+00     9.8287   0.3721    89.6616
 25      0.0000     0.0000E+00    0.0000E+00    4.000000E+07  0.00800  3.896E-03    0   0.7841   age104_m52            0.0000     1.5046E+00     9.6617   0.2712    90.9496
 26      0.0000     0.0000E+00    0.0000E+00    1.015200E+08  0.00800  2.148E-03    0   0.7226   age116_m52            0.0000     1.4159E+00     9.5277   0.1903    91.6715
 27      0.0000     0.0000E+00    0.0000E+00    2.861200E+08  0.00800  9.925E-04    0   0.6683   age125_m52            0.0000     1.3718E+00     9.3904  -0.3253    96.9027
 28      0.0000     0.0000E+00    0.0000E+00    9.047900E+08  0.00800  3.141E-04    0   0.6138   age135_m52            0.0000     1.5964E+00     9.9372  -1.0000    96.5677
 29      0.0000     0.0000E+00    0.0000E+00    1.434000E+09  0.00800  1.719E-04    0   0.5853   age139_m52            0.0000     3.3945E+00    14.0694  -1.0000    74.3658
 30      0.0000     0.0000E+00    0.0000E+00    2.500000E+09  0.00800  7.872E-05    0   0.5600   age150_m52            0.0000     4.9655E+00    16.9281  -1.0000    64.0861
 31      0.0000     0.0000E+00    0.0000E+00    4.250000E+09  0.00800  4.336E-05    0   0.5426   age158_m52            0.0000     5.0744E+00    17.0631  -1.0000    63.0293
 32      0.0000     0.0000E+00    0.0000E+00    6.250000E+09  0.00800  3.159E-05    0   0.5319   age166_m52            0.0000     6.4561E+00    19.2780  -1.0000    57.3075
 33      0.0000     0.0000E+00    0.0000E+00    1.300000E+10  0.00800  1.361E-05    0   0.5073   age193_m52            0.0000     9.9308E+00    24.3837  -1.0000    45.1497
 34      0.0000     0.0000E+00    0.0000E+00    1.800000E+10  0.00800  9.886E-06    0   0.4990   age213_m52            0.0000     1.0781E+01    25.3230  -1.0000    42.5846
 35      0.0000     0.0000E+00    0.0000E+00    1.000000E+06  0.02000  1.544E-02    0   1.0000   age020_m62            0.0000     2.1450E+00    10.9785   1.5741    78.5909
 36      0.0000     0.0000E+00    0.0000E+00    3.160000E+06  0.02000  3.762E-02    0   0.9858   age045_m62            0.0000     2.1021E+00    10.9399   1.5092    79.4404
 37      0.0000     0.0000E+00    0.0000E+00    5.010000E+06  0.02000  3.296E-02    0   0.9342   age055_m62            0.0000     1.6978E+00    10.2292   1.0820    84.7450
 38      0.0000     0.0000E+00    0.0000E+00    8.710000E+06  0.02000  1.154E-02    0   0.8861   age067_m62            0.0000     2.3752E+00    11.5596   0.1282    87.6074
 39      0.0000     0.0000E+00    0.0000E+00    1.445000E+07  0.02000  7.663E-03    0   0.8472   age078_m62            0.0000     1.8198E+00    10.1937   0.2916    88.7112
 40      0.0000     0.0000E+00    0.0000E+00    2.512000E+07  0.02000  4.532E-03    0   0.8099   age090_m62            0.0000     1.7844E+00    10.1837   0.2772    88.7480
 41      0.0000     0.0000E+00    0.0000E+00    5.500000E+07  0.02000  2.733E-03    0   0.7595   age110_m62            0.0000     1.5172E+00     9.6841   0.2573    90.1527
 42      0.0000     0.0000E+00    0.0000E+00    1.609000E+08  0.02000  1.369E-03    0   0.6985   age120_m62            0.0000     1.3868E+00     9.4818   0.0550    94.4841
 43      0.0000     0.0000E+00    0.0000E+00    2.861200E+08  0.02000  9.013E-04    0   0.6714   age125_m62            0.0000     1.4172E+00     9.5189  -0.2198    98.3284
 44      0.0000     0.0000E+00    0.0000E+00    5.088000E+08  0.02000  5.028E-04    0   0.6449   age130_m62            0.0000     1.5297E+00     9.8410  -0.6135   101.7454
 45      0.0000     0.0000E+00    0.0000E+00    9.047900E+08  0.02000  2.428E-04    0   0.6179   age135_m62            0.0000     1.7635E+00    10.3903  -1.0000    93.7702
 46      0.0000     0.0000E+00    0.0000E+00    1.434000E+09  0.02000  1.263E-04    0   0.5908   age139_m62            0.0000     3.1662E+00    13.4021  -1.0000    76.9124
 47      0.0000     0.0000E+00    0.0000E+00    2.500000E+09  0.02000  5.985E-05    0   0.5673   age150_m62            0.0000     5.1896E+00    17.0690  -1.0000    64.3498
 48      0.0000     0.0000E+00    0.0000E+00    4.250000E+09  0.02000  3.271E-05    0   0.5468   age158_m62            0.0000     7.2848E+00    20.3191  -1.0000    55.2302
 49      0.0000     0.0000E+00    0.0000E+00    1.000000E+10  0.02000  1.360E-05    0   0.5167   age181_m62            0.0000     9.9270E+00    23.9181  -1.0000    46.3242
 50      0.0000     0.0000E+00    0.0000E+00    1.800000E+10  0.02000  7.124E-06    0   0.5013   age213_m62            0.0000     1.1551E+01    25.8788  -1.0000    41.3595
 51      0.0000     0.0000E+00    0.0000E+00    1.000000E+06  0.05000  2.592E-02    0   0.9998   age020_m72            0.0000     2.1801E+00    11.0441   1.5690    78.4780
 52      0.0000     0.0000E+00    0.0000E+00    3.160000E+06  0.05000  4.845E-02    0   0.9577   age045_m72            0.0000     1.9242E+00    10.6620   1.3703    81.3399
 53      0.0000     0.0000E+00    0.0000E+00    5.010000E+06  0.05000  3.072E-02    0   0.9147   age055_m72            0.0000     1.8518E+00    10.2295   0.8903    84.9186
 54      0.0000     0.0000E+00    0.0000E+00    6.610000E+06  0.05000  1.455E-02    0   0.8877   age061_m72            0.0000     2.8446E+00    12.7433   0.1868    87.9211
 55      0.0000     0.0000E+00    0.0000E+00    1.000000E+07  0.05000  9.074E-03    0   0.8524   age070_m72            0.0000     1.9167E+00    10.4395   1.0756    84.6762
 56      0.0000     0.0000E+00    0.0000E+00    2.512000E+07  0.05000  4.250E-03    0   0.7902   age090_m72            0.0000     1.6446E+00     9.8954   0.7427    87.5653
 57      1.9304     5.5159E-01    6.4840E-01    4.000000E+07  0.05000  3.087E-03    0   0.7618   age104_m72            0.0000     1.5661E+00     9.7551   0.5019    89.5865
 58      0.0000     0.0000E+00    0.0000E+00    1.015200E+08  0.05000  1.700E-03    0   0.7096   age116_m72            0.0000     1.3797E+00     9.4264   0.2041    93.8004
 59      0.0000     0.0000E+00    0.0000E+00    2.861200E+08  0.05000  7.384E-04    0   0.6633   age125_m72            0.0000     1.4734E+00     9.6739  -0.3619   100.1591
 60      0.0000     0.0000E+00    0.0000E+00    5.088000E+08  0.05000  3.819E-04    0   0.6372   age130_m72            0.0000     1.5951E+00    10.0649  -0.8553   101.8642
 61      0.0000     0.0000E+00    0.0000E+00    9.047900E+08  0.05000  1.676E-04    0   0.6110   age135_m72            0.0000     2.9692E+00    12.9448  -1.0000    80.4279
 62      0.0000     0.0000E+00    0.0000E+00    1.434000E+09  0.05000  8.837E-05    0   0.5874   age139_m72            0.0000     5.2836E+00    17.1874  -1.0000    65.2804
 63      0.0000     0.0000E+00    0.0000E+00    2.500000E+09  0.05000  4.233E-05    0   0.5598   age150_m72            0.0000     7.3539E+00    20.3165  -1.0000    55.7136
 64      0.0000     0.0000E+00    0.0000E+00    6.250000E+09  0.05000  1.435E-05    0   0.5249   age166_m72            0.0000     1.0638E+01    24.8685  -1.0000    43.9565
 65      0.0000     0.0000E+00    0.0000E+00    1.300000E+10  0.05000  6.513E-06    0   0.5036   age193_m72            0.0000     1.2804E+01    27.4222  -1.0000    38.4862
 66      0.0000     0.0000E+00    0.0000E+00    1.800000E+10  0.05000  4.527E-06    0   0.4945   age213_m72            0.0000     1.4035E+01    28.8067  -1.0000    35.3573


## Synthesis Results - Average & Chains ##

# j      x_j: min, <> & last-chain-values for 1 ...  7 chains
  1      0.0000      0.0684      0.0000      0.0000      0.0000      0.0000      0.0000      0.0000      0.0000
  2      0.0000      0.4980      0.0000      0.8701      0.1589      0.0000      0.0000      0.0000      0.0000
  3      0.0000      0.2258      1.6395      0.3306      0.0000      0.0000      0.1616      1.1688      0.0000
  4      0.0000      0.2895      0.0000      0.4173      0.0000      0.0000      0.0000      0.0000      0.0000
  5      0.0000      0.4393      0.0000      0.0000      0.0000      0.0000      0.0000      0.0000      0.0000
  6      0.0000      0.2435      0.0000      0.0000      0.0322      0.0916      0.0000      0.0000      0.0000
  7      0.0000      0.2875      0.7876      0.0000      0.0000      0.0000      0.0000      0.0000      0.0000
  8      0.0000      0.4061      0.0000      0.0000      0.0000      1.3094      0.0000      0.0000      0.0000
  9      0.0000      0.9158      0.0000      0.0000      0.0000      0.1252      0.0000      0.0000      0.0000
 10      0.0000      1.9196      0.2038      2.2343      3.4875      2.2221      0.0000      0.0000      0.0000
 11     47.5850      9.1335     14.0946     10.3793     18.8655      8.9113     13.0288     12.6463     15.5985
 12     45.6562      9.2902     19.0535     10.3431      9.4014     16.9777      0.0000     16.9388     13.6690
 13      0.0000      0.0574      0.0000      0.0000      0.0000      0.0000      0.0000      0.0000      0.0000
 14      0.0000      0.0157      0.0000      0.0000      0.0000      0.0000      0.0000      0.0000      0.0000
 15      0.0000      0.0034      0.0000      0.0000      0.0000      0.0000      0.0000      0.0000      0.0000
 16      0.0000      0.0035      0.0000      0.0000      0.0000      0.0000      0.0000      0.0000      0.0000
 17      0.0000      0.0152      0.0000      0.0000      0.0000      0.0000      0.0000      0.0000      0.0000
 18      0.0000      0.0571      0.0000      0.0000      0.0000      0.0000      0.0000      0.0000      0.0000
 19      0.0000      0.0886      0.8243      0.0000      0.0000      0.0000      0.6501      0.0000      0.0000
 20      0.0000      0.2692      0.0000      0.0000      1.1496      0.0000      0.6362      0.0000      0.0000
 21      0.0000      0.2157      0.0000      0.0000      0.0000      0.0000      0.0000      0.0000      0.0000
 22      0.0000      0.2349      0.0000      1.5483      0.0000      0.0000      0.0000      0.0520      0.0000
 23      0.0000      0.1502      0.0000      0.0000      0.0000      0.0000      0.0000      0.0000      0.0000
 24      0.0000      0.3806      0.0132      0.0000      0.0000      0.0000      0.0000      1.2613      0.0000
 25      0.0000      0.8071      0.0000      0.0000      0.0000      0.0000      1.2275      0.0000      0.4445
 26      0.0000      2.1702      0.0000      0.0000      5.0659      1.2967      0.0416      1.2533      3.0271
 27      0.0000      5.4255      0.0000     12.0365      2.8250      5.7674      9.2980      0.0000      3.3552
 28      0.0000      0.2072      0.0000      0.0000      0.0000      0.0000      0.0000      1.0374      0.0000
 29      0.0000      0.0387      0.1190      0.0000      0.0000      0.0000      0.0000      0.0000      0.0000
 30      0.0000      0.0238      0.0000      0.0000      0.0000      0.0000      0.0000      0.0000      0.0000
 31      0.0000      0.0088      0.0000      0.0000      0.0000      0.0000      0.0000      0.0000      0.0000
 32      0.0000      0.0087      0.0000      0.0000      0.0000      0.0000      0.0000      0.0000      0.0000
 33      0.0000      0.0147      0.0000      0.0000      0.0000      0.0000      0.0000      0.0000      0.0000
 34      0.0000      0.0048      0.0000      0.0000      0.0000      0.0000      0.0000      0.0000      0.0000
 35      0.0000      0.0613      0.0000      0.0000      0.0000      0.2119      0.0000      0.0000      0.6993
 36      0.0000      0.0589      0.0000      0.0000      0.0000      0.0000      0.0000      0.0000      0.0000
 37      0.0000      0.2845      0.0000      0.0000      0.0000      0.0000      0.0000      0.0000      0.0000
 38      0.0000      0.0958      0.0000      0.0000      0.0000      0.0000      0.0000      0.0000      0.0000
 39      0.0000      0.2375      0.0000      0.0618      0.0000      0.0000      0.0895      0.0000      0.0000
 40      0.0000      0.4788      0.0000      0.0000      0.0000      0.0000      0.0000      0.0000      0.0000
 41      0.0000      0.6939      0.0000      0.0000      0.6879      0.4945      0.2835      0.0000      0.0000
 42      0.0000      5.8579      2.5596      4.8188      0.0000      0.0000      3.1546      0.7405     10.3077
 43      0.0000      4.4571      3.6322      0.6362      0.0000      0.0000      6.7490      0.0000      0.0000
 44      0.0000      1.5110      0.0000      0.0000      0.0000      0.0000      3.2431      0.0000      2.9213
 45      0.0000      0.1319      0.6389      0.0000      0.0000      0.0000      0.0000      0.0000      0.0000
 46      0.0000      0.0852      0.1749      0.0000      0.1156      0.0000      0.0000      0.0000      0.0000
