###################################################################
## OUTPUT of StarlightChains_v04.for    [Cid@UFSC - 01/Apr/2007] ##
###################################################################

## Some input info
2012bp.txt                               [arq_obs]
Base.CB07.vall.4m                        [arq_base]
Masks.EmLines.NEW.gm                     [arq_masks]
StCv04.C11.config                        [arq_config]
   66                                    [N_base]
    0                                    [N_YAV_components = # of components with extra extinction!]
    0                                    [i_FitPowerLaw (1/0 = Yes/No)]
-9.99                                    [alpha_PowerLaw]
CCM                                      [red_law_option]
 1.458241                                [q_norm = A(l_norm)/A(V)]

## (Re)Sampling Parameters
 3741.00                                 [l_ini (A)]
 7218.00                                 [l_fin (A)]
    1.00                                 [dl    (A)]     (OBS: dl_cushion =    50.00 A)

## Normalization info
 4020.00                                 [l_norm (A) - for base]
 4010.00                                 [llow_norm (A) - window for f_obs]
 4060.00                                 [lupp_norm (A) - window for f_obs]
4.798755E-18                             [fobs_norm (in input units)]

## S/N
 3691.00                                 [llow_SN (A) - window for S/N]
 7268.00                                 [lupp_SN (A) - window for S/N]
   1.667                                 [S/N in S/N window]
   1.100                                 [S/N in norm. window]
  10.000                                 [S/N_err in S/N window]
   6.600                                 [S/N_err in norm. window]
  1.0000                                 [fscale_chi2]

## etc...
    -2007389                             [idum_orig]
  2089                                   [NOl_eff]
   115                                   [Nl_eff]
  1974    NSIGMA                         [Ntot_cliped & clip_method]
   889980                                [Nglobal_steps]
   7                                     [N_chains]
  24                                     [NEX0s_base = N_base in EX0s-fits]
 0   0   1       21   2.0   1.365E+02    [Clip-Bug, RC-Crash & Burn-In warning-flags, n_censored_weights, wei_nsig_threshold & wei_limit]
    13     13.171     12.665      0.507  [idt_all, wdt_TotTime, wdt_UsrTime & wdt_SysTime (sec)]

## Synthesis Results - Best model ##

 2.79456E+00                             [chi2/Nl_eff]
    14.56420                             [adev (%)]

    75.22433                             [sum-of-x (%)]
 9.93332E-19                             [Flux_tot (units of input spectrum!)]
 4.82657E-15                             [Mini_tot (???)]
 2.84188E-15                             [Mcor_tot (???)]

 -35.08                                  [v0_min  (km/s)]
   0.01                                  [vd_min  (km/s)]
-0.9607                                  [AV_min  (mag)]
 0.0000                                  [YAV_min (mag)]

# j     x_j(%)      Mini_j(%)     Mcor_j(%)     age_j(yr)     Z_j      (L/M)_j    YAV?  Mstars   component_j        a/Fe...       SSP_chi2r SSP_adev(%)   SSP_AV   SSP_x(%)
  1      0.0000     0.0000E+00    0.0000E+00    1.000000E+06  0.00400  1.094E-02    0   1.0000   age020_m42            0.0000     3.5307E+00    16.0318   1.5721    61.7221
  2      0.0000     0.0000E+00    0.0000E+00    3.160000E+06  0.00400  4.007E-02    0   0.9999   age045_m42            0.0000     3.2580E+00    15.5924   0.8441    65.7000
  3      0.0000     0.0000E+00    0.0000E+00    5.010000E+06  0.00400  2.539E-02    0   0.9488   age055_m42            0.0000     3.4192E+00    15.8623   1.1757    63.7777
  4      0.0000     0.0000E+00    0.0000E+00    6.610000E+06  0.00400  2.620E-02    0   0.9220   age061_m42            0.0000     3.2698E+00    15.6457   0.7751    65.5166
  5      0.0000     0.0000E+00    0.0000E+00    1.000000E+07  0.00400  1.322E-02    0   0.8862   age070_m42            0.0000     3.3861E+00    16.0324   0.4883    66.2428
  6      0.0000     0.0000E+00    0.0000E+00    1.445000E+07  0.00400  7.883E-03    0   0.8571   age078_m42            0.0000     3.4734E+00    16.1265   0.8186    64.6361
  7      0.0000     0.0000E+00    0.0000E+00    2.512000E+07  0.00400  5.251E-03    0   0.8174   age090_m42            0.0000     3.4003E+00    16.0737   0.3570    66.4542
  8      0.0000     0.0000E+00    0.0000E+00    4.000000E+07  0.00400  3.649E-03    0   0.7851   age104_m42            0.0000     3.3109E+00    15.9448   0.1235    67.2436
  9      0.0000     0.0000E+00    0.0000E+00    5.500000E+07  0.00400  3.098E-03    0   0.7629   age110_m42            0.0000     3.2125E+00    15.7467   0.2780    67.5941
 10      0.0000     0.0000E+00    0.0000E+00    1.015200E+08  0.00400  2.228E-03    0   0.7207   age116_m42            0.0000     3.1514E+00    15.5484   0.3018    67.8187
 11      0.0000     0.0000E+00    0.0000E+00    2.861200E+08  0.00400  1.093E-03    0   0.6648   age125_m42            0.0000     3.1322E+00    15.5098  -0.2739    69.4997
 12      0.0000     0.0000E+00    0.0000E+00    5.088000E+08  0.00400  6.597E-04    0   0.6365   age130_m42            0.0000     3.0426E+00    15.1567  -0.2846    70.4932
 13      0.0000     0.0000E+00    0.0000E+00    1.434000E+09  0.00400  2.132E-04    0   0.5798   age139_m42            0.0000     3.3678E+00    15.8481  -1.0000    65.8690
 14      0.0000     0.0000E+00    0.0000E+00    4.250000E+09  0.00400  5.895E-05    0   0.5377   age158_m42            0.0000     5.8727E+00    19.8208  -1.0000    53.0916
 15      0.0000     0.0000E+00    0.0000E+00    7.500000E+09  0.00400  3.510E-05    0   0.5212   age171_m42            0.0000     7.5091E+00    22.5683  -1.0000    48.4612
 16      0.0000     0.0000E+00    0.0000E+00    1.300000E+10  0.00400  2.005E-05    0   0.5034   age193_m42            0.0000     9.1809E+00    25.2472  -1.0000    44.5767
 17      0.0000     0.0000E+00    0.0000E+00    1.800000E+10  0.00400  1.525E-05    0   0.4967   age213_m42            0.0000     9.4206E+00    25.6238  -1.0000    43.7809
 18      0.0000     0.0000E+00    0.0000E+00    1.000000E+06  0.00800  1.238E-02    0   1.0000   age020_m52            0.0000     3.5378E+00    16.0353   1.5690    61.8266
 19      0.0000     0.0000E+00    0.0000E+00    3.160000E+06  0.00800  3.074E-02    0   0.9966   age045_m52            0.0000     3.5444E+00    16.0199   1.4954    62.2547
 20      0.0000     0.0000E+00    0.0000E+00    5.010000E+06  0.00800  2.668E-02    0   0.9443   age055_m52            0.0000     3.4533E+00    15.9320   1.2551    63.3258
 21      0.0000     0.0000E+00    0.0000E+00    6.610000E+06  0.00800  2.136E-02    0   0.9177   age061_m52            0.0000     3.3049E+00    15.8052  -0.0223    67.4980
 22      0.0000     0.0000E+00    0.0000E+00    1.000000E+07  0.00800  1.215E-02    0   0.8827   age070_m52            0.0000     3.4736E+00    16.1472   0.6676    65.9397
 23      0.0000     0.0000E+00    0.0000E+00    1.445000E+07  0.00800  8.717E-03    0   0.8552   age078_m52            0.0000     3.4274E+00    16.0193   0.7819    65.5764
 24      0.0000     0.0000E+00    0.0000E+00    2.512000E+07  0.00800  5.592E-03    0   0.8162   age090_m52            0.0000     3.3724E+00    16.0173   0.4194    67.2857
 25      0.0000     0.0000E+00    0.0000E+00    4.000000E+07  0.00800  3.896E-03    0   0.7841   age104_m52            0.0000     3.2882E+00    15.8701   0.3313    67.9438
 26      0.0000     0.0000E+00    0.0000E+00    1.015200E+08  0.00800  2.148E-03    0   0.7226   age116_m52            0.0000     3.1815E+00    15.5958   0.2730    68.0755
 27      0.0000     0.0000E+00    0.0000E+00    2.861200E+08  0.00800  9.925E-04    0   0.6683   age125_m52            0.0000     2.9773E+00    15.0737  -0.2241    71.5139
 28      0.0000     0.0000E+00    0.0000E+00    9.047900E+08  0.00800  3.141E-04    0   0.6138   age135_m52            0.0000     2.9092E+00    14.7986  -1.0000    74.3932
 29      0.0000     0.0000E+00    0.0000E+00    1.434000E+09  0.00800  1.719E-04    0   0.5853   age139_m52            0.0000     5.1816E+00    18.5582  -1.0000    58.0416
 30      0.0000     0.0000E+00    0.0000E+00    2.500000E+09  0.00800  7.872E-05    0   0.5600   age150_m52            0.0000     7.2811E+00    22.1041  -1.0000    50.4456
 31      0.0000     0.0000E+00    0.0000E+00    4.250000E+09  0.00800  4.336E-05    0   0.5426   age158_m52            0.0000     7.4706E+00    22.3755  -1.0000    49.6007
 32      0.0000     0.0000E+00    0.0000E+00    6.250000E+09  0.00800  3.159E-05    0   0.5319   age166_m52            0.0000     9.5098E+00    25.5246  -1.0000    45.0656
 33      0.0000     0.0000E+00    0.0000E+00    1.300000E+10  0.00800  1.361E-05    0   0.5073   age193_m52            0.0000     1.4689E+01    32.2939  -1.0000    35.1119
 34      0.0000     0.0000E+00    0.0000E+00    1.800000E+10  0.00800  9.886E-06    0   0.4990   age213_m52            0.0000     1.5991E+01    33.6250  -1.0000    33.0560
 35      0.0000     0.0000E+00    0.0000E+00    1.000000E+06  0.02000  1.544E-02    0   1.0000   age020_m62            0.0000     3.5524E+00    16.0618   1.5653    61.9733
 36      0.0000     0.0000E+00    0.0000E+00    3.160000E+06  0.02000  3.762E-02    0   0.9858   age045_m62            0.0000     3.5544E+00    16.0199   1.5055    62.5089
 37      0.0000     0.0000E+00    0.0000E+00    5.010000E+06  0.02000  3.296E-02    0   0.9342   age055_m62            0.0000     3.3130E+00    15.6896   1.1300    64.8904
 38      0.0000     0.0000E+00    0.0000E+00    8.710000E+06  0.02000  1.154E-02    0   0.8861   age067_m62            0.0000     3.9991E+00    17.0696   0.0994    66.7447
 39      0.0000     0.0000E+00    0.0000E+00    1.445000E+07  0.02000  7.663E-03    0   0.8472   age078_m62            0.0000     3.5749E+00    16.3288   0.3012    67.3009
 40      0.0000     0.0000E+00    0.0000E+00    2.512000E+07  0.02000  4.532E-03    0   0.8099   age090_m62            0.0000     3.6179E+00    16.4067   0.2988    66.7726
 41      0.0000     0.0000E+00    0.0000E+00    5.500000E+07  0.02000  2.733E-03    0   0.7595   age110_m62            0.0000     3.3061E+00    15.8655   0.3156    67.4213
 42      0.0000     0.0000E+00    0.0000E+00    1.609000E+08  0.02000  1.369E-03    0   0.6985   age120_m62            0.0000     3.0744E+00    15.4138   0.1475    69.9262
 43      8.2229     2.4961E+00    2.8462E+00    2.861200E+08  0.02000  9.013E-04    0   0.6714   age125_m62            0.0000     2.9677E+00    15.0251  -0.1178    72.6041
 44      0.0000     0.0000E+00    0.0000E+00    5.088000E+08  0.02000  5.028E-04    0   0.6449   age130_m62            0.0000     2.9109E+00    14.7611  -0.5104    75.6252
 45      0.0000     0.0000E+00    0.0000E+00    9.047900E+08  0.02000  2.428E-04    0   0.6179   age135_m62            0.0000     2.9212E+00    14.8816  -1.0000    72.9186
 46      0.0000     0.0000E+00    0.0000E+00    1.434000E+09  0.02000  1.263E-04    0   0.5908   age139_m62            0.0000     4.5861E+00    17.5554  -1.0000    60.5397
 47      0.0000     0.0000E+00    0.0000E+00    2.500000E+09  0.02000  5.985E-05    0   0.5673   age150_m62            0.0000     7.4894E+00    22.2538  -1.0000    50.9277
 48      0.0000     0.0000E+00    0.0000E+00    4.250000E+09  0.02000  3.271E-05    0   0.5468   age158_m62            0.0000     1.0619E+01    26.8612  -1.0000    43.6023
 49      0.0000     0.0000E+00    0.0000E+00    1.000000E+10  0.02000  1.360E-05    0   0.5167   age181_m62            0.0000     1.4601E+01    31.7726  -1.0000    36.2595
 50      0.2000     7.6810E+00    6.5395E+00    1.800000E+10  0.02000  7.124E-06    0   0.5013   age213_m62            0.0000     1.7083E+01    34.3980  -1.0000    32.1737
 51      0.0000     0.0000E+00    0.0000E+00    1.000000E+06  0.05000  2.592E-02    0   0.9998   age020_m72            0.0000     3.6254E+00    16.1603   1.5589    61.8904
 52      0.0000     0.0000E+00    0.0000E+00    3.160000E+06  0.05000  4.845E-02    0   0.9577   age045_m72            0.0000     3.4781E+00    15.9104   1.3949    63.1548
 53      0.0000     0.0000E+00    0.0000E+00    5.010000E+06  0.05000  3.072E-02    0   0.9147   age055_m72            0.0000     3.6014E+00    16.1984   0.9025    65.0734
 54      0.0000     0.0000E+00    0.0000E+00    6.610000E+06  0.05000  1.455E-02    0   0.8877   age061_m72            0.0000     4.5666E+00    18.0545   0.1459    66.7523
 55      0.0000     0.0000E+00    0.0000E+00    1.000000E+07  0.05000  9.074E-03    0   0.8524   age070_m72            0.0000     3.6403E+00    16.2596   1.0948    64.8344
 56      0.0000     0.0000E+00    0.0000E+00    2.512000E+07  0.05000  4.250E-03    0   0.7902   age090_m72            0.0000     3.5437E+00    16.1779   0.7887    65.8072
 57      0.0000     0.0000E+00    0.0000E+00    4.000000E+07  0.05000  3.087E-03    0   0.7618   age104_m72            0.0000     3.5435E+00    16.2060   0.5525    66.8298
 58      0.0000     0.0000E+00    0.0000E+00    1.015200E+08  0.05000  1.700E-03    0   0.7096   age116_m72            0.0000     3.1833E+00    15.6434   0.2898    69.3587
 59     29.0785     1.0774E+01    1.2137E+01    2.861200E+08  0.05000  7.384E-04    0   0.6633   age125_m72            0.0000     2.9001E+00    14.7807  -0.2606    74.2504
 60      1.6694     1.1959E+00    1.2942E+00    5.088000E+08  0.05000  3.819E-04    0   0.6372   age130_m72            0.0000     2.8246E+00    14.5161  -0.7543    76.1333
 61     35.5829     5.8085E+01    6.0275E+01    9.047900E+08  0.05000  1.676E-04    0   0.6110   age135_m72            0.0000     4.0942E+00    16.7127  -1.0000    63.8811
 62      0.0000     0.0000E+00    0.0000E+00    1.434000E+09  0.05000  8.837E-05    0   0.5874   age139_m72            0.0000     7.5419E+00    22.3224  -1.0000    51.8087
 63      0.0000     0.0000E+00    0.0000E+00    2.500000E+09  0.05000  4.233E-05    0   0.5598   age150_m72            0.0000     1.0680E+01    26.8007  -1.0000    44.1357
 64      0.0000     0.0000E+00    0.0000E+00    6.250000E+09  0.05000  1.435E-05    0   0.5249   age166_m72            0.0000     1.5737E+01    33.0319  -1.0000    34.3252
 65      0.4706     1.9768E+01    1.6907E+01    1.300000E+10  0.05000  6.513E-06    0   0.5036   age193_m72            0.0000     1.9048E+01    36.3143  -1.0000    29.7462
 66      0.0000     0.0000E+00    0.0000E+00    1.800000E+10  0.05000  4.527E-06    0   0.4945   age213_m72            0.0000     2.0862E+01    37.9722  -1.0000    27.1600


## Synthesis Results - Average & Chains ##

# j      x_j: min, <> & last-chain-values for 1 ...  7 chains
  1      0.0000      0.4013      0.7445      0.0000      0.1134      1.5969      0.0477      0.0318      0.0000
  2      0.0000      0.6810      0.0000      1.9791      3.7029      1.0235      0.0000      0.0000      1.4697
  3      0.0000      0.4210      0.0000      0.0000      0.0209      0.7523      0.0000      0.0000      0.0000
  4      0.0000      0.7553      1.5918      1.1058      0.0000      1.0073      0.0000      2.9189      0.0000
  5      0.0000      0.4858      0.0000      0.4472      0.0000      0.0000      0.2399      0.5499      2.6878
  6      0.0000      0.4677      0.0000      0.2102      0.0000      0.0000      0.0000      0.9497      0.2541
  7      0.0000      0.5922      0.0000      0.0000      0.0000      0.0000      0.0000      1.5579      0.0000
  8      0.0000      0.5585      0.0000      0.0000      0.3412      0.0000      0.0000      0.0820      0.5208
  9      0.0000      1.0285      1.4051      1.8341      0.0000      0.0000      0.0000      0.0000      0.5578
 10      0.0000      1.2014      2.2285      2.7787      5.4370      0.0000      1.6640      2.0604      1.3896
 11      0.0000      1.2097      1.7355      4.4232      0.0000      0.0000      0.0000      0.4691      0.0000
 12      0.0000      2.1257      2.7432      8.0239      0.0000      0.0000      1.6417      0.2870      5.3360
 13      0.0000      2.7373      4.3668      2.1627      6.1410      8.6698      0.0000      3.8016      5.6831
 14      0.0000      1.6233      0.0000      0.0000      7.0578      0.0000      0.0000      3.7619      0.0000
 15      0.0000      1.1150      1.4628      3.1299      1.3098      0.6318      0.8984      0.0000      0.5101
 16      0.0000      0.9307      1.1308      0.0000      0.8969      0.6190      0.0000      0.5524      0.0000
 17      0.0000      0.5921      0.0000      0.2389      0.0000      0.0000      0.0000      0.0000      0.0000
 18      0.0000      0.4172      0.0000      0.3159      0.0000      0.1362      0.0000      0.4785      0.1947
 19      0.0000      0.3835      0.0000      0.0000      0.0000      0.0000      0.0000      0.0000      0.0000
 20      0.0000      0.4169      0.0000      0.0000      0.0000      0.0000      0.0000      0.0000      0.1870
 21      0.0000      0.7103      0.0000      0.0000      0.0000      0.0000      0.0000      0.0000      0.0000
 22      0.0000      0.5956      0.7142      0.5587      0.0000      0.0000      0.0000      0.0000      0.0000
 23      0.0000      0.5243      0.0116      0.0000      0.0296      0.5116      0.0000      0.0000      1.3549
 24      0.0000      0.7960      1.2802      0.0000      0.0000      0.3037      2.8627      0.0000      0.2414
 25      0.0000      0.5245      0.0000      0.0000      0.0000      1.3942      1.4576      1.0278      0.0000
 26      0.0000      0.6970      0.5312      0.0000      0.0000      3.8693      0.0000      0.0000      0.4069
 27      0.0000      1.7910      0.0000      1.8982      0.0000      0.0000      0.0000      1.4054      0.3728
 28      0.0000      2.9090      5.2262      0.4181      1.5015      6.8062      5.3272      3.3664      0.0000
 29      0.0000      1.4743      0.0000      1.7711      3.2851      0.0000      0.0000      0.0000      0.7339
 30      0.0000      0.8734      0.0000      0.4510      0.0000      0.0000      1.1923      3.8397      0.0000
 31      0.0000      0.8715      0.0000      0.0000      0.0000      0.0000      2.3003      2.8344      1.2143
 32      0.0000      0.9398      1.9057      0.3750      1.2651      0.0000      2.6370      0.0000      0.4110
 33      0.0000      0.4574      0.0000      0.0000      0.0000      0.1651      0.0000      0.0000      0.0000
 34      0.0000      0.2385      0.0000      0.0000      0.0107      0.0000      0.0000      0.2540      0.0000
 35      0.0000      0.3474      0.0000      0.0000      1.9951      0.0000      0.0000      0.0000      0.0264
 36      0.0000      0.3535      0.0000      0.0000      1.1094      0.0000      0.0000      0.2806      0.0000
 37      0.0000      0.4748      0.0000      0.0000      0.0000      0.3184      3.7317      0.4851      0.2497
 38      0.0000      0.3351      0.0000      0.8146      0.0000      0.0000      0.0000      0.0000      0.0000
 39      0.0000      0.9652      4.9282      0.0000      0.0000      0.7657      0.0000      0.2656      0.0000
 40      0.0000      0.5321      0.0000      0.0000      0.0000      1.4360      0.0000      0.4856      0.0902
 41      0.0000      0.8395      0.0000      0.0000      2.9713      0.0000      0.0000      0.0000      0.6696
 42      0.0000      1.2235      2.4780      0.6954      1.8515      0.0000      1.9826      0.0000      0.0000
 43      8.2229      1.4224      3.6423      2.9903      2.6534      9.4984      0.0000      3.1177      2.5436
 44      0.0000      4.0780      5.9369      8.4845      3.1784      2.5671      4.1586      5.3953      0.0000
 45      0.0000      3.2371      4.6108      0.9442      1.6176      1.6026      5.0379      7.1326      8.0785
 46      0.0000      2.1441      0.0000      3.1662      3.1637      1.8931      0.0000      2.5228      1.5715
