###################################################################
## OUTPUT of StarlightChains_v04.for    [Cid@UFSC - 01/Apr/2007] ##
###################################################################

## Some input info
2012cd.txt                               [arq_obs]
Base.CB07.vall.4m                        [arq_base]
Masks.EmLines.NEW.gm                     [arq_masks]
StCv04.C11.config                        [arq_config]
   66                                    [N_base]
    0                                    [N_YAV_components = # of components with extra extinction!]
    0                                    [i_FitPowerLaw (1/0 = Yes/No)]
-9.99                                    [alpha_PowerLaw]
CCM                                      [red_law_option]
 1.458241                                [q_norm = A(l_norm)/A(V)]

## (Re)Sampling Parameters
 3741.00                                 [l_ini (A)]
 7218.00                                 [l_fin (A)]
    1.00                                 [dl    (A)]     (OBS: dl_cushion =    50.00 A)

## Normalization info
 4020.00                                 [l_norm (A) - for base]
 4010.00                                 [llow_norm (A) - window for f_obs]
 4060.00                                 [lupp_norm (A) - window for f_obs]
3.916927E-17                             [fobs_norm (in input units)]

## S/N
 3691.00                                 [llow_SN (A) - window for S/N]
 7268.00                                 [lupp_SN (A) - window for S/N]
   2.372                                 [S/N in S/N window]
   3.596                                 [S/N in norm. window]
  10.000                                 [S/N_err in S/N window]
  15.164                                 [S/N_err in norm. window]
  1.0000                                 [fscale_chi2]

## etc...
    -2007391                             [idum_orig]
  2372                                   [NOl_eff]
  1005                                   [Nl_eff]
  1367    NSIGMA                         [Ntot_cliped & clip_method]
  1029630                                [Nglobal_steps]
   7                                     [N_chains]
  23                                     [NEX0s_base = N_base in EX0s-fits]
 0   0   1        7   2.0   1.855E+02    [Clip-Bug, RC-Crash & Burn-In warning-flags, n_censored_weights, wei_nsig_threshold & wei_limit]
    12     12.204     11.690      0.514  [idt_all, wdt_TotTime, wdt_UsrTime & wdt_SysTime (sec)]

## Synthesis Results - Best model ##

 2.55447E+00                             [chi2/Nl_eff]
    13.39403                             [adev (%)]

    72.44167                             [sum-of-x (%)]
 7.40692E-18                             [Flux_tot (units of input spectrum!)]
 2.09355E-13                             [Mini_tot (???)]
 1.09308E-13                             [Mcor_tot (???)]

  36.00                                  [v0_min  (km/s)]
 118.03                                  [vd_min  (km/s)]
-1.0000                                  [AV_min  (mag)]
 0.0000                                  [YAV_min (mag)]

# j     x_j(%)      Mini_j(%)     Mcor_j(%)     age_j(yr)     Z_j      (L/M)_j    YAV?  Mstars   component_j        a/Fe...       SSP_chi2r SSP_adev(%)   SSP_AV   SSP_x(%)
  1      0.0000     0.0000E+00    0.0000E+00    1.000000E+06  0.00400  1.094E-02    0   1.0000   age020_m42            0.0000     3.6858E+00    14.9087   2.3629    56.9142
  2      0.0000     0.0000E+00    0.0000E+00    3.160000E+06  0.00400  4.007E-02    0   0.9999   age045_m42            0.0000     3.0968E+00    14.2529   1.5699    62.8495
  3      0.0000     0.0000E+00    0.0000E+00    5.010000E+06  0.00400  2.539E-02    0   0.9488   age055_m42            0.0000     3.2710E+00    14.4676   1.9070    60.7913
  4      0.0000     0.0000E+00    0.0000E+00    6.610000E+06  0.00400  2.620E-02    0   0.9220   age061_m42            0.0000     3.0438E+00    14.2215   1.4804    63.4077
  5      0.0000     0.0000E+00    0.0000E+00    1.000000E+07  0.00400  1.322E-02    0   0.8862   age070_m42            0.0000     3.3247E+00    14.7614   1.1857    64.6406
  6      0.0000     0.0000E+00    0.0000E+00    1.445000E+07  0.00400  7.883E-03    0   0.8571   age078_m42            0.0000     3.4188E+00    14.8404   1.5278    62.6077
  7      0.0000     0.0000E+00    0.0000E+00    2.512000E+07  0.00400  5.251E-03    0   0.8174   age090_m42            0.0000     3.3460E+00    14.8375   1.0501    65.1013
  8      0.0000     0.0000E+00    0.0000E+00    4.000000E+07  0.00400  3.649E-03    0   0.7851   age104_m42            0.0000     3.2333E+00    14.6787   0.8144    65.9584
  9      0.0000     0.0000E+00    0.0000E+00    5.500000E+07  0.00400  3.098E-03    0   0.7629   age110_m42            0.0000     3.0483E+00    14.3595   0.9637    66.3089
 10      0.0000     0.0000E+00    0.0000E+00    1.015200E+08  0.00400  2.228E-03    0   0.7207   age116_m42            0.0000     2.9239E+00    14.1421   0.9784    66.7538
 11      0.0000     0.0000E+00    0.0000E+00    2.861200E+08  0.00400  1.093E-03    0   0.6648   age125_m42            0.0000     2.9639E+00    14.3348   0.3873    69.2046
 12      0.0000     0.0000E+00    0.0000E+00    5.088000E+08  0.00400  6.597E-04    0   0.6365   age130_m42            0.0000     2.7983E+00    13.9845   0.3782    70.0093
 13     22.7009     5.2002E+00    5.7747E+00    1.434000E+09  0.00400  2.132E-04    0   0.5798   age139_m42            0.0000     2.6359E+00    13.6018  -0.5836    71.2554
 14      0.0000     0.0000E+00    0.0000E+00    4.250000E+09  0.00400  5.895E-05    0   0.5377   age158_m42            0.0000     2.6715E+00    13.5900  -0.9880    67.6592
 15      0.0000     0.0000E+00    0.0000E+00    7.500000E+09  0.00400  3.510E-05    0   0.5212   age171_m42            0.0000     2.8078E+00    13.7083  -1.0000    62.5044
 16      0.0000     0.0000E+00    0.0000E+00    1.300000E+10  0.00400  2.005E-05    0   0.5034   age193_m42            0.0000     3.1440E+00    14.2876  -1.0000    57.8882
 17      0.0000     0.0000E+00    0.0000E+00    1.800000E+10  0.00400  1.525E-05    0   0.4967   age213_m42            0.0000     3.2033E+00    14.3873  -1.0000    57.0289
 18      0.0000     0.0000E+00    0.0000E+00    1.000000E+06  0.00800  1.238E-02    0   1.0000   age020_m52            0.0000     3.6786E+00    14.8993   2.3592    57.0315
 19      0.0000     0.0000E+00    0.0000E+00    3.160000E+06  0.00800  3.074E-02    0   0.9966   age045_m52            0.0000     3.5433E+00    14.7575   2.2674    57.9999
 20      0.0000     0.0000E+00    0.0000E+00    5.010000E+06  0.00800  2.668E-02    0   0.9443   age055_m52            0.0000     3.3203E+00    14.5248   1.9919    60.1583
 21      0.0000     0.0000E+00    0.0000E+00    6.610000E+06  0.00800  2.136E-02    0   0.9177   age061_m52            0.0000     3.3399E+00    14.7110   0.7080    64.7691
 22      0.0000     0.0000E+00    0.0000E+00    1.000000E+07  0.00800  1.215E-02    0   0.8827   age070_m52            0.0000     3.4835E+00    14.9984   1.3689    64.2276
 23      0.0000     0.0000E+00    0.0000E+00    1.445000E+07  0.00800  8.717E-03    0   0.8552   age078_m52            0.0000     3.3671E+00    14.7763   1.4872    63.6390
 24      0.0000     0.0000E+00    0.0000E+00    2.512000E+07  0.00800  5.592E-03    0   0.8162   age090_m52            0.0000     3.3209E+00    14.8018   1.1080    66.0102
 25      0.0000     0.0000E+00    0.0000E+00    4.000000E+07  0.00800  3.896E-03    0   0.7841   age104_m52            0.0000     3.1868E+00    14.6184   1.0117    66.8793
 26      0.0000     0.0000E+00    0.0000E+00    1.015200E+08  0.00800  2.148E-03    0   0.7226   age116_m52            0.0000     2.9679E+00    14.2524   0.9432    67.2487
 27      0.0000     0.0000E+00    0.0000E+00    2.861200E+08  0.00800  9.925E-04    0   0.6683   age125_m52            0.0000     2.7907E+00    13.9739   0.4429    70.6349
 28      0.0000     0.0000E+00    0.0000E+00    9.047900E+08  0.00800  3.141E-04    0   0.6138   age135_m52            0.0000     2.6433E+00    13.6450  -0.3434    73.4116
 29      0.0000     0.0000E+00    0.0000E+00    1.434000E+09  0.00800  1.719E-04    0   0.5853   age139_m52            0.0000     2.6522E+00    13.6237  -0.9110    71.5403
 30      0.0005     3.3526E-04    3.5959E-04    2.500000E+09  0.00800  7.872E-05    0   0.5600   age150_m52            0.0000     2.7327E+00    13.5769  -1.0000    64.8381
 31      0.0000     0.0000E+00    0.0000E+00    4.250000E+09  0.00800  4.336E-05    0   0.5426   age158_m52            0.0000     2.7831E+00    13.6602  -1.0000    63.8139
 32      0.0000     0.0000E+00    0.0000E+00    6.250000E+09  0.00800  3.159E-05    0   0.5319   age166_m52            0.0000     3.1782E+00    14.3185  -1.0000    58.5247
 33      0.0000     0.0000E+00    0.0000E+00    1.300000E+10  0.00800  1.361E-05    0   0.5073   age193_m52            0.0000     5.0201E+00    17.5961  -1.0000    46.7629
 34      0.0000     0.0000E+00    0.0000E+00    1.800000E+10  0.00800  9.886E-06    0   0.4990   age213_m52            0.0000     5.5451E+00    18.3841  -1.0000    44.2435
 35      0.0000     0.0000E+00    0.0000E+00    1.000000E+06  0.02000  1.544E-02    0   1.0000   age020_m62            0.0000     3.6751E+00    14.9041   2.3547    57.1863
 36      0.0000     0.0000E+00    0.0000E+00    3.160000E+06  0.02000  3.762E-02    0   0.9858   age045_m62            0.0000     3.5680E+00    14.7945   2.2802    58.1007
 37      0.0000     0.0000E+00    0.0000E+00    5.010000E+06  0.02000  3.296E-02    0   0.9342   age055_m62            0.0000     3.1116E+00    14.2679   1.8499    62.0962
 38      0.0000     0.0000E+00    0.0000E+00    8.710000E+06  0.02000  1.154E-02    0   0.8861   age067_m62            0.0000     4.5512E+00    16.6906   0.8189    65.0117
 39      0.0000     0.0000E+00    0.0000E+00    1.445000E+07  0.02000  7.663E-03    0   0.8472   age078_m62            0.0000     3.7396E+00    15.4567   1.0103    65.5000
 40      0.0000     0.0000E+00    0.0000E+00    2.512000E+07  0.02000  4.532E-03    0   0.8099   age090_m62            0.0000     3.7251E+00    15.4919   0.9892    65.6831
 41      0.0000     0.0000E+00    0.0000E+00    5.500000E+07  0.02000  2.733E-03    0   0.7595   age110_m62            0.0000     3.1879E+00    14.6204   0.9948    66.3997
 42      0.0000     0.0000E+00    0.0000E+00    1.609000E+08  0.02000  1.369E-03    0   0.6985   age120_m62            0.0000     2.8874E+00    14.1548   0.8130    69.1612
 43      0.0000     0.0000E+00    0.0000E+00    2.861200E+08  0.02000  9.013E-04    0   0.6714   age125_m62            0.0000     2.7704E+00    13.9125   0.5530    71.5827
 44     23.0079     2.2349E+00    2.7604E+00    5.088000E+08  0.02000  5.028E-04    0   0.6449   age130_m62            0.0000     2.6403E+00    13.5856   0.1850    73.4498
 45      0.0000     0.0000E+00    0.0000E+00    9.047900E+08  0.02000  2.428E-04    0   0.6179   age135_m62            0.0000     2.6045E+00    13.5338  -0.3808    72.4703
 46      0.0000     0.0000E+00    0.0000E+00    1.434000E+09  0.02000  1.263E-04    0   0.5908   age139_m62            0.0000     2.6365E+00    13.5337  -0.8089    70.9653
 47      0.0000     0.0000E+00    0.0000E+00    2.500000E+09  0.02000  5.985E-05    0   0.5673   age150_m62            0.0000     2.7649E+00    13.5726  -1.0000    65.2326
 48      1.2837     1.9167E+00    2.0073E+00    4.250000E+09  0.02000  3.271E-05    0   0.5468   age158_m62            0.0000     3.4512E+00    14.7652  -1.0000    56.7052
 49      0.0000     0.0000E+00    0.0000E+00    1.000000E+10  0.02000  1.360E-05    0   0.5167   age181_m62            0.0000     4.8950E+00    17.2169  -1.0000    48.0571
 50      0.1635     1.1211E+00    1.0764E+00    1.800000E+10  0.02000  7.124E-06    0   0.5013   age213_m62            0.0000     5.9663E+00    18.8289  -1.0000    43.1234
 51      0.0000     0.0000E+00    0.0000E+00    1.000000E+06  0.05000  2.592E-02    0   0.9998   age020_m72            0.0000     3.7102E+00    14.9616   2.3488    57.1295
 52      0.0000     0.0000E+00    0.0000E+00    3.160000E+06  0.05000  4.845E-02    0   0.9577   age045_m72            0.0000     3.3297E+00    14.5244   2.1382    59.6449
 53      0.0000     0.0000E+00    0.0000E+00    5.010000E+06  0.05000  3.072E-02    0   0.9147   age055_m72            0.0000     3.6572E+00    15.2144   1.6179    62.7234
 54      0.0000     0.0000E+00    0.0000E+00    6.610000E+06  0.05000  1.455E-02    0   0.8877   age061_m72            0.0000     5.4326E+00    18.2732   0.8514    65.4781
 55      0.0000     0.0000E+00    0.0000E+00    1.000000E+07  0.05000  9.074E-03    0   0.8524   age070_m72            0.0000     3.8159E+00    15.5735   1.7988    62.6143
 56      0.0000     0.0000E+00    0.0000E+00    2.512000E+07  0.05000  4.250E-03    0   0.7902   age090_m72            0.0000     3.4881E+00    15.1039   1.4648    64.7752
 57      0.0000     0.0000E+00    0.0000E+00    4.000000E+07  0.05000  3.087E-03    0   0.7618   age104_m72            0.0000     3.4359E+00    15.0739   1.2209    66.2723
 58      0.0000     0.0000E+00    0.0000E+00    1.015200E+08  0.05000  1.700E-03    0   0.7096   age116_m72            0.0000     2.9885E+00    14.3499   0.9510    68.8446
 59      0.0047     3.0959E-04    3.9331E-04    2.861200E+08  0.05000  7.384E-04    0   0.6633   age125_m72            0.0000     2.6927E+00    13.7338   0.4231    72.6049
 60      0.0000     0.0000E+00    0.0000E+00    5.088000E+08  0.05000  3.819E-04    0   0.6372   age130_m72            0.0000     2.5880E+00    13.4804  -0.0495    73.4050
 61      0.4167     1.2142E-01    1.4209E-01    9.047900E+08  0.05000  1.676E-04    0   0.6110   age135_m72            0.0000     2.6183E+00    13.4218  -0.7109    71.3135
 62      0.0000     0.0000E+00    0.0000E+00    1.434000E+09  0.05000  8.837E-05    0   0.5874   age139_m72            0.0000     2.7608E+00    13.5148  -1.0000    66.2056
 63     12.2003     1.4076E+01    1.5092E+01    2.500000E+09  0.05000  4.233E-05    0   0.5598   age150_m72            0.0000     3.4672E+00    14.7644  -1.0000    57.2210
 64      6.6469     2.2622E+01    2.2743E+01    6.250000E+09  0.05000  1.435E-05    0   0.5249   age166_m72            0.0000     5.3445E+00    17.9293  -1.0000    45.7055
 65      3.7093     2.7815E+01    2.6828E+01    1.300000E+10  0.05000  6.513E-06    0   0.5036   age193_m72            0.0000     6.8775E+00    20.1120  -1.0000    40.2449
 66      2.3073     2.4892E+01    2.3575E+01    1.800000E+10  0.05000  4.527E-06    0   0.4945   age213_m72            0.0000     7.8220E+00    21.3338  -1.0000    37.0713


## Synthesis Results - Average & Chains ##

# j      x_j: min, <> & last-chain-values for 1 ...  7 chains
  1      0.0000      0.0192      0.0000      0.0000      0.0000      0.0000      0.0000      0.0000      0.0000
  2      0.0000      0.0964      0.0000      0.0000      0.0000      0.0000      0.0000      0.0000      0.0000
  3      0.0000      0.0701      0.0000      0.0000      0.0000      0.0000      0.0000      0.5560      0.0000
  4      0.0000      0.1295      0.3056      0.0000      0.0000      0.0000      0.0000      0.0746      0.0000
  5      0.0000      0.1383      0.0000      0.0000      0.1505      0.0000      0.0000      0.0000      0.0000
  6      0.0000      0.0533      0.0000      0.0000      0.0000      0.0000      0.0000      0.0000      0.0000
  7      0.0000      0.0939      0.0000      0.0000      0.0000      0.0000      0.0000      0.0000      0.0000
  8      0.0000      0.1697      0.0000      0.0000      0.0000      0.0588      0.0000      0.5655      0.0000
  9      0.0000      0.3972      0.0000      0.0000      0.0000      0.0574      0.0000      0.0000      0.0000
 10      0.0000      0.2113      0.6073      0.7337      0.0000      0.0000      0.0000      0.0000      0.5924
 11      0.0000      0.4252      0.0000      0.0000      1.7917      0.0038      0.0000      0.5227      0.4127
 12      0.0000      0.6064      1.3091      1.4057      0.3459      0.0000      0.0000      1.2442      0.3052
 13     22.7009      2.0992      1.0143     10.1703      1.8199      1.6927      6.0406      0.8140      5.8806
 14      0.0000      2.3726      1.8003      4.7802      1.1397      5.9609      3.5725      0.0620      1.6039
 15      0.0000      1.5155      0.5419      0.0000      1.3885      6.3014      2.6582      2.0435      0.0000
 16      0.0000      0.7149      1.7645      0.5098      2.1833      0.0000      0.0308      0.2067      0.0000
 17      0.0000      1.4039      0.0000      0.9439      0.0000      0.5362      0.0000      0.4112      0.0000
 18      0.0000      0.0182      0.0000      0.0000      0.0034      0.0000      0.0000      0.0000      0.0000
 19      0.0000      0.0375      0.0000      0.0000      0.0000      0.0000      0.1650      0.0875      0.0000
 20      0.0000      0.0740      0.0000      0.0000      0.0000      0.2834      0.0000      0.0000      0.0000
 21      0.0000      0.0482      0.0000      0.0150      0.0000      0.0000      0.0000      0.0000      0.0000
 22      0.0000      0.0981      0.0000      0.0000      0.0000      0.0000      0.0000      0.0000      0.0000
 23      0.0000      0.0834      0.0000      0.0000      0.0000      0.3165      0.0000      0.0000      0.0000
 24      0.0000      0.1342      0.0000      0.0000      0.0000      0.0663      0.0000      0.0000      0.0000
 25      0.0000      0.1449      0.1501      0.0000      0.0000      0.0000      0.0000      0.0000      0.0000
 26      0.0000      0.1379      0.0000      0.0000      0.0000      0.0000      0.2635      0.0000      0.0000
 27      0.0000      0.6657      2.9147      0.0000      0.7494      0.8965      1.3880      0.0000      0.0000
 28      0.0000      0.8399      1.7465      0.6140      1.6253      1.7365      1.0223      1.9953      1.7361
 29      0.0000      1.6812      0.3328      2.5309      0.0000      0.6807      6.3769      0.2730      1.9966
 30      0.0005      1.5086      0.0000      1.1292      1.4718      0.0000      2.7294      3.4054      0.9794
 31      0.0000      1.0156      0.0000      0.0000      1.9695      0.0000      0.0000      0.0000      1.6812
 32      0.0000      1.5351      3.4930      0.0000      2.8285      0.3659      0.0000      0.6475      2.3511
 33      0.0000      0.7632      0.0633      0.0353      0.0000      0.0000      0.0000      2.9263      0.0000
 34      0.0000      0.6792      1.4352      0.0000      0.0000      0.0000      0.0000      0.0000      0.0000
 35      0.0000      0.0253      0.0000      0.0000      0.0000      0.0348      0.0000      0.0000      0.0000
 36      0.0000      0.0544      0.0000      0.0000      0.0000      0.0000      0.0000      0.0769      0.0000
 37      0.0000      0.0498      0.0000      0.0326      0.0605      0.0000      0.0000      0.0000      0.0000
 38      0.0000      0.0566      0.0000      0.0000      0.0000      0.0000      0.0000      0.0000      0.0000
 39      0.0000      0.0660      0.0000      0.0000      0.0304      0.0000      0.0000      0.0000      0.0000
 40      0.0000      0.1019      0.0000      0.0000      0.0000      0.0000      0.0000      0.0000      0.0000
 41      0.0000      0.1415      0.0000      0.0000      0.0000      0.0000      0.0000      0.9646      0.0000
 42      0.0000      0.5195      1.1124      0.0000      0.1400      0.3123      1.0470      0.9932      1.3607
 43      0.0000      1.4449      1.6818      4.8289      0.8384      1.4499      2.7779      1.8316      1.8518
 44     23.0079     20.2079     21.6728     12.9435     26.0260     22.5640     11.9951     24.2695     19.9653
 45      0.0000      1.0178      1.4690      3.3237      2.1233      0.1056      1.0548      1.8941      0.0000
 46      0.0000      1.7576      0.8846      1.6657      0.0000      2.7082      2.3977      0.4006      0.9610
