###################################################################
## OUTPUT of StarlightChains_v04.for    [Cid@UFSC - 01/Apr/2007] ##
###################################################################

## Some input info
2012C.txt                                [arq_obs]
Base.CB07.vall.4m                        [arq_base]
Masks.EmLines.NEW.gm                     [arq_masks]
StCv04.C11.config                        [arq_config]
   66                                    [N_base]
    0                                    [N_YAV_components = # of components with extra extinction!]
    0                                    [i_FitPowerLaw (1/0 = Yes/No)]
-9.99                                    [alpha_PowerLaw]
CCM                                      [red_law_option]
 1.458241                                [q_norm = A(l_norm)/A(V)]

## (Re)Sampling Parameters
 3741.00                                 [l_ini (A)]
 7218.00                                 [l_fin (A)]
    1.00                                 [dl    (A)]     (OBS: dl_cushion =    50.00 A)

## Normalization info
 4020.00                                 [l_norm (A) - for base]
 4010.00                                 [llow_norm (A) - window for f_obs]
 4060.00                                 [lupp_norm (A) - window for f_obs]
3.392481E-16                             [fobs_norm (in input units)]

## S/N
 3691.00                                 [llow_SN (A) - window for S/N]
 7268.00                                 [lupp_SN (A) - window for S/N]
   7.938                                 [S/N in S/N window]
   9.873                                 [S/N in norm. window]
  25.916                                 [S/N_err in S/N window]
  32.232                                 [S/N_err in norm. window]
  1.0000                                 [fscale_chi2]

## etc...
    -2007390                             [idum_orig]
  2384                                   [NOl_eff]
  2379                                   [Nl_eff]
     5    NSIGMA                         [Ntot_cliped & clip_method]
  1923250                                [Nglobal_steps]
   7                                     [N_chains]
  25                                     [NEX0s_base = N_base in EX0s-fits]
 0   0   1        5   2.0   6.967E+01    [Clip-Bug, RC-Crash & Burn-In warning-flags, n_censored_weights, wei_nsig_threshold & wei_limit]
    21     20.559     20.030      0.530  [idt_all, wdt_TotTime, wdt_UsrTime & wdt_SysTime (sec)]

## Synthesis Results - Best model ##

 3.74114E-01                             [chi2/Nl_eff]
     1.70151                             [adev (%)]

   102.85384                             [sum-of-x (%)]
 5.84379E-16                             [Flux_tot (units of input spectrum!)]
 2.78667E-12                             [Mini_tot (???)]
 1.57843E-12                             [Mcor_tot (???)]

-132.34                                  [v0_min  (km/s)]
 154.04                                  [vd_min  (km/s)]
 0.3840                                  [AV_min  (mag)]
 0.0000                                  [YAV_min (mag)]

# j     x_j(%)      Mini_j(%)     Mcor_j(%)     age_j(yr)     Z_j      (L/M)_j    YAV?  Mstars   component_j        a/Fe...       SSP_chi2r SSP_adev(%)   SSP_AV   SSP_x(%)
  1      2.8296     5.2735E-02    9.3102E-02    1.000000E+06  0.00400  1.094E-02    0   1.0000   age020_m42            0.0000     2.6099E+00     5.0462   2.6342    85.6642
  2      1.4845     7.5535E-03    1.3334E-02    3.160000E+06  0.00400  4.007E-02    0   0.9999   age045_m42            0.0000     1.7366E+00     3.6904   1.9047    91.7460
  3      0.0000     0.0000E+00    0.0000E+00    5.010000E+06  0.00400  2.539E-02    0   0.9488   age055_m42            0.0000     2.0137E+00     4.1715   2.2231    89.5442
  4      0.0000     0.0000E+00    0.0000E+00    6.610000E+06  0.00400  2.620E-02    0   0.9220   age061_m42            0.0000     1.5738E+00     3.5608   1.8234    92.2808
  5      0.2944     4.5410E-03    7.1046E-03    1.000000E+07  0.00400  1.322E-02    0   0.8862   age070_m42            0.0000     1.1828E+00     3.1561   1.4826    96.8011
  6      0.0000     0.0000E+00    0.0000E+00    1.445000E+07  0.00400  7.883E-03    0   0.8571   age078_m42            0.0000     1.4243E+00     3.5459   1.8175    93.9994
  7      0.0000     0.0000E+00    0.0000E+00    2.512000E+07  0.00400  5.251E-03    0   0.8174   age090_m42            0.0000     1.1794E+00     3.1449   1.3415    97.8436
  8      0.0000     0.0000E+00    0.0000E+00    4.000000E+07  0.00400  3.649E-03    0   0.7851   age104_m42            0.0000     1.0165E+00     2.8990   1.1185    98.4726
  9      0.0000     0.0000E+00    0.0000E+00    5.500000E+07  0.00400  3.098E-03    0   0.7629   age110_m42            0.0000     1.0397E+00     2.8604   1.2972    97.3715
 10      0.0000     0.0000E+00    0.0000E+00    1.015200E+08  0.00400  2.228E-03    0   0.7207   age116_m42            0.0000     1.1137E+00     2.9873   1.3342    96.8328
 11      0.0000     0.0000E+00    0.0000E+00    2.861200E+08  0.00400  1.093E-03    0   0.6648   age125_m42            0.0000     1.1471E+00     3.0102   0.7368   101.0512
 12      0.0000     0.0000E+00    0.0000E+00    5.088000E+08  0.00400  6.597E-04    0   0.6365   age130_m42            0.0000     1.0592E+00     3.0489   0.7540   100.6744
 13      1.9711     1.8850E+00    1.9296E+00    1.434000E+09  0.00400  2.132E-04    0   0.5798   age139_m42            0.0000     6.2818E-01     2.4818  -0.2062   102.2201
 14      0.0000     0.0000E+00    0.0000E+00    4.250000E+09  0.00400  5.895E-05    0   0.5377   age158_m42            0.0000     1.0946E+00     3.2413  -0.6044    96.4518
 15      2.4132     1.4017E+01    1.2898E+01    7.500000E+09  0.00400  3.510E-05    0   0.5212   age171_m42            0.0000     1.4897E+00     3.7704  -0.7754    95.1125
 16      0.0000     0.0000E+00    0.0000E+00    1.300000E+10  0.00400  2.005E-05    0   0.5034   age193_m42            0.0000     1.9460E+00     4.3091  -0.9246    93.9478
 17      1.3104     1.7520E+01    1.5363E+01    1.800000E+10  0.00400  1.525E-05    0   0.4967   age213_m42            0.0000     1.8878E+00     4.2231  -0.9519    93.7048
 18      3.9438     6.4951E-02    1.1467E-01    1.000000E+06  0.00800  1.238E-02    0   1.0000   age020_m52            0.0000     2.6058E+00     5.0525   2.6319    85.7771
 19      1.3312     8.8292E-03    1.5535E-02    3.160000E+06  0.00800  3.074E-02    0   0.9966   age045_m52            0.0000     2.5491E+00     4.9559   2.5565    86.4884
 20      0.0000     0.0000E+00    0.0000E+00    5.010000E+06  0.00800  2.668E-02    0   0.9443   age055_m52            0.0000     2.0422E+00     4.3036   2.3044    88.7833
 21     10.9368     1.0439E-01    1.6914E-01    6.610000E+06  0.00800  2.136E-02    0   0.9177   age061_m52            0.0000     8.1497E-01     2.8434   0.9880    97.6831
 22      0.3631     6.0926E-03    9.4945E-03    1.000000E+07  0.00800  1.215E-02    0   0.8827   age070_m52            0.0000     1.3430E+00     3.4322   1.6444    97.3481
 23      0.0000     0.0000E+00    0.0000E+00    1.445000E+07  0.00800  8.717E-03    0   0.8552   age078_m52            0.0000     1.2709E+00     3.3376   1.7791    95.4698
 24      0.5745     2.0946E-02    3.0182E-02    2.512000E+07  0.00800  5.592E-03    0   0.8162   age090_m52            0.0000     1.1349E+00     3.0715   1.3999    99.2518
 25      0.0257     1.3462E-03    1.8635E-03    4.000000E+07  0.00800  3.896E-03    0   0.7841   age104_m52            0.0000     1.0355E+00     2.8941   1.3214    99.6286
 26      0.0000     0.0000E+00    0.0000E+00    1.015200E+08  0.00800  2.148E-03    0   0.7226   age116_m52            0.0000     9.4787E-01     2.7811   1.2858    98.3206
 27      0.0000     0.0000E+00    0.0000E+00    2.861200E+08  0.00800  9.925E-04    0   0.6683   age125_m52            0.0000     9.4333E-01     2.8661   0.8158   101.7539
 28      0.0000     0.0000E+00    0.0000E+00    9.047900E+08  0.00800  3.141E-04    0   0.6138   age135_m52            0.0000     9.8025E-01     3.2052   0.0474   104.6571
 29      0.0000     0.0000E+00    0.0000E+00    1.434000E+09  0.00800  1.719E-04    0   0.5853   age139_m52            0.0000     1.0661E+00     3.2172  -0.5283   102.3382
 30      0.0000     0.0000E+00    0.0000E+00    2.500000E+09  0.00800  7.872E-05    0   0.5600   age150_m52            0.0000     1.6396E+00     4.0901  -0.7496    97.5411
 31      0.0000     0.0000E+00    0.0000E+00    4.250000E+09  0.00800  4.336E-05    0   0.5426   age158_m52            0.0000     1.7525E+00     4.1570  -0.7616    96.4884
 32      0.0000     0.0000E+00    0.0000E+00    6.250000E+09  0.00800  3.159E-05    0   0.5319   age166_m52            0.0000     2.4567E+00     4.9639  -0.9388    95.4501
 33      0.0000     0.0000E+00    0.0000E+00    1.300000E+10  0.00800  1.361E-05    0   0.5073   age193_m52            0.0000     6.6295E+00     8.4637  -1.0000    78.6049
 34      0.0000     0.0000E+00    0.0000E+00    1.800000E+10  0.00800  9.886E-06    0   0.4990   age213_m52            0.0000     8.8299E+00     9.8557  -1.0000    74.3842
 35      1.9674     2.5979E-02    4.5866E-02    1.000000E+06  0.02000  1.544E-02    0   1.0000   age020_m62            0.0000     2.6327E+00     5.0978   2.6274    85.9970
 36      2.2177     1.2019E-02    2.0918E-02    3.160000E+06  0.02000  3.762E-02    0   0.9858   age045_m62            0.0000     2.6468E+00     5.0994   2.5684    86.6678
 37      0.0000     0.0000E+00    0.0000E+00    5.010000E+06  0.02000  3.296E-02    0   0.9342   age055_m62            0.0000     1.8980E+00     4.0093   2.1893    90.4053
 38      9.6554     1.7059E-01    2.6687E-01    8.710000E+06  0.02000  1.154E-02    0   0.8861   age067_m62            0.0000     3.8271E+00     6.1760   0.9917   104.9265
 39      0.0000     0.0000E+00    0.0000E+00    1.445000E+07  0.02000  7.663E-03    0   0.8472   age078_m62            0.0000     1.7330E+00     3.9230   1.2551   101.2206
 40      0.0000     0.0000E+00    0.0000E+00    2.512000E+07  0.02000  4.532E-03    0   0.8099   age090_m62            0.0000     2.0093E+00     4.1567   1.2410   101.2426
 41      0.0000     0.0000E+00    0.0000E+00    5.500000E+07  0.02000  2.733E-03    0   0.7595   age110_m62            0.0000     1.0169E+00     2.9004   1.3054    98.8551
 42      0.0000     0.0000E+00    0.0000E+00    1.609000E+08  0.02000  1.369E-03    0   0.6985   age120_m62            0.0000     9.6222E-01     2.8411   1.1721   100.3320
 43      0.0028     6.4378E-04    7.6310E-04    2.861200E+08  0.02000  9.013E-04    0   0.6714   age125_m62            0.0000     9.6607E-01     2.9851   0.9336   102.6795
 44      0.0000     0.0000E+00    0.0000E+00    5.088000E+08  0.02000  5.028E-04    0   0.6449   age130_m62            0.0000     1.1269E+00     3.4120   0.5928   103.7352
 45      0.0000     0.0000E+00    0.0000E+00    9.047900E+08  0.02000  2.428E-04    0   0.6179   age135_m62            0.0000     1.1277E+00     3.4507   0.0239   102.4094
 46      0.0000     0.0000E+00    0.0000E+00    1.434000E+09  0.02000  1.263E-04    0   0.5908   age139_m62            0.0000     1.4339E+00     3.7841  -0.4086   100.3986
 47      0.0000     0.0000E+00    0.0000E+00    2.500000E+09  0.02000  5.985E-05    0   0.5673   age150_m62            0.0000     2.3550E+00     4.8847  -0.7376    97.4253
 48      4.3935     2.7385E+01    2.6437E+01    4.250000E+09  0.02000  3.271E-05    0   0.5468   age158_m62            0.0000     3.6403E+00     6.2156  -1.0000    94.8173
 49      0.0000     0.0000E+00    0.0000E+00    1.000000E+10  0.02000  1.360E-05    0   0.5167   age181_m62            0.0000     7.3969E+00     8.8741  -1.0000    80.5167
 50      0.0000     0.0000E+00    0.0000E+00    1.800000E+10  0.02000  7.124E-06    0   0.5013   age213_m62            0.0000     1.1451E+01    11.2111  -1.0000    72.4047
 51      3.0971     2.4362E-02    4.3002E-02    1.000000E+06  0.05000  2.592E-02    0   0.9998   age020_m72            0.0000     2.6963E+00     5.2135   2.6173    86.0791
 52      0.0045     1.8846E-05    3.1865E-05    3.160000E+06  0.05000  4.845E-02    0   0.9577   age045_m72            0.0000     2.4547E+00     4.7344   2.4574    87.5936
 53      0.0000     0.0000E+00    0.0000E+00    5.010000E+06  0.05000  3.072E-02    0   0.9147   age055_m72            0.0000     2.0208E+00     4.2359   1.8832    95.5546
 54      0.0000     0.0000E+00    0.0000E+00    6.610000E+06  0.05000  1.455E-02    0   0.8877   age061_m72            0.0000     9.7088E+00     9.0592   0.9934   108.1911
 55      0.0000     0.0000E+00    0.0000E+00    1.000000E+07  0.05000  9.074E-03    0   0.8524   age070_m72            0.0000     3.7205E+00     5.1758   2.0650    95.4450
 56      0.0000     0.0000E+00    0.0000E+00    2.512000E+07  0.05000  4.250E-03    0   0.7902   age090_m72            0.0000     2.4352E+00     4.2110   1.7581    97.4710
 57      0.0000     0.0000E+00    0.0000E+00    4.000000E+07  0.05000  3.087E-03    0   0.7618   age104_m72            0.0000     2.4983E+00     4.2108   1.5182    99.6385
 58      0.0000     0.0000E+00    0.0000E+00    1.015200E+08  0.05000  1.700E-03    0   0.7096   age116_m72            0.0000     1.1665E+00     3.0547   1.2954   100.7658
 59      0.0000     0.0000E+00    0.0000E+00    2.861200E+08  0.05000  7.384E-04    0   0.6633   age125_m72            0.0000     9.7416E-01     3.1154   0.8181   103.3526
 60     44.4202     2.3715E+01    2.6678E+01    5.088000E+08  0.05000  3.819E-04    0   0.6372   age130_m72            0.0000     1.0653E+00     3.4103   0.3597   103.5068
 61      6.6154     8.0476E+00    8.6810E+00    9.047900E+08  0.05000  1.676E-04    0   0.6110   age135_m72            0.0000     2.1776E+00     4.8436  -0.2832    99.3840
 62      3.0015     6.9251E+00    7.1815E+00    1.434000E+09  0.05000  8.837E-05    0   0.5874   age139_m72            0.0000     2.6553E+00     5.1879  -0.7362    98.7808
 63      0.0000     0.0000E+00    0.0000E+00    2.500000E+09  0.05000  4.233E-05    0   0.5598   age150_m72            0.0000     4.1641E+00     6.6635  -0.9923    95.2897
 64      0.0000     0.0000E+00    0.0000E+00    6.250000E+09  0.05000  1.435E-05    0   0.5249   age166_m72            0.0000     9.1595E+00    10.0066  -1.0000    76.6299
 65      0.0000     0.0000E+00    0.0000E+00    1.300000E+10  0.05000  6.513E-06    0   0.5036   age193_m72            0.0000     1.5383E+01    13.2241  -1.0000    67.7397
 66      0.0000     0.0000E+00    0.0000E+00    1.800000E+10  0.05000  4.527E-06    0   0.4945   age213_m72            0.0000     1.9685E+01    15.1329  -1.0000    62.5679


## Synthesis Results - Average & Chains ##

# j      x_j: min, <> & last-chain-values for 1 ...  7 chains
  1      2.8296      1.6515      1.6741      2.0681      1.9925      2.5266      1.6178      1.7044      2.1825
  2      1.4845      2.3863      2.5726      2.4991      2.9628      3.4907      1.7218      2.1540      2.3457
  3      0.0000      0.0928      0.0000      0.0000      0.0000      0.0000      0.0000      0.1735      0.0000
  4      0.0000      0.1348      0.0000      0.0000      0.2116      0.0000      0.0000      0.0000      0.0000
  5      0.2944      1.2790      1.0766      1.2919      2.6288      1.5221      1.1274      1.6185      1.5916
  6      0.0000      0.2271      0.3995      0.0000      0.7181      0.0000      0.2702      0.0000      0.4496
  7      0.0000      0.4573      0.5978      0.2249      0.0000      0.0000      0.0000      0.0000      0.3989
  8      0.0000      0.5983      1.0134      0.6819      0.3456      0.0338      0.4626      0.7469      0.0000
  9      0.0000      0.2985      0.2428      0.3565      0.0000      0.0000      0.0000      0.2553      0.0000
 10      0.0000      0.1859      0.0000      0.0000      0.0000      0.0000      0.0000      0.0000      0.0000
 11      0.0000      0.2445      0.0000      0.0000      0.0000      0.1906      0.0822      0.0000      0.1283
 12      0.0000      0.2213      0.5628      0.0000      0.0000      0.1943      0.1661      0.0000      0.0000
 13      1.9711      0.4437      0.0000      0.4609      0.2543      1.6773      1.3804      1.0965      0.0400
 14      0.0000      0.1280      0.8999      0.0606      0.0000      0.0000      0.0000      0.0000      0.0000
 15      2.4132      1.6551      1.3642      1.7542      1.6178      1.7403      2.4486      1.8061      1.7780
 16      0.0000      0.0407      0.1540      0.0000      0.1195      0.0000      0.2628      0.0000      0.0000
 17      1.3104      0.7939      0.9330      0.5315      1.0020      0.8978      0.8695      0.8346      1.2078
 18      3.9438      2.8304      2.9215      3.0462      2.8004      3.2565      3.5581      2.5968      3.4728
 19      1.3312      1.2424      1.2816      1.3173      1.3539      0.9780      1.9670      1.4510      1.1956
 20      0.0000      0.1425      0.0000      0.1780      0.0000      0.0000      0.1034      0.0000      0.1149
 21     10.9368     13.3223     13.5256     13.2739     13.8757     13.5985     13.6475     13.5669     13.4713
 22      0.3631      1.5452      0.0000      0.3454      1.7621      0.7404      1.5548      2.1230      1.3618
 23      0.0000      0.2023      0.3711      0.2995      0.0000      0.0000      0.0717      0.0000      0.4100
 24      0.5745      0.7219      1.7930      1.4615      0.5161      0.0000      0.6435      0.8294      1.4767
 25      0.0257      0.2497      0.0000      0.0000      0.0000      0.5165      1.5841      0.0000      0.4286
 26      0.0000      0.2096      0.0900      0.0000      0.0000      0.0000      0.3409      0.0000      0.0000
 27      0.0000      0.2964      0.0000      0.8893      0.0506      0.0000      0.0000      0.0000      0.2649
 28      0.0000      0.2912      0.0000      0.0000      0.0000      0.0000      0.0000      0.0000      0.0000
 29      0.0000      0.1180      0.0000      0.0639      0.0000      0.0000      0.0000      0.0000      0.0000
 30      0.0000      0.8095      0.8539      0.8429      0.0000      0.8296      0.0000      0.5950      0.9086
 31      0.0000      0.0310      0.0000      0.0000      0.0989      0.0000      0.0000      0.0000      0.0000
 32      0.0000      0.1167      0.0000      0.0000      0.0000      0.5140      0.2102      0.0022      0.0000
 33      0.0000      0.0416      0.0000      0.0000      0.0000      0.0000      0.0000      0.0000      0.0000
 34      0.0000      0.0420      0.0000      0.0000      0.0000      0.0000      0.0000      0.0000      0.1918
 35      1.9674      1.9880      2.1136      1.9987      1.6963      2.8021      2.4033      1.7107      1.7606
 36      2.2177      2.0208      1.6437      1.9594      2.0544      1.9327      1.9423      1.9624      2.1407
 37      0.0000      0.3602      0.6418      0.0000      0.0000      0.7414      0.0000      0.8473      0.0000
 38      9.6554      4.8429      5.3968      5.7500      6.8291      5.0762      4.9592      6.4836      5.3518
 39      0.0000      0.3869      0.1345      1.0368      0.4265      0.0000      0.0000      0.4412      0.0000
 40      0.0000      0.4325      0.1090      0.0000      0.0000      0.0000      0.0000      0.0330      0.5571
 41      0.0000      0.2246      0.8608      0.0064      0.0000      0.0000      0.0000      0.0122      0.6944
 42      0.0000      0.3175      0.0000      0.0000      0.0000      0.2958      0.0000      0.1058      0.0000
 43      0.0028      0.6139      0.8743      0.4346      0.0000      0.6293      1.3048      0.6830      0.1667
 44      0.0000      0.4794      0.0000      0.0000      0.1827      0.1888      0.0000      0.0000      0.2872
 45      0.0000      2.6677      1.5278      2.2549      2.0627      0.0000      1.2038      2.4580      2.4217
 46      0.0000      0.2487      0.0000      0.1668      0.3750      0.0000      0.2519      0.3556      0.0000
