###################################################################
## OUTPUT of StarlightChains_v04.for    [Cid@UFSC - 01/Apr/2007] ##
###################################################################

## Some input info
2012T.txt                                [arq_obs]
Base.CB07.vall.4m                        [arq_base]
Masks.EmLines.NEW.gm                     [arq_masks]
StCv04.C11.config                        [arq_config]
   66                                    [N_base]
    0                                    [N_YAV_components = # of components with extra extinction!]
    0                                    [i_FitPowerLaw (1/0 = Yes/No)]
-9.99                                    [alpha_PowerLaw]
CCM                                      [red_law_option]
 1.458241                                [q_norm = A(l_norm)/A(V)]

## (Re)Sampling Parameters
 3741.00                                 [l_ini (A)]
 7218.00                                 [l_fin (A)]
    1.00                                 [dl    (A)]     (OBS: dl_cushion =    50.00 A)

## Normalization info
 4020.00                                 [l_norm (A) - for base]
 4010.00                                 [llow_norm (A) - window for f_obs]
 4060.00                                 [lupp_norm (A) - window for f_obs]
1.652432E-16                             [fobs_norm (in input units)]

## S/N
 3691.00                                 [llow_SN (A) - window for S/N]
 7268.00                                 [lupp_SN (A) - window for S/N]
   5.978                                 [S/N in S/N window]
   4.882                                 [S/N in norm. window]
  46.728                                 [S/N_err in S/N window]
  38.160                                 [S/N_err in norm. window]
  1.0000                                 [fscale_chi2]

## etc...
    -2007400                             [idum_orig]
  2355                                   [NOl_eff]
  2204                                   [Nl_eff]
   151    NSIGMA                         [Ntot_cliped & clip_method]
 24240720                                [Nglobal_steps]
   7                                     [N_chains]
  39                                     [NEX0s_base = N_base in EX0s-fits]
 0   1   0        1   2.0   8.419E+04    [Clip-Bug, RC-Crash & Burn-In warning-flags, n_censored_weights, wei_nsig_threshold & wei_limit]
   334    333.276    332.622      0.654  [idt_all, wdt_TotTime, wdt_UsrTime & wdt_SysTime (sec)]

## Synthesis Results - Best model ##

 1.54546E+00                             [chi2/Nl_eff]
     2.11164                             [adev (%)]

   104.52097                             [sum-of-x (%)]
 2.47360E-16                             [Flux_tot (units of input spectrum!)]
 9.46832E-12                             [Mini_tot (???)]
 4.86907E-12                             [Mcor_tot (???)]

   0.05                                  [v0_min  (km/s)]
 159.64                                  [vd_min  (km/s)]
 0.2675                                  [AV_min  (mag)]
 0.0000                                  [YAV_min (mag)]

# j     x_j(%)      Mini_j(%)     Mcor_j(%)     age_j(yr)     Z_j      (L/M)_j    YAV?  Mstars   component_j        a/Fe...       SSP_chi2r SSP_adev(%)   SSP_AV   SSP_x(%)
  1      0.4445     1.0155E-03    1.9747E-03    1.000000E+06  0.00400  1.094E-02    0   1.0000   age020_m42            0.0000     1.2797E+01     5.3103   3.6393    91.7396
  2      0.0000     0.0000E+00    0.0000E+00    3.160000E+06  0.00400  4.007E-02    0   0.9999   age045_m42            0.0000     1.1688E+01     4.6782   2.8854   100.3548
  3      0.3842     3.7822E-04    6.9783E-04    5.010000E+06  0.00400  2.539E-02    0   0.9488   age055_m42            0.0000     1.1368E+01     4.7598   3.2136    96.9504
  4      0.0000     0.0000E+00    0.0000E+00    6.610000E+06  0.00400  2.620E-02    0   0.9220   age061_m42            0.0000     1.1143E+01     4.7894   2.7937   101.5816
  5      0.0000     0.0000E+00    0.0000E+00    1.000000E+07  0.00400  1.322E-02    0   0.8862   age070_m42            0.0000     1.2930E+01     6.8883   2.3807   111.7757
  6      2.0046     6.3561E-03    1.0594E-02    1.445000E+07  0.00400  7.883E-03    0   0.8571   age078_m42            0.0000     1.2653E+01     6.5484   2.7302   107.3864
  7      0.0000     0.0000E+00    0.0000E+00    2.512000E+07  0.00400  5.251E-03    0   0.8174   age090_m42            0.0000     1.4105E+01     7.4507   2.2263   114.0556
  8      0.0000     0.0000E+00    0.0000E+00    4.000000E+07  0.00400  3.649E-03    0   0.7851   age104_m42            0.0000     1.3840E+01     7.2586   2.0052   114.7939
  9      0.0000     0.0000E+00    0.0000E+00    5.500000E+07  0.00400  3.098E-03    0   0.7629   age110_m42            0.0000     1.2358E+01     6.1652   2.2144   111.3069
 10      0.5224     5.8610E-03    8.2140E-03    1.015200E+08  0.00400  2.228E-03    0   0.7207   age116_m42            0.0000     1.1210E+01     5.5772   2.2706   109.2514
 11      0.5287     1.2090E-02    1.5629E-02    2.861200E+08  0.00400  1.093E-03    0   0.6648   age125_m42            0.0000     1.2365E+01     6.3137   1.6658   114.8384
 12      0.4346     1.6468E-02    2.0383E-02    5.088000E+08  0.00400  6.597E-04    0   0.6365   age130_m42            0.0000     9.8998E+00     5.5291   1.7096   112.5206
 13      0.3046     3.5715E-02    4.0267E-02    1.434000E+09  0.00400  2.132E-04    0   0.5798   age139_m42            0.0000     4.7598E+00     4.0953   0.7655   113.1152
 14      6.7800     2.8747E+00    3.0058E+00    4.250000E+09  0.00400  5.895E-05    0   0.5377   age158_m42            0.0000     2.0618E+00     2.1217   0.4147   103.4085
 15      8.2836     5.8988E+00    5.9786E+00    7.500000E+09  0.00400  3.510E-05    0   0.5212   age171_m42            0.0000     1.7752E+00     2.2495   0.2621   100.8220
 16      9.7889     1.2203E+01    1.1946E+01    1.300000E+10  0.00400  2.005E-05    0   0.5034   age193_m42            0.0000     2.0017E+00     2.7121   0.1296    98.5297
 17      2.2231     3.6438E+00    3.5194E+00    1.800000E+10  0.00400  1.525E-05    0   0.4967   age213_m42            0.0000     1.8937E+00     2.6168   0.1047    98.0984
 18      0.0000     0.0000E+00    0.0000E+00    1.000000E+06  0.00800  1.238E-02    0   1.0000   age020_m52            0.0000     1.2691E+01     5.3101   3.6364    91.8665
 19      0.0000     0.0000E+00    0.0000E+00    3.160000E+06  0.00800  3.074E-02    0   0.9966   age045_m52            0.0000     1.2363E+01     5.1949   3.5587    92.8196
 20      0.0000     0.0000E+00    0.0000E+00    5.010000E+06  0.00800  2.668E-02    0   0.9443   age055_m52            0.0000     1.1047E+01     4.8426   3.2897    96.4419
 21      0.0000     0.0000E+00    0.0000E+00    6.610000E+06  0.00800  2.136E-02    0   0.9177   age061_m52            0.0000     9.2736E+00     6.0909   1.8965   111.8864
 22      2.4438     5.0274E-03    8.6294E-03    1.000000E+07  0.00800  1.215E-02    0   0.8827   age070_m52            0.0000     1.4317E+01     7.6601   2.5306   113.4861
 23      0.0000     0.0000E+00    0.0000E+00    1.445000E+07  0.00800  8.717E-03    0   0.8552   age078_m52            0.0000     1.2267E+01     6.6172   2.6872   109.4990
 24      0.0000     0.0000E+00    0.0000E+00    2.512000E+07  0.00800  5.592E-03    0   0.8162   age090_m52            0.0000     1.4191E+01     7.6154   2.2824   116.1071
 25      0.0000     0.0000E+00    0.0000E+00    4.000000E+07  0.00800  3.896E-03    0   0.7841   age104_m52            0.0000     1.3865E+01     7.1554   2.2172   115.7251
 26      0.5829     6.7827E-03    9.5307E-03    1.015200E+08  0.00800  2.148E-03    0   0.7226   age116_m52            0.0000     1.1888E+01     6.0674   2.2071   112.2754
 27      1.2561     3.1633E-02    4.1109E-02    2.861200E+08  0.00800  9.925E-04    0   0.6683   age125_m52            0.0000     1.0234E+01     5.7417   1.7576   115.0638
 28      1.5953     1.2695E-01    1.5152E-01    9.047900E+08  0.00800  3.141E-04    0   0.6138   age135_m52            0.0000     6.6399E+00     4.4085   1.0346   115.4918
 29      1.1343     1.6493E-01    1.8772E-01    1.434000E+09  0.00800  1.719E-04    0   0.5853   age139_m52            0.0000     3.6347E+00     3.0804   0.4818   110.9566
 30      2.5982     8.2497E-01    8.9837E-01    2.500000E+09  0.00800  7.872E-05    0   0.5600   age150_m52            0.0000     1.9399E+00     2.4820   0.2894   103.6705
 31      1.3170     7.5922E-01    8.0107E-01    4.250000E+09  0.00800  4.336E-05    0   0.5426   age158_m52            0.0000     1.9908E+00     2.5558   0.2793   102.4000
 32      5.5028     4.3540E+00    4.5035E+00    6.250000E+09  0.00800  3.159E-05    0   0.5319   age166_m52            0.0000     2.1204E+00     3.2602   0.1230   100.0109
 33      3.5695     6.5555E+00    6.4670E+00    1.300000E+10  0.00800  1.361E-05    0   0.5073   age193_m52            0.0000     2.9461E+00     4.3662  -0.2899    96.5385
 34      5.0751     1.2831E+01    1.2451E+01    1.800000E+10  0.00800  9.886E-06    0   0.4990   age213_m52            0.0000     4.1375E+00     5.3473  -0.3480    93.6722
 35      0.2605     4.2171E-04    8.2006E-04    1.000000E+06  0.02000  1.544E-02    0   1.0000   age020_m62            0.0000     1.2723E+01     5.3466   3.6319    92.0928
 36      0.0000     0.0000E+00    0.0000E+00    3.160000E+06  0.02000  3.762E-02    0   0.9858   age045_m62            0.0000     1.2654E+01     5.3326   3.5743    92.7614
 37      0.0000     0.0000E+00    0.0000E+00    5.010000E+06  0.02000  3.296E-02    0   0.9342   age055_m62            0.0000     1.0820E+01     4.5674   3.1800    98.0108
 38      0.0000     0.0000E+00    0.0000E+00    8.710000E+06  0.02000  1.154E-02    0   0.8861   age067_m62            0.0000     3.1838E+01    13.7708   1.7627   132.3994
 39      0.0000     0.0000E+00    0.0000E+00    1.445000E+07  0.02000  7.663E-03    0   0.8472   age078_m62            0.0000     1.8346E+01     9.4655   2.1102   120.8446
 40      3.5968     1.9837E-02    3.1242E-02    2.512000E+07  0.02000  4.532E-03    0   0.8099   age090_m62            0.0000     2.0601E+01     9.9886   2.0865   121.7981
 41      0.4455     4.0746E-03    6.0179E-03    5.500000E+07  0.02000  2.733E-03    0   0.7595   age110_m62            0.0000     1.2064E+01     6.8679   2.2039   114.3831
 42      2.4066     4.3939E-02    5.9682E-02    1.609000E+08  0.02000  1.369E-03    0   0.6985   age120_m62            0.0000     1.0782E+01     5.9793   2.0975   114.2482
 43      0.0000     0.0000E+00    0.0000E+00    2.861200E+08  0.02000  9.013E-04    0   0.6714   age125_m62            0.0000     9.7208E+00     5.8590   1.8714   116.1295
 44      0.0000     0.0000E+00    0.0000E+00    5.088000E+08  0.02000  5.028E-04    0   0.6449   age130_m62            0.0000     7.2468E+00     4.9535   1.5744   114.2975
 45      0.2606     2.6830E-02    3.2238E-02    9.047900E+08  0.02000  2.428E-04    0   0.6179   age135_m62            0.0000     3.2719E+00     3.1619   1.0423   110.2181
 46      3.6139     7.1520E-01    8.2167E-01    1.434000E+09  0.02000  1.263E-04    0   0.5908   age139_m62            0.0000     1.7855E+00     2.4958   0.6263   106.7870
 47      2.7963     1.1678E+00    1.2883E+00    2.500000E+09  0.02000  5.985E-05    0   0.5673   age150_m62            0.0000     1.9408E+00     3.1613   0.3222   102.0879
 48      8.7879     6.7152E+00    7.1403E+00    4.250000E+09  0.02000  3.271E-05    0   0.5468   age158_m62            0.0000     3.0156E+00     4.5777   0.0948    97.0185
 49      0.3611     6.6360E-01    6.6676E-01    1.000000E+10  0.02000  1.360E-05    0   0.5167   age181_m62            0.0000     5.5141E+00     6.2006  -0.1834    93.3776
 50      2.1805     7.6503E+00    7.4577E+00    1.800000E+10  0.02000  7.124E-06    0   0.5013   age213_m62            0.0000     8.0679E+00     7.4646  -0.3324    89.9291
 51      0.0000     0.0000E+00    0.0000E+00    1.000000E+06  0.05000  2.592E-02    0   0.9998   age020_m72            0.0000     1.2803E+01     5.4616   3.6186    92.3366
 52      0.4253     2.1943E-04    4.0865E-04    3.160000E+06  0.05000  4.845E-02    0   0.9577   age045_m72            0.0000     1.2117E+01     4.9785   3.4619    93.9204
 53      1.2196     9.9234E-04    1.7651E-03    5.010000E+06  0.05000  3.072E-02    0   0.9147   age055_m72            0.0000     1.5291E+01     7.3295   2.8019   109.5445
 54      0.0000     0.0000E+00    0.0000E+00    6.610000E+06  0.05000  1.455E-02    0   0.8877   age061_m72            0.0000     7.1598E+01    18.9180   1.7444   141.9703
 55      0.0000     0.0000E+00    0.0000E+00    1.000000E+07  0.05000  9.074E-03    0   0.8524   age070_m72            0.0000     2.1828E+01     7.8254   3.0097   108.7380
 56      0.0000     0.0000E+00    0.0000E+00    2.512000E+07  0.05000  4.250E-03    0   0.7902   age090_m72            0.0000     1.9420E+01     7.9770   2.6712   112.7673
 57      0.0000     0.0000E+00    0.0000E+00    4.000000E+07  0.05000  3.087E-03    0   0.7618   age104_m72            0.0000     2.1150E+01     8.6082   2.4177   116.4431
 58      0.0000     0.0000E+00    0.0000E+00    1.015200E+08  0.05000  1.700E-03    0   0.7096   age116_m72            0.0000     1.3922E+01     6.9337   2.2025   116.5126
 59      0.0000     0.0000E+00    0.0000E+00    2.861200E+08  0.05000  7.384E-04    0   0.6633   age125_m72            0.0000     8.2049E+00     5.4016   1.7768   115.5022
 60      0.4900     3.2070E-02    3.9738E-02    5.088000E+08  0.05000  3.819E-04    0   0.6372   age130_m72            0.0000     3.9300E+00     3.6889   1.3652   112.1272
 61      4.6661     6.9587E-01    8.2679E-01    9.047900E+08  0.05000  1.676E-04    0   0.6110   age135_m72            0.0000     2.3125E+00     3.1794   0.7664   104.6923
 62      4.6557     1.3168E+00    1.5042E+00    1.434000E+09  0.05000  8.837E-05    0   0.5874   age139_m72            0.0000     1.9984E+00     3.4179   0.3327   102.9689
 63      5.6710     3.3486E+00    3.6452E+00    2.500000E+09  0.05000  4.233E-05    0   0.5598   age150_m72            0.0000     3.6808E+00     4.9743   0.1076    97.4680
 64      0.0000     0.0000E+00    0.0000E+00    6.250000E+09  0.05000  1.435E-05    0   0.5249   age166_m72            0.0000     6.8689E+00     6.7523  -0.2545    91.7910
 65      3.1998     1.2280E+01    1.2026E+01    1.300000E+10  0.05000  6.513E-06    0   0.5036   age193_m72            0.0000     1.0889E+01     8.3605  -0.4585    89.2991
 66      2.7094     1.4959E+01    1.4385E+01    1.800000E+10  0.05000  4.527E-06    0   0.4945   age213_m72            0.0000     1.3966E+01     9.3365  -0.5721    87.1178


## Synthesis Results - Average & Chains ##

# j      x_j: min, <> & last-chain-values for 1 ...  7 chains
  1      0.4445      0.4369      0.5129      0.4396      0.4372      0.6758      0.1223      0.4387      0.4275
  2      0.0000      0.0462      0.0464      0.0507      0.0431      0.0491      0.0033      0.0816      0.0454
  3      0.3842      0.3769      0.4218      0.3803      0.4020      0.4431      0.1846      0.4006      0.4078
  4      0.0000      0.0786      0.1301      0.0762      0.0788      0.0786      0.0363      0.0852      0.0606
  5      0.0000      0.0099      0.0118      0.0098      0.0041      0.0206      0.0139      0.0026      0.0010
  6      2.0046      1.9566      2.7341      1.8676      1.8258      2.4303      1.1518      1.8152      1.8502
  7      0.0000      0.1214      0.1750      0.1136      0.0898      0.1214      0.1198      0.1209      0.1031
  8      0.0000      0.1044      0.1087      0.1114      0.1158      0.1501      0.0239      0.1062      0.1159
  9      0.0000      0.0561      0.0561      0.1063      0.0788      0.0478      0.0003      0.0714      0.0368
 10      0.5224      0.5168      0.6050      0.5440      0.5209      0.6264      0.2852      0.5158      0.5178
 11      0.5287      0.5187      0.5187      0.5193      0.5378      0.5186      0.5038      0.5132      0.5215
 12      0.4346      0.4272      0.4486      0.4367      0.4356      0.4272      0.3421      0.4560      0.4485
 13      0.3046      0.2982      0.4227      0.2984      0.3692      0.2681      0.1494      0.3433      0.2403
 14      6.7800      6.6632      6.7451      6.6894      6.7251      6.6190      6.6204      6.6057      6.6425
 15      8.2836      8.1355      8.2101      8.1304      8.1814      8.0106      8.0874      8.0931      8.2427
 16      9.7889      9.6431      9.4081      9.8379      9.6417      9.5509      9.7974      9.6502      9.6238
 17      2.2231      2.1816      2.1817      2.1642      2.1836      2.1816      2.1785      2.2254      2.1558
 18      0.0000      0.0159      0.0284      0.0221      0.0160      0.0159      0.0009      0.0009      0.0251
 19      0.0000      0.1291      0.1319      0.1282      0.1307      0.1488      0.0946      0.1477      0.1196
 20      0.0000      0.0975      0.0975      0.1224      0.0789      0.0975      0.0755      0.1275      0.0804
 21      0.0000      0.0363      0.0561      0.0368      0.0474      0.0363      0.0012      0.0490      0.0270
 22      2.4438      2.4244      2.7266      2.6181      2.6040      2.8496      0.9752      2.5824      2.6243
 23      0.0000      0.0191      0.0679      0.0046      0.0128      0.0191      0.0061      0.0039      0.0125
 24      0.0000      0.1592      0.2029      0.1364      0.1670      0.1482      0.1254      0.1369      0.2018
 25      0.0000      0.0247      0.0625      0.0262      0.0020      0.0537      0.0004      0.0169      0.0015
 26      0.5829      0.5730      0.5748      0.5691      0.5618      0.6258      0.5450      0.5630      0.5623
 27      1.2561      1.2252      1.2175      1.1641      1.1396      1.7274      0.9973      1.1225      1.2029
 28      1.5953      1.5585      1.7287      1.4915      1.5302      1.6444      1.5249      1.5315      1.4495
 29      1.1343      1.1145      1.1418      1.1164      1.1200      1.1466      1.0429      1.1065      1.1265
 30      2.5982      2.5286      2.6133      2.3725      2.5330      2.5232      2.4469      2.6096      2.6097
 31      1.3170      1.3101      1.3101      1.4303      1.3063      1.2237      1.3172      1.3569      1.2316
 32      5.5028      5.3934      5.4053      5.3175      5.4064      5.3595      5.4297      5.4641      5.3813
 33      3.5695      3.5034      3.5132      3.4754      3.3904      3.6260      3.5877      3.4719      3.4568
 34      5.0751      5.0262      4.3465      5.3488      5.2639      2.8159      6.9345      5.2749      5.2526
 35      0.2605      0.2523      0.3132      0.2244      0.2499      0.2523      0.2400      0.2379      0.2419
 36      0.0000      0.1004      0.1349      0.1177      0.0883      0.1010      0.0493      0.1183      0.0876
 37      0.0000      0.0158      0.0159      0.0036      0.0227      0.0159      0.0173      0.0126      0.0264
 38      0.0000      0.0205      0.0206      0.0275      0.0023      0.0367      0.0002      0.0426      0.0087
 39      0.0000      0.0081      0.0115      0.0032      0.0122      0.0080      0.0084      0.0082      0.0042
 40      3.5968      3.4946      3.3213      3.2269      3.3643      3.4578      4.3216      3.3579      3.4185
 41      0.4455      0.4384      0.4674      0.4381      0.4351      0.4557      0.4248      0.4258      0.4136
 42      2.4066      2.3378      2.1609      2.1470      2.1308      3.5284      2.0478      2.1636      2.1749
 43      0.0000      0.0661      0.1318      0.0580      0.0851      0.0564      0.0100      0.0534      0.0718
 44      0.0000      0.1721      0.1869      0.1395      0.1862      0.1722      0.1404      0.1809      0.2023
 45      0.2606      0.2569      0.3011      0.2665      0.2320      0.2435      0.2380      0.2484      0.2689
 46      3.6139      3.5400      3.6211      3.4683      3.5714      3.7240      3.4866      3.4771      3.4295
