###################################################################
## OUTPUT of StarlightChains_v04.for    [Cid@UFSC - 01/Apr/2007] ##
###################################################################

## Some input info
2012et.txt                               [arq_obs]
Base.CB07.vall.4m                        [arq_base]
Masks.EmLines.NEW.gm                     [arq_masks]
StCv04.C11.config                        [arq_config]
   66                                    [N_base]
    0                                    [N_YAV_components = # of components with extra extinction!]
    0                                    [i_FitPowerLaw (1/0 = Yes/No)]
-9.99                                    [alpha_PowerLaw]
CCM                                      [red_law_option]
 1.458241                                [q_norm = A(l_norm)/A(V)]

## (Re)Sampling Parameters
 3741.00                                 [l_ini (A)]
 7218.00                                 [l_fin (A)]
    1.00                                 [dl    (A)]     (OBS: dl_cushion =    50.00 A)

## Normalization info
 4020.00                                 [l_norm (A) - for base]
 4010.00                                 [llow_norm (A) - window for f_obs]
 4060.00                                 [lupp_norm (A) - window for f_obs]
5.868715E-17                             [fobs_norm (in input units)]

## S/N
 3691.00                                 [llow_SN (A) - window for S/N]
 7268.00                                 [lupp_SN (A) - window for S/N]
   9.043                                 [S/N in S/N window]
  10.444                                 [S/N in norm. window]
  13.992                                 [S/N_err in S/N window]
  16.159                                 [S/N_err in norm. window]
  1.0000                                 [fscale_chi2]

## etc...
    -2007394                             [idum_orig]
  2373                                   [NOl_eff]
  2361                                   [Nl_eff]
    12    NSIGMA                         [Ntot_cliped & clip_method]
  1614270                                [Nglobal_steps]
   7                                     [N_chains]
  24                                     [NEX0s_base = N_base in EX0s-fits]
 0   0   1        1   2.0   3.099E+01    [Clip-Bug, RC-Crash & Burn-In warning-flags, n_censored_weights, wei_nsig_threshold & wei_limit]
    18     17.554     17.048      0.506  [idt_all, wdt_TotTime, wdt_UsrTime & wdt_SysTime (sec)]

## Synthesis Results - Best model ##

 4.75148E-01                             [chi2/Nl_eff]
     3.89460                             [adev (%)]

   104.39729                             [sum-of-x (%)]
 1.04771E-16                             [Flux_tot (units of input spectrum!)]
 5.04092E-13                             [Mini_tot (???)]
 2.93177E-13                             [Mcor_tot (???)]

-126.23                                  [v0_min  (km/s)]
 169.94                                  [vd_min  (km/s)]
 0.3995                                  [AV_min  (mag)]
 0.0000                                  [YAV_min (mag)]

# j     x_j(%)      Mini_j(%)     Mcor_j(%)     age_j(yr)     Z_j      (L/M)_j    YAV?  Mstars   component_j        a/Fe...       SSP_chi2r SSP_adev(%)   SSP_AV   SSP_x(%)
  1      4.1646     7.5787E-02    1.3031E-01    1.000000E+06  0.00400  1.094E-02    0   1.0000   age020_m42            0.0000     1.0374E+00     5.8074   2.8005    86.3312
  2      0.0000     0.0000E+00    0.0000E+00    3.160000E+06  0.00400  4.007E-02    0   0.9999   age045_m42            0.0000     8.6864E-01     5.2274   2.0436    93.8121
  3      0.0233     1.8243E-04    2.9761E-04    5.010000E+06  0.00400  2.539E-02    0   0.9488   age055_m42            0.0000     9.0110E-01     5.3288   2.3747    90.9639
  4      0.0000     0.0000E+00    0.0000E+00    6.610000E+06  0.00400  2.620E-02    0   0.9220   age061_m42            0.0000     8.4134E-01     5.0980   1.9645    94.3197
  5      0.0000     0.0000E+00    0.0000E+00    1.000000E+07  0.00400  1.322E-02    0   0.8862   age070_m42            0.0000     7.1774E-01     4.5790   1.6571    97.6912
  6      0.0000     0.0000E+00    0.0000E+00    1.445000E+07  0.00400  7.883E-03    0   0.8571   age078_m42            0.0000     7.6576E-01     4.7327   1.9970    94.5923
  7      0.0000     0.0000E+00    0.0000E+00    2.512000E+07  0.00400  5.251E-03    0   0.8174   age090_m42            0.0000     7.2025E-01     4.5715   1.5182    98.6847
  8      0.0000     0.0000E+00    0.0000E+00    4.000000E+07  0.00400  3.649E-03    0   0.7851   age104_m42            0.0000     6.8578E-01     4.5015   1.2867    99.6985
  9      0.0000     0.0000E+00    0.0000E+00    5.500000E+07  0.00400  3.098E-03    0   0.7629   age110_m42            0.0000     7.3445E-01     4.6822   1.4493    99.2610
 10      0.0000     0.0000E+00    0.0000E+00    1.015200E+08  0.00400  2.228E-03    0   0.7207   age116_m42            0.0000     8.0725E-01     4.8958   1.4744    99.2083
 11      0.0000     0.0000E+00    0.0000E+00    2.861200E+08  0.00400  1.093E-03    0   0.6648   age125_m42            0.0000     7.9945E-01     4.7926   0.8957   103.0333
 12      0.0000     0.0000E+00    0.0000E+00    5.088000E+08  0.00400  6.597E-04    0   0.6365   age130_m42            0.0000     8.7515E-01     5.0154   0.8926   103.4483
 13      0.0000     0.0000E+00    0.0000E+00    1.434000E+09  0.00400  2.132E-04    0   0.5798   age139_m42            0.0000     7.3850E-01     4.7336  -0.0876   105.7252
 14      4.5184     1.5260E+01    1.4108E+01    4.250000E+09  0.00400  5.895E-05    0   0.5377   age158_m42            0.0000     7.9849E-01     5.0998  -0.4937    99.8277
 15      0.0000     0.0000E+00    0.0000E+00    7.500000E+09  0.00400  3.510E-05    0   0.5212   age171_m42            0.0000     9.3105E-01     5.4526  -0.6649    98.4334
 16      0.0000     0.0000E+00    0.0000E+00    1.300000E+10  0.00400  2.005E-05    0   0.5034   age193_m42            0.0000     1.0835E+00     5.8285  -0.8127    97.1756
 17      0.0000     0.0000E+00    0.0000E+00    1.800000E+10  0.00400  1.525E-05    0   0.4967   age213_m42            0.0000     1.0486E+00     5.7454  -0.8390    96.8645
 18      4.5495     7.3163E-02    1.2580E-01    1.000000E+06  0.00800  1.238E-02    0   1.0000   age020_m52            0.0000     1.0362E+00     5.8118   2.7968    86.4951
 19      0.0000     0.0000E+00    0.0000E+00    3.160000E+06  0.00800  3.074E-02    0   0.9966   age045_m52            0.0000     1.0158E+00     5.7515   2.7169    87.3784
 20      0.0000     0.0000E+00    0.0000E+00    5.010000E+06  0.00800  2.668E-02    0   0.9443   age055_m52            0.0000     9.0011E-01     5.3512   2.4583    90.0652
 21     10.2801     9.5816E-02    1.5119E-01    6.610000E+06  0.00800  2.136E-02    0   0.9177   age061_m52            0.0000     6.0001E-01     4.2960   1.1583    98.5967
 22      0.0000     0.0000E+00    0.0000E+00    1.000000E+07  0.00800  1.215E-02    0   0.8827   age070_m52            0.0000     7.2940E-01     4.5672   1.8353    97.6226
 23      0.0000     0.0000E+00    0.0000E+00    1.445000E+07  0.00800  8.717E-03    0   0.8552   age078_m52            0.0000     7.2963E-01     4.6379   1.9563    96.1859
 24      0.0000     0.0000E+00    0.0000E+00    2.512000E+07  0.00800  5.592E-03    0   0.8162   age090_m52            0.0000     6.9254E-01     4.4855   1.5786   100.0931
 25      0.0000     0.0000E+00    0.0000E+00    4.000000E+07  0.00800  3.896E-03    0   0.7841   age104_m52            0.0000     6.8045E-01     4.4776   1.4922   100.8674
 26      0.0000     0.0000E+00    0.0000E+00    1.015200E+08  0.00800  2.148E-03    0   0.7226   age116_m52            0.0000     7.2193E-01     4.6497   1.4361   100.3681
 27      0.0000     0.0000E+00    0.0000E+00    2.861200E+08  0.00800  9.925E-04    0   0.6683   age125_m52            0.0000     8.3819E-01     4.8898   0.9536   104.5755
 28      0.0000     0.0000E+00    0.0000E+00    9.047900E+08  0.00800  3.141E-04    0   0.6138   age135_m52            0.0000     9.0860E-01     5.2331   0.1618   108.5682
 29      0.0000     0.0000E+00    0.0000E+00    1.434000E+09  0.00800  1.719E-04    0   0.5853   age139_m52            0.0000     8.2655E-01     5.0558  -0.4047   105.6352
 30      0.8007     2.0250E+00    1.9498E+00    2.500000E+09  0.00800  7.872E-05    0   0.5600   age150_m52            0.0000     1.0245E+00     5.7014  -0.6443   101.2388
 31      0.0000     0.0000E+00    0.0000E+00    4.250000E+09  0.00800  4.336E-05    0   0.5426   age158_m52            0.0000     1.0521E+00     5.7660  -0.6560   100.1050
 32      0.0000     0.0000E+00    0.0000E+00    6.250000E+09  0.00800  3.159E-05    0   0.5319   age166_m52            0.0000     1.2999E+00     6.3905  -0.8405    99.2853
 33      0.0000     0.0000E+00    0.0000E+00    1.300000E+10  0.00800  1.361E-05    0   0.5073   age193_m52            0.0000     2.1248E+00     8.0792  -1.0000    85.9593
 34      0.0000     0.0000E+00    0.0000E+00    1.800000E+10  0.00800  9.886E-06    0   0.4990   age213_m52            0.0000     2.7309E+00     9.2004  -1.0000    81.4455
 35      2.2783     2.9377E-02    5.0511E-02    1.000000E+06  0.02000  1.544E-02    0   1.0000   age020_m62            0.0000     1.0428E+00     5.8383   2.7937    86.6563
 36      2.8289     1.4970E-02    2.5375E-02    3.160000E+06  0.02000  3.762E-02    0   0.9858   age045_m62            0.0000     1.0377E+00     5.8229   2.7324    87.4237
 37      0.0680     4.1064E-04    6.5960E-04    5.010000E+06  0.02000  3.296E-02    0   0.9342   age055_m62            0.0000     8.9031E-01     5.3067   2.3318    92.2224
 38     16.6803     2.8777E-01    4.3843E-01    8.710000E+06  0.02000  1.154E-02    0   0.8861   age067_m62            0.0000     1.3498E+00     6.1644   1.2537   102.3255
 39      0.1952     5.0706E-03    7.3863E-03    1.445000E+07  0.02000  7.663E-03    0   0.8472   age078_m62            0.0000     7.7623E-01     4.6609   1.4702   100.6326
 40      0.0000     0.0000E+00    0.0000E+00    2.512000E+07  0.02000  4.532E-03    0   0.8099   age090_m62            0.0000     8.3477E-01     4.8205   1.4589   100.6288
 41      0.0000     0.0000E+00    0.0000E+00    5.500000E+07  0.02000  2.733E-03    0   0.7595   age110_m62            0.0000     6.7343E-01     4.4241   1.4776    99.9741
 42      0.0000     0.0000E+00    0.0000E+00    1.609000E+08  0.02000  1.369E-03    0   0.6985   age120_m62            0.0000     8.1297E-01     4.8114   1.3164   102.7370
 43      0.0000     0.0000E+00    0.0000E+00    2.861200E+08  0.02000  9.013E-04    0   0.6714   age125_m62            0.0000     9.4067E-01     5.1304   1.0606   105.9270
 44      0.0000     0.0000E+00    0.0000E+00    5.088000E+08  0.02000  5.028E-04    0   0.6449   age130_m62            0.0000     1.0617E+00     5.5534   0.6947   108.1224
 45      7.9995     6.5593E+00    6.9688E+00    9.047900E+08  0.02000  2.428E-04    0   0.6179   age135_m62            0.0000     9.6254E-01     5.4836   0.1221   106.7744
 46      4.7362     7.4657E+00    7.5839E+00    1.434000E+09  0.02000  1.263E-04    0   0.5908   age139_m62            0.0000     9.9348E-01     5.6082  -0.3087   104.4601
 47      2.5958     8.6346E+00    8.4224E+00    2.500000E+09  0.02000  5.985E-05    0   0.5673   age150_m62            0.0000     1.2628E+00     6.3308  -0.6463   101.6110
 48      0.0000     0.0000E+00    0.0000E+00    4.250000E+09  0.02000  3.271E-05    0   0.5468   age158_m62            0.0000     1.6804E+00     7.3865  -0.9246    99.4592
 49      0.0000     0.0000E+00    0.0000E+00    1.000000E+10  0.02000  1.360E-05    0   0.5167   age181_m62            0.0000     2.5978E+00     8.9738  -1.0000    87.7856
 50      0.0000     0.0000E+00    0.0000E+00    1.800000E+10  0.02000  7.124E-06    0   0.5013   age213_m62            0.0000     3.6481E+00    10.6523  -1.0000    79.1940
 51      5.0927     3.9116E-02    6.7243E-02    1.000000E+06  0.05000  2.592E-02    0   0.9998   age020_m72            0.0000     1.0636E+00     5.9108   2.7863    86.6140
 52      0.0000     0.0000E+00    0.0000E+00    3.160000E+06  0.05000  4.845E-02    0   0.9577   age045_m72            0.0000     9.9244E-01     5.6615   2.6077    88.9360
 53      0.0001     5.1362E-07    8.0780E-07    5.010000E+06  0.05000  3.072E-02    0   0.9147   age055_m72            0.0000     8.1544E-01     4.8260   2.0984    94.9500
 54      0.0000     0.0000E+00    0.0000E+00    6.610000E+06  0.05000  1.455E-02    0   0.8877   age061_m72            0.0000     2.4131E+00     8.4166   1.3237   103.4220
 55      0.0000     0.0000E+00    0.0000E+00    1.000000E+07  0.05000  9.074E-03    0   0.8524   age070_m72            0.0000     1.0020E+00     5.4156   2.3076    94.0864
 56      0.0000     0.0000E+00    0.0000E+00    2.512000E+07  0.05000  4.250E-03    0   0.7902   age090_m72            0.0000     8.6191E-01     4.9794   1.9719    97.2011
 57      0.0000     0.0000E+00    0.0000E+00    4.000000E+07  0.05000  3.087E-03    0   0.7618   age104_m72            0.0000     8.9489E-01     5.0451   1.7294    99.5526
 58      0.0000     0.0000E+00    0.0000E+00    1.015200E+08  0.05000  1.700E-03    0   0.7096   age116_m72            0.0000     8.0180E-01     4.7505   1.4552   102.6188
 59      0.0000     0.0000E+00    0.0000E+00    2.861200E+08  0.05000  7.384E-04    0   0.6633   age125_m72            0.0000     9.8987E-01     5.2993   0.9330   107.1541
 60     18.1795     9.4771E+00    1.0383E+01    5.088000E+08  0.05000  3.819E-04    0   0.6372   age130_m72            0.0000     9.9049E-01     5.5195   0.4506   108.2163
 61      6.1617     7.3193E+00    7.6894E+00    9.047900E+08  0.05000  1.676E-04    0   0.6110   age135_m72            0.0000     1.2413E+00     6.3464  -0.2055   104.2181
 62      8.0212     1.8071E+01    1.8251E+01    1.434000E+09  0.05000  8.837E-05    0   0.5874   age139_m72            0.0000     1.3653E+00     6.5586  -0.6470   103.1000
 63      5.2235     2.4567E+01    2.3646E+01    2.500000E+09  0.05000  4.233E-05    0   0.5598   age150_m72            0.0000     1.8463E+00     7.7592  -0.9182    99.9939
 64      0.0000     0.0000E+00    0.0000E+00    6.250000E+09  0.05000  1.435E-05    0   0.5249   age166_m72            0.0000     2.9889E+00     9.6984  -1.0000    83.6588
 65      0.0000     0.0000E+00    0.0000E+00    1.300000E+10  0.05000  6.513E-06    0   0.5036   age193_m72            0.0000     4.5935E+00    12.1712  -1.0000    74.2809
 66      0.0000     0.0000E+00    0.0000E+00    1.800000E+10  0.05000  4.527E-06    0   0.4945   age213_m72            0.0000     5.6853E+00    13.7708  -1.0000    68.7821


## Synthesis Results - Average & Chains ##

# j      x_j: min, <> & last-chain-values for 1 ...  7 chains
  1      4.1646      1.8333      2.0887      2.4513      0.5655      1.9994      2.6575      2.1979      2.1622
  2      0.0000      0.3064      0.0000      0.0000      0.0000      0.2291      0.0000      0.0000      2.0076
  3      0.0233      0.4291      0.0000      0.1566      1.9601      0.0000      0.5643      0.0000      0.0000
  4      0.0000      0.2197      0.3761      0.0000      0.0000      0.0000      0.5807      0.0000      0.0000
  5      0.0000      0.3645      0.0000      0.3223      2.0976      0.0000      0.1095      0.0000      0.0000
  6      0.0000      0.6868      0.3200      0.0000      0.1151      0.4250      0.0000      2.0672      0.0000
  7      0.0000      0.5214      0.0000      0.1447      0.0231      0.0000      0.0000      0.0000      0.6796
  8      0.0000      0.8104      0.0000      0.0000      0.7058      1.2268      0.0000      0.6822      0.0000
  9      0.0000      0.3016      0.0000      0.0000      0.0871      0.0000      0.0000      0.0000      0.0000
 10      0.0000      0.3906      0.0000      0.3418      0.0000      0.0000      0.0000      0.0000      0.0000
 11      0.0000      0.3040      0.0005      0.0000      0.0000      0.3974      0.0000      0.0000      0.0000
 12      0.0000      0.3429      0.0000      0.0000      0.0000      0.0000      0.0000      0.0000      0.0000
 13      0.0000      0.4444      0.0000      0.0000      0.0000      0.0000      0.0000      0.0000      0.0000
 14      4.5184      4.2044      4.7121      4.6962      5.2917      5.0894      3.2704      3.8972      4.1147
 15      0.0000      0.3908      0.5024      0.3357      1.1094      0.0000      0.0000      0.7717      0.5915
 16      0.0000      0.0870      0.0000      0.0000      0.0000      0.0000      0.1375      0.0000      0.0000
 17      0.0000      0.0882      0.0000      0.0732      0.0715      0.0000      0.0000      0.0000      0.0000
 18      4.5495      2.6554      2.7377      2.8676      2.2006      2.6946      3.2369      2.9598      2.9783
 19      0.0000      1.0074      2.2265      1.3398      1.2576      0.0000      0.3024      1.6817      0.0000
 20      0.0000      0.5957      1.2840      0.0000      0.0000      1.2264      0.0000      0.0000      0.2297
 21     10.2801     10.4888     11.9135     10.6062     11.4071     11.8885     13.1294     12.9804     11.4796
 22      0.0000      1.1991      0.0000      0.6790      0.0000      1.9556      0.7825      1.7004      0.6137
 23      0.0000      0.5254      0.4519      0.3377      2.0606      1.5938      0.1543      0.0000      1.5606
 24      0.0000      0.2958      0.0414      0.0000      0.0000      0.0000      0.2366      0.0000      1.0018
 25      0.0000      0.2516      0.0000      0.0000      0.2339      0.8582      0.0000      0.0000      0.2542
 26      0.0000      0.4614      0.8926      0.0000      0.0000      0.0000      0.0000      0.0000      0.5522
 27      0.0000      0.4520      0.0000      0.6735      0.0000      0.0000      0.0000      0.0000      0.0000
 28      0.0000      0.8455      0.0000      1.5135      0.0000      0.0000      2.5694      0.0000      0.0000
 29      0.0000      0.9559      0.3372      0.3103      1.0294      1.0811      0.0000      1.8765      0.0000
 30      0.8007      2.4251      1.7968      3.0486      2.8344      1.8097      2.7746      1.4541      1.9622
 31      0.0000      0.1072      0.0000      0.0534      0.1639      0.0000      0.0000      0.0000      0.0000
 32      0.0000      0.1426      0.0000      0.0000      0.0472      0.0000      0.0000      0.0000      0.0000
 33      0.0000      0.0369      0.0000      0.0000      0.0000      0.0000      0.0000      0.0000      0.0000
 34      0.0000      0.0207      0.0000      0.1037      0.0132      0.0000      0.0000      0.0000      0.0000
 35      2.2783      0.2517      0.4815      2.4923      1.8186      0.0000      0.8412      0.3128      0.0000
 36      2.8289      2.5114      2.4717      1.8941      1.6408      2.2012      3.6183      1.7804      2.7384
 37      0.0680      1.8089      1.8051      1.7189      2.0950      2.2661      2.5982      3.3944      1.5543
 38     16.6803      9.8635     11.7288     12.3403     11.3913      9.8565     11.6728      8.7898     10.9153
 39      0.1952      1.9278      1.0411      2.4806      2.4385      3.0048      1.0001      2.5531      1.6413
 40      0.0000      0.6243      0.0000      0.3334      1.8143      0.0000      0.3261      0.0000      1.7987
 41      0.0000      0.2757      1.5087      0.0000      0.2884      0.8774      0.0000      0.0000      0.0000
 42      0.0000      0.2788      0.0000      0.0766      0.0000      0.0000      0.0000      0.0000      0.0000
 43      0.0000      0.3202      0.0000      0.0000      0.0000      0.0000      0.0000      0.0000      0.0000
 44      0.0000      0.6718      0.0000      0.0000      0.2446      0.0000      0.0000      0.0000      0.2049
 45      7.9995     12.9420     14.8071     11.8074     11.4254     13.4840     11.9977     10.1823     14.0126
 46      4.7362      5.0293      6.5997      4.9583      4.6648      3.9960      4.7548      5.6935      5.6244
