###################################################################
## OUTPUT of StarlightChains_v04.for    [Cid@UFSC - 01/Apr/2007] ##
###################################################################

## Some input info
2012gi.txt                               [arq_obs]
Base.CB07.vall.4m                        [arq_base]
Masks.EmLines.NEW.gm                     [arq_masks]
StCv04.C11.config                        [arq_config]
   66                                    [N_base]
    0                                    [N_YAV_components = # of components with extra extinction!]
    0                                    [i_FitPowerLaw (1/0 = Yes/No)]
-9.99                                    [alpha_PowerLaw]
CCM                                      [red_law_option]
 1.458241                                [q_norm = A(l_norm)/A(V)]

## (Re)Sampling Parameters
 3741.00                                 [l_ini (A)]
 7218.00                                 [l_fin (A)]
    1.00                                 [dl    (A)]     (OBS: dl_cushion =    50.00 A)

## Normalization info
 4020.00                                 [l_norm (A) - for base]
 4010.00                                 [llow_norm (A) - window for f_obs]
 4060.00                                 [lupp_norm (A) - window for f_obs]
3.596542E-18                             [fobs_norm (in input units)]

## S/N
 3691.00                                 [llow_SN (A) - window for S/N]
 7268.00                                 [lupp_SN (A) - window for S/N]
   1.221                                 [S/N in S/N window]
   1.104                                 [S/N in norm. window]
   0.825                                 [S/N_err in S/N window]
   0.746                                 [S/N_err in norm. window]
  1.0000                                 [fscale_chi2]

## etc...
    -2007397                             [idum_orig]
  2053                                   [NOl_eff]
  2043                                   [Nl_eff]
    10    NSIGMA                         [Ntot_cliped & clip_method]
   333270                                [Nglobal_steps]
   7                                     [N_chains]
  15                                     [NEX0s_base = N_base in EX0s-fits]
 0   0   1        8   2.0   8.815E+00    [Clip-Bug, RC-Crash & Burn-In warning-flags, n_censored_weights, wei_nsig_threshold & wei_limit]
     9      9.098      8.596      0.502  [idt_all, wdt_TotTime, wdt_UsrTime & wdt_SysTime (sec)]

## Synthesis Results - Best model ##

 2.79902E-01                             [chi2/Nl_eff]
   210.58427                             [adev (%)]

   130.00000                             [sum-of-x (%)]
 5.86491E-17                             [Flux_tot (units of input spectrum!)]
 4.73740E-15                             [Mini_tot (???)]
 4.73740E-15                             [Mcor_tot (???)]

-207.10                                  [v0_min  (km/s)]
  17.82                                  [vd_min  (km/s)]
 1.8831                                  [AV_min  (mag)]
 0.0000                                  [YAV_min (mag)]

# j     x_j(%)      Mini_j(%)     Mcor_j(%)     age_j(yr)     Z_j      (L/M)_j    YAV?  Mstars   component_j        a/Fe...       SSP_chi2r SSP_adev(%)   SSP_AV   SSP_x(%)
  1      0.0000     0.0000E+00    0.0000E+00    1.000000E+06  0.00400  1.094E-02    0   1.0000   age020_m42            0.0000     2.6389E-01   226.4421   1.0962   188.8576
  2      0.0000     0.0000E+00    0.0000E+00    3.160000E+06  0.00400  4.007E-02    0   0.9999   age045_m42            0.0000     2.6371E-01   227.0580   0.3851   201.0468
  3      0.0000     0.0000E+00    0.0000E+00    5.010000E+06  0.00400  2.539E-02    0   0.9488   age055_m42            0.0000     2.6393E-01   227.0978   0.6992   196.3490
  4      0.0000     0.0000E+00    0.0000E+00    6.610000E+06  0.00400  2.620E-02    0   0.9220   age061_m42            0.0000     2.6419E-01   227.3489   0.3110   201.5990
  5      0.0000     0.0000E+00    0.0000E+00    1.000000E+07  0.00400  1.322E-02    0   0.8862   age070_m42            0.0000     2.6519E-01   229.3137   0.0095   208.7665
  6      0.0000     0.0000E+00    0.0000E+00    1.445000E+07  0.00400  7.883E-03    0   0.8571   age078_m42            0.0000     2.6494E-01   228.9857   0.3332   203.4865
  7      0.0000     0.0000E+00    0.0000E+00    2.512000E+07  0.00400  5.251E-03    0   0.8174   age090_m42            0.0000     2.6533E-01   229.7207  -0.1227   210.4019
  8      0.0000     0.0000E+00    0.0000E+00    4.000000E+07  0.00400  3.649E-03    0   0.7851   age104_m42            0.0000     2.6540E-01   229.4472  -0.3471   211.8235
  9      0.0000     0.0000E+00    0.0000E+00    5.500000E+07  0.00400  3.098E-03    0   0.7629   age110_m42            0.0000     2.6504E-01   228.6568  -0.1784   210.0668
 10      0.0000     0.0000E+00    0.0000E+00    1.015200E+08  0.00400  2.228E-03    0   0.7207   age116_m42            0.0000     2.6491E-01   228.1267  -0.1531   209.7359
 11      0.0000     0.0000E+00    0.0000E+00    2.861200E+08  0.00400  1.093E-03    0   0.6648   age125_m42            0.0000     2.6579E-01   227.9214  -0.7257   215.9360
 12      0.0000     0.0000E+00    0.0000E+00    5.088000E+08  0.00400  6.597E-04    0   0.6365   age130_m42            0.0000     2.6560E-01   227.3042  -0.7218   216.4685
 13      0.0000     0.0000E+00    0.0000E+00    1.434000E+09  0.00400  2.132E-04    0   0.5798   age139_m42            0.0000     2.7841E-01   220.8772  -1.0000   165.0533
 14      0.0000     0.0000E+00    0.0000E+00    4.250000E+09  0.00400  5.895E-05    0   0.5377   age158_m42            0.0000     2.9457E-01   216.0250  -1.0000   129.3812
 15      0.0000     0.0000E+00    0.0000E+00    7.500000E+09  0.00400  3.510E-05    0   0.5212   age171_m42            0.0000     3.0311E-01   214.0607  -1.0000   117.6099
 16      0.0000     0.0000E+00    0.0000E+00    1.300000E+10  0.00400  2.005E-05    0   0.5034   age193_m42            0.0000     3.1116E-01   212.4134  -1.0000   108.0220
 17      0.0000     0.0000E+00    0.0000E+00    1.800000E+10  0.00400  1.525E-05    0   0.4967   age213_m42            0.0000     3.1231E-01   212.1295  -1.0000   106.2746
 18    130.0000     1.0000E+02    1.0000E+02    1.000000E+06  0.00800  1.238E-02    0   1.0000   age020_m52            0.0000     2.6390E-01   226.4754   1.0953   188.9996
 19      0.0000     0.0000E+00    0.0000E+00    3.160000E+06  0.00800  3.074E-02    0   0.9966   age045_m52            0.0000     2.6392E-01   226.5430   1.0219   190.4268
 20      0.0000     0.0000E+00    0.0000E+00    5.010000E+06  0.00800  2.668E-02    0   0.9443   age055_m52            0.0000     2.6400E-01   227.0936   0.7811   194.6706
 21      0.0000     0.0000E+00    0.0000E+00    6.610000E+06  0.00800  2.136E-02    0   0.9177   age061_m52            0.0000     2.6524E-01   228.5201  -0.4860   210.5083
 22      0.0000     0.0000E+00    0.0000E+00    1.000000E+07  0.00800  1.215E-02    0   0.8827   age070_m52            0.0000     2.6554E-01   229.8015   0.1807   209.2922
 23      0.0000     0.0000E+00    0.0000E+00    1.445000E+07  0.00800  8.717E-03    0   0.8552   age078_m52            0.0000     2.6508E-01   229.1855   0.3022   206.1285
 24      0.0000     0.0000E+00    0.0000E+00    2.512000E+07  0.00800  5.592E-03    0   0.8162   age090_m52            0.0000     2.6569E-01   229.9183  -0.0587   213.0085
 25      0.0000     0.0000E+00    0.0000E+00    4.000000E+07  0.00800  3.896E-03    0   0.7841   age104_m52            0.0000     2.6574E-01   229.6207  -0.1395   213.9222
 26      0.0000     0.0000E+00    0.0000E+00    1.015200E+08  0.00800  2.148E-03    0   0.7226   age116_m52            0.0000     2.6532E-01   228.7595  -0.1860   211.7618
 27      0.0000     0.0000E+00    0.0000E+00    2.861200E+08  0.00800  9.925E-04    0   0.6683   age125_m52            0.0000     2.6618E-01   227.8582  -0.6520   218.6682
 28      0.0000     0.0000E+00    0.0000E+00    9.047900E+08  0.00800  3.141E-04    0   0.6138   age135_m52            0.0000     2.7268E-01   223.1778  -1.0000   188.7666
 29      0.0000     0.0000E+00    0.0000E+00    1.434000E+09  0.00800  1.719E-04    0   0.5853   age139_m52            0.0000     2.9203E-01   217.7144  -1.0000   142.4474
 30      0.0000     0.0000E+00    0.0000E+00    2.500000E+09  0.00800  7.872E-05    0   0.5600   age150_m52            0.0000     3.0265E-01   214.6309  -1.0000   122.1411
 31      0.0000     0.0000E+00    0.0000E+00    4.250000E+09  0.00800  4.336E-05    0   0.5426   age158_m52            0.0000     3.0330E-01   214.3263  -1.0000   120.0993
 32      0.0000     0.0000E+00    0.0000E+00    6.250000E+09  0.00800  3.159E-05    0   0.5319   age166_m52            0.0000     3.1282E-01   212.4005  -1.0000   109.0071
 33      0.0000     0.0000E+00    0.0000E+00    1.300000E+10  0.00800  1.361E-05    0   0.5073   age193_m52            0.0000     3.3739E-01   208.6458  -1.0000    86.0635
 34      0.0000     0.0000E+00    0.0000E+00    1.800000E+10  0.00800  9.886E-06    0   0.4990   age213_m52            0.0000     3.4242E-01   207.7465  -1.0000    81.2153
 35      0.0000     0.0000E+00    0.0000E+00    1.000000E+06  0.02000  1.544E-02    0   1.0000   age020_m62            0.0000     2.6386E-01   226.4533   1.0916   189.4055
 36      0.0000     0.0000E+00    0.0000E+00    3.160000E+06  0.02000  3.762E-02    0   0.9858   age045_m62            0.0000     2.6395E-01   226.4617   1.0295   191.0567
 37      0.0000     0.0000E+00    0.0000E+00    5.010000E+06  0.02000  3.296E-02    0   0.9342   age055_m62            0.0000     2.6404E-01   226.9227   0.6682   198.0407
 38      0.0000     0.0000E+00    0.0000E+00    8.710000E+06  0.02000  1.154E-02    0   0.8861   age067_m62            0.0000     2.6997E-01   232.8872  -0.4114   221.2917
 39      0.0000     0.0000E+00    0.0000E+00    1.445000E+07  0.02000  7.663E-03    0   0.8472   age078_m62            0.0000     2.6655E-01   230.7518  -0.1834   215.7521
 40      0.0000     0.0000E+00    0.0000E+00    2.512000E+07  0.02000  4.532E-03    0   0.8099   age090_m62            0.0000     2.6722E-01   231.0422  -0.1923   215.4226
 41      0.0000     0.0000E+00    0.0000E+00    5.500000E+07  0.02000  2.733E-03    0   0.7595   age110_m62            0.0000     2.6562E-01   229.4397  -0.1552   212.0990
 42      0.0000     0.0000E+00    0.0000E+00    1.609000E+08  0.02000  1.369E-03    0   0.6985   age120_m62            0.0000     2.6588E-01   228.4880  -0.2999   216.0502
 43      0.0000     0.0000E+00    0.0000E+00    2.861200E+08  0.02000  9.013E-04    0   0.6714   age125_m62            0.0000     2.6643E-01   227.9266  -0.5398   221.1650
 44      0.0000     0.0000E+00    0.0000E+00    5.088000E+08  0.02000  5.028E-04    0   0.6449   age130_m62            0.0000     2.6705E-01   226.4752  -0.8900   223.8795
 45      0.0000     0.0000E+00    0.0000E+00    9.047900E+08  0.02000  2.428E-04    0   0.6179   age135_m62            0.0000     2.7405E-01   222.0027  -1.0000   182.3374
 46      0.0000     0.0000E+00    0.0000E+00    1.434000E+09  0.02000  1.263E-04    0   0.5908   age139_m62            0.0000     2.8800E-01   217.9185  -1.0000   147.3746
 47      0.0000     0.0000E+00    0.0000E+00    2.500000E+09  0.02000  5.985E-05    0   0.5673   age150_m62            0.0000     3.0311E-01   214.1092  -1.0000   122.5306
 48      0.0000     0.0000E+00    0.0000E+00    4.250000E+09  0.02000  3.271E-05    0   0.5468   age158_m62            0.0000     3.1707E-01   211.2558  -1.0000   104.9079
 49      0.0000     0.0000E+00    0.0000E+00    1.000000E+10  0.02000  1.360E-05    0   0.5167   age181_m62            0.0000     3.3505E-01   208.5124  -1.0000    88.1490
 50      0.0000     0.0000E+00    0.0000E+00    1.800000E+10  0.02000  7.124E-06    0   0.5013   age213_m62            0.0000     3.4563E-01   207.0004  -1.0000    78.8614
 51      0.0000     0.0000E+00    0.0000E+00    1.000000E+06  0.05000  2.592E-02    0   0.9998   age020_m72            0.0000     2.6384E-01   226.4432   1.0829   189.5233
 52      0.0000     0.0000E+00    0.0000E+00    3.160000E+06  0.05000  4.845E-02    0   0.9577   age045_m72            0.0000     2.6399E-01   226.6165   0.9231   192.7697
 53      0.0000     0.0000E+00    0.0000E+00    5.010000E+06  0.05000  3.072E-02    0   0.9147   age055_m72            0.0000     2.6549E-01   229.3462   0.4208   205.1570
 54      0.0000     0.0000E+00    0.0000E+00    6.610000E+06  0.05000  1.455E-02    0   0.8877   age061_m72            0.0000     2.7475E-01   233.8556  -0.3738   225.8739
 55      0.0000     0.0000E+00    0.0000E+00    1.000000E+07  0.05000  9.074E-03    0   0.8524   age070_m72            0.0000     2.6666E-01   229.3736   0.6106   204.3292
 56      0.0000     0.0000E+00    0.0000E+00    2.512000E+07  0.05000  4.250E-03    0   0.7902   age090_m72            0.0000     2.6641E-01   229.8270   0.3088   208.3421
 57      0.0000     0.0000E+00    0.0000E+00    4.000000E+07  0.05000  3.087E-03    0   0.7618   age104_m72            0.0000     2.6697E-01   230.3073   0.0770   212.4595
 58      0.0000     0.0000E+00    0.0000E+00    1.015200E+08  0.05000  1.700E-03    0   0.7096   age116_m72            0.0000     2.6620E-01   229.3377  -0.1644   216.2444
 59      0.0000     0.0000E+00    0.0000E+00    2.861200E+08  0.05000  7.384E-04    0   0.6633   age125_m72            0.0000     2.6696E-01   227.5546  -0.6556   222.4940
 60      0.0000     0.0000E+00    0.0000E+00    5.088000E+08  0.05000  3.819E-04    0   0.6372   age130_m72            0.0000     2.6833E-01   225.1459  -1.0000   212.1930
 61      0.0000     0.0000E+00    0.0000E+00    9.047900E+08  0.05000  1.676E-04    0   0.6110   age135_m72            0.0000     2.8443E-01   218.2754  -1.0000   154.2323
 62      0.0000     0.0000E+00    0.0000E+00    1.434000E+09  0.05000  8.837E-05    0   0.5874   age139_m72            0.0000     3.0355E-01   214.3812  -1.0000   124.2511
 63      0.0000     0.0000E+00    0.0000E+00    2.500000E+09  0.05000  4.233E-05    0   0.5598   age150_m72            0.0000     3.1731E-01   211.3808  -1.0000   105.8527
 64      0.0000     0.0000E+00    0.0000E+00    6.250000E+09  0.05000  1.435E-05    0   0.5249   age166_m72            0.0000     3.3995E-01   207.9920  -1.0000    83.6912
 65      0.0000     0.0000E+00    0.0000E+00    1.300000E+10  0.05000  6.513E-06    0   0.5036   age193_m72            0.0000     3.5464E-01   206.0618  -1.0000    73.5235
 66      0.0000     0.0000E+00    0.0000E+00    1.800000E+10  0.05000  4.527E-06    0   0.4945   age213_m72            0.0000     3.6325E-01   205.1963  -1.0000    67.7159


## Synthesis Results - Average & Chains ##

# j      x_j: min, <> & last-chain-values for 1 ...  7 chains
  1      0.0000      2.8467      0.0000      2.7239      0.7619      8.9805     20.6723      0.0000      1.8763
  2      0.0000      6.1248     36.4705      4.5982     15.7581     11.4191      3.0935     22.0552      5.0300
  3      0.0000      4.6363     22.5807     14.5373      0.0127     33.1834      1.7460      0.0000      0.0000
  4      0.0000      5.6150      0.0000     24.6673     20.9591     14.0155      7.4518      0.7451      8.5951
  5      0.0000      4.3985      0.0000      0.0000      9.0121      0.0000      0.6791      1.3649      0.6339
  6      0.0000      5.4196      0.4589      4.5063      0.3491      4.0195     23.2672      4.8947      0.0000
  7      0.0000      3.5828      0.0000      0.0000      0.0000      0.0000      0.0000      0.0000      0.0000
  8      0.0000      2.5642      0.0000      0.0344      1.0094      0.0000     21.2748     10.6558      0.0000
  9      0.0000      3.9474      6.0761      0.0000      0.0010      0.0000      0.0000     13.9476      1.1103
 10      0.0000      4.2911      3.6210      0.0000      0.0000      4.6679      1.3866     18.8397      9.3098
 11      0.0000      1.3022      0.0000      0.0000      0.0037      0.0000      1.8206      0.0000      0.0000
 12      0.0000      1.9720      0.0000     13.6714      0.0011      3.5374      0.0000     16.7357      0.0000
 13      0.0000      0.2243      0.0000      0.0000      0.0915      0.0206      0.0104      0.0000      0.0000
 14      0.0000      0.0555      0.0000      0.0000      0.2885      0.0000      0.0000      0.0002      0.0000
 15      0.0000      0.0277      0.0000      0.0000      0.0000      0.0000      0.0000      0.0000      0.0000
 16      0.0000      0.0603      0.0000      0.0000      0.0000      0.0000      0.0000      0.0000      0.0000
 17      0.0000      0.0183      0.0000      0.0000      0.0000      0.0000      0.0000      0.0000      0.0000
 18    130.0000      2.5753      4.9439      0.6885      0.0000      0.8864      0.0000      0.0578      0.0000
 19      0.0000      3.1262      0.0000      9.9277      0.0000      4.1486      4.3500      4.3940      0.0000
 20      0.0000      4.0095      3.2842      0.0000      2.7744      6.3557      0.0000      0.3093      0.0000
 21      0.0000      2.6844      2.5611      0.0000      4.2485      0.0000      1.1571      9.5821      0.0279
 22      0.0000      2.8077      1.4241      0.0000      9.1007     14.3225      0.0000      1.0201      0.0000
 23      0.0000      3.0398      0.0000      0.0000      0.0000      2.4164      6.0476      1.5480      0.0000
 24      0.0000      3.4710      0.0000      0.4329      0.8075      0.0000      0.0000      0.0000     14.3394
 25      0.0000      3.4287      1.2341      0.0000      0.0000      0.0000      0.0000      0.0000      0.2446
 26      0.0000      4.1050      4.6124      0.0118      9.9889      0.0000      0.0000      0.0000      9.9263
 27      0.0000      1.5209      0.0000      0.0000      0.0010      1.4982      0.0930      0.0000      3.4958
 28      0.0000      0.1553      0.0000      0.0000      0.0000      0.0000      0.0000      0.0000      0.0000
 29      0.0000      0.1304      0.0000      0.0000      0.0006      0.0000      0.0000      0.0000      0.0000
 30      0.0000      0.0378      0.0000      0.0000      0.3641      0.0000      0.0000      0.0000      0.0000
 31      0.0000      0.0471      0.0000      0.0000      0.0000      0.0000      0.0282      0.0000      0.0000
 32      0.0000      0.0348      0.0000      0.0000      0.0005      0.0000      0.0000      0.0000      0.0000
 33      0.0000      0.0355      0.0000      0.0000      0.0000      0.0000      0.0000      0.0000      0.0000
 34      0.0000      0.0093      0.0000      0.0000      0.0000      0.0000      0.0000      0.0000      0.0000
 35      0.0000      2.8602      6.2409     20.2161      0.0000      0.0000     16.2000      0.0000     46.3718
 36      0.0000      3.2230     15.1333      0.0000      0.0000      0.0000      0.6128      0.0000      5.4985
 37      0.0000      4.1049      1.3138      0.0000      0.0202      0.1605      0.7684      0.0000      1.6138
 38      0.0000      1.0637      0.0000      0.0178      0.0198      0.9100      0.0000      0.0000      0.0000
 39      0.0000      2.5883      0.0000      0.0030      0.0000      0.1774      0.1262      5.6391      4.0700
 40      0.0000      3.1423      0.0000      9.0798      7.1014      0.0000      0.0000      0.0000      0.0000
 41      0.0000      5.1304      0.0000      3.7088     25.8889      0.0224      0.0000      0.0000      0.0309
 42      0.0000      3.2472      0.0000      8.4981      2.3952      0.0000      0.1636      1.0227      0.0000
 43      0.0000      2.0019      0.0000      1.8245      0.0000      0.0000      2.3340      6.0920      0.0000
 44      0.0000      1.3867      0.0000      0.0000      0.1925      1.2515      0.0088      6.5797      0.0692
 45      0.0000      0.3498      0.0000      2.3679      0.0000      0.0000      2.3798      0.0000      0.0000
 46      0.0000      0.0817      0.0000      0.0811      0.0000      0.0000      0.0000      0.0000      0.0000
