###################################################################
## OUTPUT of StarlightChains_v04.for    [Cid@UFSC - 01/Apr/2007] ##
###################################################################

## Some input info
2012dx.txt                               [arq_obs]
Base.CB07.vall.4m                        [arq_base]
Masks.EmLines.NEW.gm                     [arq_masks]
StCv04.C11.config                        [arq_config]
   66                                    [N_base]
    0                                    [N_YAV_components = # of components with extra extinction!]
    0                                    [i_FitPowerLaw (1/0 = Yes/No)]
-9.99                                    [alpha_PowerLaw]
CCM                                      [red_law_option]
 1.458241                                [q_norm = A(l_norm)/A(V)]

## (Re)Sampling Parameters
 3741.00                                 [l_ini (A)]
 7218.00                                 [l_fin (A)]
    1.00                                 [dl    (A)]     (OBS: dl_cushion =    50.00 A)

## Normalization info
 4020.00                                 [l_norm (A) - for base]
 4010.00                                 [llow_norm (A) - window for f_obs]
 4060.00                                 [lupp_norm (A) - window for f_obs]
1.188701E-16                             [fobs_norm (in input units)]

## S/N
 3691.00                                 [llow_SN (A) - window for S/N]
 7268.00                                 [lupp_SN (A) - window for S/N]
   7.530                                 [S/N in S/N window]
   6.443                                 [S/N in norm. window]
  10.000                                 [S/N_err in S/N window]
   8.556                                 [S/N_err in norm. window]
  1.0000                                 [fscale_chi2]

## etc...
    -2007392                             [idum_orig]
  2384                                   [NOl_eff]
  2334                                   [Nl_eff]
    50    NSIGMA                         [Ntot_cliped & clip_method]
  1638000                                [Nglobal_steps]
   7                                     [N_chains]
  27                                     [NEX0s_base = N_base in EX0s-fits]
 0   0   1       33   2.0   1.542E+01    [Clip-Bug, RC-Crash & Burn-In warning-flags, n_censored_weights, wei_nsig_threshold & wei_limit]
    17     17.607     17.100      0.507  [idt_all, wdt_TotTime, wdt_UsrTime & wdt_SysTime (sec)]

## Synthesis Results - Best model ##

 3.60427E-01                             [chi2/Nl_eff]
     4.03201                             [adev (%)]

   105.22955                             [sum-of-x (%)]
 1.05557E-15                             [Flux_tot (units of input spectrum!)]
 3.68703E-12                             [Mini_tot (???)]
 2.07663E-12                             [Mcor_tot (???)]

 136.37                                  [v0_min  (km/s)]
 301.23                                  [vd_min  (km/s)]
 1.5880                                  [AV_min  (mag)]
 0.0000                                  [YAV_min (mag)]

# j     x_j(%)      Mini_j(%)     Mcor_j(%)     age_j(yr)     Z_j      (L/M)_j    YAV?  Mstars   component_j        a/Fe...       SSP_chi2r SSP_adev(%)   SSP_AV   SSP_x(%)
  1      1.3651     3.3948E-02    6.0275E-02    1.000000E+06  0.00400  1.094E-02    0   1.0000   age020_m42            0.0000     6.6906E-01     6.0861   3.5204    90.0125
  2      0.0000     0.0000E+00    0.0000E+00    3.160000E+06  0.00400  4.007E-02    0   0.9999   age045_m42            0.0000     5.6814E-01     5.5220   2.7849    96.6604
  3      0.0000     0.0000E+00    0.0000E+00    5.010000E+06  0.00400  2.539E-02    0   0.9488   age055_m42            0.0000     5.7837E-01     5.6000   3.1054    94.2520
  4      0.0063     6.5009E-05    1.0642E-04    6.610000E+06  0.00400  2.620E-02    0   0.9220   age061_m42            0.0000     5.5225E-01     5.3636   2.7087    97.0066
  5      0.0000     0.0000E+00    0.0000E+00    1.000000E+07  0.00400  1.322E-02    0   0.8862   age070_m42            0.0000     4.2919E-01     4.4209   2.4227    99.2666
  6      0.0000     0.0000E+00    0.0000E+00    1.445000E+07  0.00400  7.883E-03    0   0.8571   age078_m42            0.0000     4.5247E-01     4.6099   2.7516    96.6451
  7      0.0000     0.0000E+00    0.0000E+00    2.512000E+07  0.00400  5.251E-03    0   0.8174   age090_m42            0.0000     4.1667E-01     4.2767   2.2912    99.9044
  8      0.0000     0.0000E+00    0.0000E+00    4.000000E+07  0.00400  3.649E-03    0   0.7851   age104_m42            0.0000     4.2011E-01     4.2954   2.0628   100.8061
  9      0.0000     0.0000E+00    0.0000E+00    5.500000E+07  0.00400  3.098E-03    0   0.7629   age110_m42            0.0000     4.8768E-01     4.6569   2.2181   100.7293
 10      0.0000     0.0000E+00    0.0000E+00    1.015200E+08  0.00400  2.228E-03    0   0.7207   age116_m42            0.0000     5.6002E-01     4.9556   2.2395   100.8717
 11      0.0000     0.0000E+00    0.0000E+00    2.861200E+08  0.00400  1.093E-03    0   0.6648   age125_m42            0.0000     5.7361E-01     4.9596   1.6667   104.0693
 12      0.0000     0.0000E+00    0.0000E+00    5.088000E+08  0.00400  6.597E-04    0   0.6365   age130_m42            0.0000     6.8672E-01     5.3152   1.6622   104.7168
 13      0.0000     0.0000E+00    0.0000E+00    1.434000E+09  0.00400  2.132E-04    0   0.5798   age139_m42            0.0000     7.0704E-01     5.3045   0.6984   106.5840
 14      0.0000     0.0000E+00    0.0000E+00    4.250000E+09  0.00400  5.895E-05    0   0.5377   age158_m42            0.0000     7.9872E-01     6.0823   0.2667   102.1188
 15      0.0000     0.0000E+00    0.0000E+00    7.500000E+09  0.00400  3.510E-05    0   0.5212   age171_m42            0.0000     9.1996E-01     6.5442   0.0840   101.2174
 16      0.0000     0.0000E+00    0.0000E+00    1.300000E+10  0.00400  2.005E-05    0   0.5034   age193_m42            0.0000     1.0467E+00     6.9854  -0.0752   100.4239
 17      0.0000     0.0000E+00    0.0000E+00    1.800000E+10  0.00400  1.525E-05    0   0.4967   age213_m42            0.0000     1.0222E+00     6.9069  -0.0993   100.0323
 18      1.0364     2.2776E-02    4.0438E-02    1.000000E+06  0.00800  1.238E-02    0   1.0000   age020_m52            0.0000     6.6854E-01     6.0913   3.5158    90.2235
 19      1.0210     9.0367E-03    1.5990E-02    3.160000E+06  0.00800  3.074E-02    0   0.9966   age045_m52            0.0000     6.5530E-01     6.0499   3.4368    91.1350
 20      0.3109     3.1703E-03    5.3152E-03    5.010000E+06  0.00800  2.668E-02    0   0.9443   age055_m52            0.0000     5.8062E-01     5.6135   3.1888    93.3823
 21      0.0006     8.0957E-06    1.3191E-05    6.610000E+06  0.00800  2.136E-02    0   0.9177   age061_m52            0.0000     4.0653E-01     4.4256   1.9262   100.2957
 22      0.0449     1.0055E-03    1.5759E-03    1.000000E+07  0.00800  1.215E-02    0   0.8827   age070_m52            0.0000     4.1532E-01     4.3437   2.5995    99.1291
 23      0.0000     0.0000E+00    0.0000E+00    1.445000E+07  0.00800  8.717E-03    0   0.8552   age078_m52            0.0000     4.3632E-01     4.4952   2.7146    98.0980
 24      0.0415     2.0187E-03    2.9254E-03    2.512000E+07  0.00800  5.592E-03    0   0.8162   age090_m52            0.0000     4.0875E-01     4.2211   2.3533   101.1777
 25      0.0000     0.0000E+00    0.0000E+00    4.000000E+07  0.00800  3.896E-03    0   0.7841   age104_m52            0.0000     4.3092E-01     4.3557   2.2660   101.9498
 26      0.0000     0.0000E+00    0.0000E+00    1.015200E+08  0.00800  2.148E-03    0   0.7226   age116_m52            0.0000     5.0142E-01     4.7110   2.2048   101.7798
 27      0.0000     0.0000E+00    0.0000E+00    2.861200E+08  0.00800  9.925E-04    0   0.6683   age125_m52            0.0000     6.7973E-01     5.2029   1.7257   105.7571
 28      0.0000     0.0000E+00    0.0000E+00    9.047900E+08  0.00800  3.141E-04    0   0.6138   age135_m52            0.0000     8.4811E-01     5.8268   0.9372   109.7632
 29      0.0000     0.0000E+00    0.0000E+00    1.434000E+09  0.00800  1.719E-04    0   0.5853   age139_m52            0.0000     7.9656E-01     5.9375   0.3599   107.4606
 30      0.0000     0.0000E+00    0.0000E+00    2.500000E+09  0.00800  7.872E-05    0   0.5600   age150_m52            0.0000     9.8625E-01     6.7501   0.1025   104.1275
 31      0.0000     0.0000E+00    0.0000E+00    4.250000E+09  0.00800  4.336E-05    0   0.5426   age158_m52            0.0000     1.0116E+00     6.8324   0.0891   103.0602
 32      0.0000     0.0000E+00    0.0000E+00    6.250000E+09  0.00800  3.159E-05    0   0.5319   age166_m52            0.0000     1.2235E+00     7.5069  -0.1055   102.7459
 33      0.0100     1.9935E-01    1.7956E-01    1.300000E+10  0.00800  1.361E-05    0   0.5073   age193_m52            0.0000     1.5333E+00     8.3852  -0.5633   101.6701
 34      0.0000     0.0000E+00    0.0000E+00    1.800000E+10  0.00800  9.886E-06    0   0.4990   age213_m52            0.0000     1.7906E+00     9.1050  -0.6630   100.8271
 35      1.2785     2.2529E-02    3.9999E-02    1.000000E+06  0.02000  1.544E-02    0   1.0000   age020_m62            0.0000     6.7212E-01     6.1164   3.5108    90.4748
 36      7.2694     5.2572E-02    9.2015E-02    3.160000E+06  0.02000  3.762E-02    0   0.9858   age045_m62            0.0000     6.6845E-01     6.1224   3.4487    91.3326
 37      0.0000     0.0000E+00    0.0000E+00    5.010000E+06  0.02000  3.296E-02    0   0.9342   age055_m62            0.0000     5.8458E-01     5.6504   3.0623    95.5704
 38     45.5916     1.0749E+00    1.6910E+00    8.710000E+06  0.02000  1.154E-02    0   0.8861   age067_m62            0.0000     5.8135E-01     5.3339   2.0459   102.1054
 39      0.0000     0.0000E+00    0.0000E+00    1.445000E+07  0.02000  7.663E-03    0   0.8472   age078_m62            0.0000     4.1478E-01     4.3880   2.2446   101.4700
 40      0.0000     0.0000E+00    0.0000E+00    2.512000E+07  0.02000  4.532E-03    0   0.8099   age090_m62            0.0000     4.3363E-01     4.4720   2.2336   101.3280
 41      0.0000     0.0000E+00    0.0000E+00    5.500000E+07  0.02000  2.733E-03    0   0.7595   age110_m62            0.0000     4.3129E-01     4.3551   2.2483   101.2475
 42      0.0000     0.0000E+00    0.0000E+00    1.609000E+08  0.02000  1.369E-03    0   0.6985   age120_m62            0.0000     5.9339E-01     4.8816   2.0865   104.0770
 43      0.0000     0.0000E+00    0.0000E+00    2.861200E+08  0.02000  9.013E-04    0   0.6714   age125_m62            0.0000     7.5117E-01     5.2336   1.8403   106.9079
 44      0.0000     0.0000E+00    0.0000E+00    5.088000E+08  0.02000  5.028E-04    0   0.6449   age130_m62            0.0000     9.2990E-01     5.9745   1.4708   109.4001
 45      0.0000     0.0000E+00    0.0000E+00    9.047900E+08  0.02000  2.428E-04    0   0.6179   age135_m62            0.0000     9.0980E-01     6.1901   0.8884   108.6546
 46      0.0000     0.0000E+00    0.0000E+00    1.434000E+09  0.02000  1.263E-04    0   0.5908   age139_m62            0.0000     9.5239E-01     6.4857   0.4491   106.8881
 47      0.2967     1.3485E+00    1.3583E+00    2.500000E+09  0.02000  5.985E-05    0   0.5673   age150_m62            0.0000     1.1803E+00     7.3985   0.0926   105.0244
 48      0.0000     0.0000E+00    0.0000E+00    4.250000E+09  0.02000  3.271E-05    0   0.5468   age158_m62            0.0000     1.5186E+00     8.4797  -0.2013   103.6780
 49      2.9801     5.9616E+01    5.4692E+01    1.000000E+10  0.02000  1.360E-05    0   0.5167   age181_m62            0.0000     1.9947E+00     9.6976  -0.5344   102.6219
 50      0.0000     0.0000E+00    0.0000E+00    1.800000E+10  0.02000  7.124E-06    0   0.5013   age213_m62            0.0000     2.3801E+00    10.6644  -0.7333   101.3590
 51      4.1077     4.3115E-02    7.6536E-02    1.000000E+06  0.05000  2.592E-02    0   0.9998   age020_m72            0.0000     6.8162E-01     6.1464   3.5026    90.4926
 52      0.0226     1.2668E-04    2.1540E-04    3.160000E+06  0.05000  4.845E-02    0   0.9577   age045_m72            0.0000     6.4000E-01     5.9941   3.3267    92.7655
 53      0.0000     0.0000E+00    0.0000E+00    5.010000E+06  0.05000  3.072E-02    0   0.9147   age055_m72            0.0000     4.8799E-01     5.0318   2.8366    97.3206
 54      0.0000     0.0000E+00    0.0000E+00    6.610000E+06  0.05000  1.455E-02    0   0.8877   age061_m72            0.0000     1.0542E+00     7.6166   2.0865   103.1620
 55      0.0000     0.0000E+00    0.0000E+00    1.000000E+07  0.05000  9.074E-03    0   0.8524   age070_m72            0.0000     6.1719E-01     5.9037   3.0203    97.0081
 56      0.0000     0.0000E+00    0.0000E+00    2.512000E+07  0.05000  4.250E-03    0   0.7902   age090_m72            0.0000     5.1221E-01     5.1861   2.7118    99.2035
 57      0.0000     0.0000E+00    0.0000E+00    4.000000E+07  0.05000  3.087E-03    0   0.7618   age104_m72            0.0000     5.1656E-01     5.1359   2.4812   101.0135
 58      0.0000     0.0000E+00    0.0000E+00    1.015200E+08  0.05000  1.700E-03    0   0.7096   age116_m72            0.0000     5.5630E-01     4.7792   2.2263   103.7445
 59      0.0000     0.0000E+00    0.0000E+00    2.861200E+08  0.05000  7.384E-04    0   0.6633   age125_m72            0.0000     8.4379E-01     5.5450   1.7110   108.2695
 60     29.7638     2.1204E+01    2.3989E+01    5.088000E+08  0.05000  3.819E-04    0   0.6372   age130_m72            0.0000     9.1216E-01     6.0933   1.2241   109.8604
 61     10.0826     1.6367E+01    1.7755E+01    9.047900E+08  0.05000  1.676E-04    0   0.6110   age135_m72            0.0000     1.1431E+00     7.2381   0.5426   107.3530
 62      0.0000     0.0000E+00    0.0000E+00    1.434000E+09  0.05000  8.837E-05    0   0.5874   age139_m72            0.0000     1.2625E+00     7.5749   0.0908   106.6448
 63      0.0000     0.0000E+00    0.0000E+00    2.500000E+09  0.05000  4.233E-05    0   0.5598   age150_m72            0.0000     1.6283E+00     8.8075  -0.2002   104.5105
 64      0.0000     0.0000E+00    0.0000E+00    6.250000E+09  0.05000  1.435E-05    0   0.5249   age166_m72            0.0000     2.0873E+00    10.0396  -0.6300   102.1872
 65      0.0000     0.0000E+00    0.0000E+00    1.300000E+10  0.05000  6.513E-06    0   0.5036   age193_m72            0.0000     2.5974E+00    11.2833  -0.8948   102.5063
 66      0.0000     0.0000E+00    0.0000E+00    1.800000E+10  0.05000  4.527E-06    0   0.4945   age213_m72            0.0000     2.9353E+00    11.8727  -1.0000   100.1345


## Synthesis Results - Average & Chains ##

# j      x_j: min, <> & last-chain-values for 1 ...  7 chains
  1      1.3651      0.9220      0.0000      0.0000      0.0000      0.0000      0.7754      1.9998      6.2465
  2      0.0000      0.7649      0.4844      0.0000      0.0000      0.0000      2.3356      1.5000      0.0879
  3      0.0000      0.6609      0.0000      0.0000      0.0000      0.4793      0.0000      2.5861      0.0000
  4      0.0063      0.6585      0.0000      1.3771      0.7782      0.0000      1.3174      0.0000      0.0000
  5      0.0000      1.2063      2.1725      0.0000      0.0000      3.7894      0.7889      0.1064      3.0401
  6      0.0000      0.7348      0.0000      2.5223      3.0981      0.0000      0.0000      0.6797      0.0000
  7      0.0000      1.2360      2.3179      0.0000      1.4070      0.0000      0.0000      0.0000      0.0000
  8      0.0000      1.5624      1.7896      4.0785      0.0000      5.9884      0.0000      0.8395      2.3648
  9      0.0000      1.3486      0.0000      0.0000      3.2252      2.4432      0.0000      0.0000      1.9654
 10      0.0000      0.8397      4.8575      3.9401      0.2256      0.0000      0.2910      0.1475      0.0000
 11      0.0000      1.0326      0.0000      0.0000      0.0000      0.0000      0.0000      0.0887      0.0000
 12      0.0000      0.8533      0.0000      0.0000      0.0000      0.0000      0.0000      0.0000      0.0000
 13      0.0000      0.9377      1.5615      0.9241      0.0000      0.0000      0.9017      2.9241      1.2595
 14      0.0000      0.3527      0.0000      0.9058      0.6302      1.1506      0.0000      0.0000      2.4455
 15      0.0000      0.8566      1.6520      1.2969      1.0833      0.0000      0.0000      1.0032      0.0000
 16      0.0000      0.1065      0.0000      0.0000      0.0215      1.2689      0.0000      0.1610      1.3014
 17      0.0000      0.1834      0.0000      0.0215      0.0000      0.0000      0.0000      0.0000      0.0000
 18      1.0364      1.2246      0.4555      1.7298      3.5908      0.0000      1.5468      0.0000      1.5697
 19      1.0210      0.9409      0.0265      1.3504      0.9640      3.9090      0.9740      0.0000      0.0000
 20      0.3109      0.7640      1.2098      1.6147      1.8120      0.0000      1.8401      0.0000      0.8931
 21      0.0006      7.0518      6.1741      5.6237      5.7420      0.0000      7.0657      8.4977      6.9146
 22      0.0449      1.9263      2.0311      1.3401      0.0000      1.7065      1.1872      2.6224      0.6790
 23      0.0000      1.6556      1.7956      0.7995      0.0000      0.0000      0.0092      5.7004      2.2487
 24      0.0415      2.8663      4.4974      0.0000      3.9685      2.0999      4.7808      1.1521      2.5679
 25      0.0000      0.7970      0.0000      0.6717      0.0594      0.0000      0.3819      0.9798      0.8934
 26      0.0000      0.8417      0.0000      0.0682      1.9948      2.1378      0.0000      0.5842      0.0000
 27      0.0000      0.9895      1.6344      0.0000      0.0000      0.0000      0.0000      0.0000      0.7992
 28      0.0000      1.0585      0.0000      2.3002      0.0000      0.2984      0.0000      0.0000      2.1370
 29      0.0000      0.3106      0.0000      0.2250      0.0000      1.1941      0.0000      0.2653      0.8631
 30      0.0000      1.1582      0.5270      0.0000      1.8069      3.1199      1.0796      1.5810      0.6084
 31      0.0000      0.1581      0.0000      0.0000      0.0007      0.0000      0.1609      0.0000      0.0000
 32      0.0000      0.1930      0.0000      0.0000      0.1366      0.0000      0.0000      0.0000      0.0000
 33      0.0100      0.1733      0.6034      0.0000      0.3572      0.0000      1.0322      0.0000      0.0000
 34      0.0000      0.0809      0.0000      0.0000      0.2926      0.0000      0.0000      0.0043      0.0000
 35      1.2785      2.3524      1.1829      3.9447      3.0965      3.6725      3.2071      2.7232      1.3788
 36      7.2694      0.9827      1.2780      2.4908      0.9300      0.0000      3.4222      3.8310      3.2052
 37      0.0000      0.7686      0.0000      0.0000      0.8814      2.1134      0.0000      0.0000      0.0000
 38     45.5916     25.9583     34.0982     33.4425     29.0771     26.2395     26.6296     27.7458     27.9889
 39      0.0000      1.8085      4.1589      0.6444      0.0501      1.0414      1.4654      0.0000      0.0000
 40      0.0000      1.0605      0.0000      0.4052      0.0000      0.0000      0.0000      0.0000      0.0000
 41      0.0000      0.9695      0.2869      0.0000      0.0000      0.0000      2.9877      0.7729      0.0000
 42      0.0000      1.0522      1.3527      0.0000      0.3256      0.0000      3.4449      0.0000      1.0416
 43      0.0000      0.9339      0.0000      0.0000      0.0000      0.0575      0.0000      0.0650      0.0000
 44      0.0000      1.3047      0.0000      0.0000      2.1690      1.3339      0.0000      0.0000      0.0000
 45      0.0000      0.7016      0.0000      0.0000      0.0000      0.0000      0.0000      0.0000      0.0000
 46      0.0000      0.7415      2.2183      1.8449      0.0000      0.0000      0.0000      0.0000      0.0000
