###################################################################
## OUTPUT of StarlightChains_v04.for    [Cid@UFSC - 01/Apr/2007] ##
###################################################################

## Some input info
2012go.txt                               [arq_obs]
Base.CB07.vall.4m                        [arq_base]
Masks.EmLines.NEW.gm                     [arq_masks]
StCv04.C11.config                        [arq_config]
   66                                    [N_base]
    0                                    [N_YAV_components = # of components with extra extinction!]
    0                                    [i_FitPowerLaw (1/0 = Yes/No)]
-9.99                                    [alpha_PowerLaw]
CCM                                      [red_law_option]
 1.458241                                [q_norm = A(l_norm)/A(V)]

## (Re)Sampling Parameters
 3741.00                                 [l_ini (A)]
 7218.00                                 [l_fin (A)]
    1.00                                 [dl    (A)]     (OBS: dl_cushion =    50.00 A)

## Normalization info
 4020.00                                 [l_norm (A) - for base]
 4010.00                                 [llow_norm (A) - window for f_obs]
 4060.00                                 [lupp_norm (A) - window for f_obs]
3.118806E-17                             [fobs_norm (in input units)]

## S/N
 3691.00                                 [llow_SN (A) - window for S/N]
 7268.00                                 [lupp_SN (A) - window for S/N]
   7.182                                 [S/N in S/N window]
   7.538                                 [S/N in norm. window]
  14.906                                 [S/N_err in S/N window]
  15.645                                 [S/N_err in norm. window]
  1.0000                                 [fscale_chi2]

## etc...
    -2007399                             [idum_orig]
  2300                                   [NOl_eff]
  2270                                   [Nl_eff]
    30    NSIGMA                         [Ntot_cliped & clip_method]
  1088430                                [Nglobal_steps]
   7                                     [N_chains]
  18                                     [NEX0s_base = N_base in EX0s-fits]
 0   0   1       19   2.0   2.927E+01    [Clip-Bug, RC-Crash & Burn-In warning-flags, n_censored_weights, wei_nsig_threshold & wei_limit]
    11     10.982     10.479      0.503  [idt_all, wdt_TotTime, wdt_UsrTime & wdt_SysTime (sec)]

## Synthesis Results - Best model ##

 5.40389E-01                             [chi2/Nl_eff]
     3.91391                             [adev (%)]

   102.11123                             [sum-of-x (%)]
 5.60350E-17                             [Flux_tot (units of input spectrum!)]
 5.36144E-13                             [Mini_tot (???)]
 2.94764E-13                             [Mcor_tot (???)]

 -24.44                                  [v0_min  (km/s)]
 186.89                                  [vd_min  (km/s)]
 0.4207                                  [AV_min  (mag)]
 0.0000                                  [YAV_min (mag)]

# j     x_j(%)      Mini_j(%)     Mcor_j(%)     age_j(yr)     Z_j      (L/M)_j    YAV?  Mstars   component_j        a/Fe...       SSP_chi2r SSP_adev(%)   SSP_AV   SSP_x(%)
  1      0.0000     0.0000E+00    0.0000E+00    1.000000E+06  0.00400  1.094E-02    0   1.0000   age020_m42            0.0000     1.7407E+00     7.0871   3.3148    78.9767
  2      0.0000     0.0000E+00    0.0000E+00    3.160000E+06  0.00400  4.007E-02    0   0.9999   age045_m42            0.0000     1.1360E+00     5.7309   2.5269    87.1607
  3      0.0000     0.0000E+00    0.0000E+00    5.010000E+06  0.00400  2.539E-02    0   0.9488   age055_m42            0.0000     1.3336E+00     6.2766   2.8685    84.0725
  4      0.0000     0.0000E+00    0.0000E+00    6.610000E+06  0.00400  2.620E-02    0   0.9220   age061_m42            0.0000     1.0729E+00     5.6240   2.4442    87.7940
  5      0.0000     0.0000E+00    0.0000E+00    1.000000E+07  0.00400  1.322E-02    0   0.8862   age070_m42            0.0000     1.3037E+00     6.2056   2.1418    90.6507
  6      0.0000     0.0000E+00    0.0000E+00    1.445000E+07  0.00400  7.883E-03    0   0.8571   age078_m42            0.0000     1.4314E+00     6.5211   2.4899    87.4314
  7      0.0000     0.0000E+00    0.0000E+00    2.512000E+07  0.00400  5.251E-03    0   0.8174   age090_m42            0.0000     1.3460E+00     6.2692   2.0015    91.6301
  8      0.0000     0.0000E+00    0.0000E+00    4.000000E+07  0.00400  3.649E-03    0   0.7851   age104_m42            0.0000     1.2174E+00     5.9416   1.7663    92.7482
  9      0.0000     0.0000E+00    0.0000E+00    5.500000E+07  0.00400  3.098E-03    0   0.7629   age110_m42            0.0000     9.9908E-01     5.4363   1.9194    92.8054
 10      0.0000     0.0000E+00    0.0000E+00    1.015200E+08  0.00400  2.228E-03    0   0.7207   age116_m42            0.0000     8.7797E-01     5.0996   1.9349    93.2033
 11      0.0000     0.0000E+00    0.0000E+00    2.861200E+08  0.00400  1.093E-03    0   0.6648   age125_m42            0.0000     9.2563E-01     5.1986   1.3516    97.0183
 12      0.0000     0.0000E+00    0.0000E+00    5.088000E+08  0.00400  6.597E-04    0   0.6365   age130_m42            0.0000     7.6176E-01     4.6709   1.3378    97.9268
 13     30.4181     1.4603E+01    1.5400E+01    1.434000E+09  0.00400  2.132E-04    0   0.5798   age139_m42            0.0000     5.9407E-01     4.0452   0.3562   100.1616
 14      0.0000     0.0000E+00    0.0000E+00    4.250000E+09  0.00400  5.895E-05    0   0.5377   age158_m42            0.0000     7.2469E-01     4.3762  -0.0336    93.8519
 15      0.0000     0.0000E+00    0.0000E+00    7.500000E+09  0.00400  3.510E-05    0   0.5212   age171_m42            0.0000     8.1276E-01     4.6445  -0.2059    92.6071
 16      0.0000     0.0000E+00    0.0000E+00    1.300000E+10  0.00400  2.005E-05    0   0.5034   age193_m42            0.0000     9.2799E-01     4.9994  -0.3545    91.4734
 17      0.0000     0.0000E+00    0.0000E+00    1.800000E+10  0.00400  1.525E-05    0   0.4967   age213_m42            0.0000     9.2789E-01     4.9768  -0.3796    91.1225
 18      0.0000     0.0000E+00    0.0000E+00    1.000000E+06  0.00800  1.238E-02    0   1.0000   age020_m52            0.0000     1.7381E+00     7.0877   3.3112    79.1264
 19      0.0000     0.0000E+00    0.0000E+00    3.160000E+06  0.00800  3.074E-02    0   0.9966   age045_m52            0.0000     1.6507E+00     6.9398   3.2276    80.0863
 20      0.0000     0.0000E+00    0.0000E+00    5.010000E+06  0.00800  2.668E-02    0   0.9443   age055_m52            0.0000     1.3983E+00     6.4364   2.9570    83.0397
 21      0.0000     0.0000E+00    0.0000E+00    6.610000E+06  0.00800  2.136E-02    0   0.9177   age061_m52            0.0000     1.3308E+00     6.0947   1.6557    90.9351
 22      0.0018     1.4951E-05    2.4005E-05    1.000000E+07  0.00800  1.215E-02    0   0.8827   age070_m52            0.0000     1.5086E+00     6.6619   2.3290    90.1809
 23      0.0000     0.0000E+00    0.0000E+00    1.445000E+07  0.00800  8.717E-03    0   0.8552   age078_m52            0.0000     1.3744E+00     6.3677   2.4465    89.0141
 24      0.0000     0.0000E+00    0.0000E+00    2.512000E+07  0.00800  5.592E-03    0   0.8162   age090_m52            0.0000     1.3247E+00     6.1987   2.0614    92.9602
 25      0.0000     0.0000E+00    0.0000E+00    4.000000E+07  0.00800  3.896E-03    0   0.7841   age104_m52            0.0000     1.1578E+00     5.8243   1.9682    94.0135
 26      0.0000     0.0000E+00    0.0000E+00    1.015200E+08  0.00800  2.148E-03    0   0.7226   age116_m52            0.0000     9.2607E-01     5.2370   1.9024    94.0153
 27      0.9016     9.2979E-02    1.1302E-01    2.861200E+08  0.00800  9.925E-04    0   0.6683   age125_m52            0.0000     7.0826E-01     4.5484   1.3991    98.9986
 28      0.0000     0.0000E+00    0.0000E+00    9.047900E+08  0.00800  3.141E-04    0   0.6138   age135_m52            0.0000     6.2884E-01     4.2239   0.6012   103.1121
 29      0.0000     0.0000E+00    0.0000E+00    1.434000E+09  0.00800  1.719E-04    0   0.5853   age139_m52            0.0000     6.9663E-01     4.3558   0.0436    99.8831
 30      0.0000     0.0000E+00    0.0000E+00    2.500000E+09  0.00800  7.872E-05    0   0.5600   age150_m52            0.0000     7.6101E-01     4.5891  -0.1958    95.7239
 31      0.0000     0.0000E+00    0.0000E+00    4.250000E+09  0.00800  4.336E-05    0   0.5426   age158_m52            0.0000     8.2267E-01     4.7167  -0.2041    94.4960
 32      0.0000     0.0000E+00    0.0000E+00    6.250000E+09  0.00800  3.159E-05    0   0.5319   age166_m52            0.0000     9.4779E-01     5.1154  -0.3966    94.0937
 33      0.0000     0.0000E+00    0.0000E+00    1.300000E+10  0.00800  1.361E-05    0   0.5073   age193_m52            0.0000     1.1857E+00     5.7868  -0.8534    92.9873
 34      0.0000     0.0000E+00    0.0000E+00    1.800000E+10  0.00800  9.886E-06    0   0.4990   age213_m52            0.0000     1.4089E+00     6.3352  -0.9481    92.0079
 35      0.0000     0.0000E+00    0.0000E+00    1.000000E+06  0.02000  1.544E-02    0   1.0000   age020_m62            0.0000     1.7504E+00     7.1255   3.3089    79.2425
 36      0.0000     0.0000E+00    0.0000E+00    3.160000E+06  0.02000  3.762E-02    0   0.9858   age045_m62            0.0000     1.6996E+00     7.0723   3.2454    80.0461
 37      0.0000     0.0000E+00    0.0000E+00    5.010000E+06  0.02000  3.296E-02    0   0.9342   age055_m62            0.0000     1.1767E+00     5.9356   2.8183    85.5551
 38      0.0000     0.0000E+00    0.0000E+00    8.710000E+06  0.02000  1.154E-02    0   0.8861   age067_m62            0.0000     3.2225E+00     9.5911   1.7695    93.3713
 39      0.0000     0.0000E+00    0.0000E+00    1.445000E+07  0.02000  7.663E-03    0   0.8472   age078_m62            0.0000     1.8871E+00     7.3054   1.9696    92.6739
 40      0.0000     0.0000E+00    0.0000E+00    2.512000E+07  0.02000  4.532E-03    0   0.8099   age090_m62            0.0000     1.9124E+00     7.4017   1.9541    92.8619
 41      0.0000     0.0000E+00    0.0000E+00    5.500000E+07  0.02000  2.733E-03    0   0.7595   age110_m62            0.0000     1.1727E+00     5.8361   1.9541    93.1429
 42      0.0000     0.0000E+00    0.0000E+00    1.609000E+08  0.02000  1.369E-03    0   0.6985   age120_m62            0.0000     8.1171E-01     4.9269   1.7686    96.9007
 43      8.7967     9.9897E-01    1.2199E+00    2.861200E+08  0.02000  9.013E-04    0   0.6714   age125_m62            0.0000     7.0244E-01     4.5174   1.4982   100.6287
 44     15.7413     3.2044E+00    3.7588E+00    5.088000E+08  0.02000  5.028E-04    0   0.6449   age130_m62            0.0000     6.3279E-01     4.2491   1.1244   103.1298
 45      0.0000     0.0000E+00    0.0000E+00    9.047900E+08  0.02000  2.428E-04    0   0.6179   age135_m62            0.0000     6.0866E-01     4.1089   0.5626   101.3370
 46      0.0000     0.0000E+00    0.0000E+00    1.434000E+09  0.02000  1.263E-04    0   0.5908   age139_m62            0.0000     7.0104E-01     4.3240   0.1372    98.8740
 47      0.0000     0.0000E+00    0.0000E+00    2.500000E+09  0.02000  5.985E-05    0   0.5673   age150_m62            0.0000     8.8067E-01     4.9043  -0.2038    96.3426
 48      0.0000     0.0000E+00    0.0000E+00    4.250000E+09  0.02000  3.271E-05    0   0.5468   age158_m62            0.0000     1.1338E+00     5.7047  -0.4930    94.8096
 49      0.0074     5.5847E-02    5.2486E-02    1.000000E+10  0.02000  1.360E-05    0   0.5167   age181_m62            0.0000     1.5820E+00     6.7867  -0.8240    93.7598
 50      0.0480     6.9002E-01    6.2916E-01    1.800000E+10  0.02000  7.124E-06    0   0.5013   age213_m62            0.0000     1.9874E+00     7.6531  -1.0000    91.6759
 51      0.0000     0.0000E+00    0.0000E+00    1.000000E+06  0.05000  2.592E-02    0   0.9998   age020_m72            0.0000     1.8237E+00     7.2578   3.3038    79.1118
 52      0.0000     0.0000E+00    0.0000E+00    3.160000E+06  0.05000  4.845E-02    0   0.9577   age045_m72            0.0000     1.4665E+00     6.6083   3.1084    81.9327
 53      0.0000     0.0000E+00    0.0000E+00    5.010000E+06  0.05000  3.072E-02    0   0.9147   age055_m72            0.0000     1.7456E+00     7.2236   2.6031    87.2819
 54      0.0000     0.0000E+00    0.0000E+00    6.610000E+06  0.05000  1.455E-02    0   0.8877   age061_m72            0.0000     4.7801E+00    11.6729   1.8522    93.8857
 55      0.0000     0.0000E+00    0.0000E+00    1.000000E+07  0.05000  9.074E-03    0   0.8524   age070_m72            0.0000     1.8849E+00     7.5897   2.8174    86.3794
 56      0.0000     0.0000E+00    0.0000E+00    2.512000E+07  0.05000  4.250E-03    0   0.7902   age090_m72            0.0000     1.5715E+00     6.8913   2.4620    90.0322
 57      0.0000     0.0000E+00    0.0000E+00    4.000000E+07  0.05000  3.087E-03    0   0.7618   age104_m72            0.0000     1.5736E+00     6.8407   2.2121    92.5269
 58      0.0000     0.0000E+00    0.0000E+00    1.015200E+08  0.05000  1.700E-03    0   0.7096   age116_m72            0.0000     9.4955E-01     5.3410   1.9129    96.5324
 59      6.9042     9.5704E-01    1.1546E+00    2.861200E+08  0.05000  7.384E-04    0   0.6633   age125_m72            0.0000     6.4568E-01     4.3048   1.3638   102.1360
 60     11.8016     3.1630E+00    3.6659E+00    5.088000E+08  0.05000  3.819E-04    0   0.6372   age130_m72            0.0000     5.6321E-01     4.0420   0.8833   103.0720
 61     17.7241     1.0824E+01    1.2029E+01    9.047900E+08  0.05000  1.676E-04    0   0.6110   age135_m72            0.0000     7.6494E-01     4.5569   0.2320    99.0583
 62      0.0000     0.0000E+00    0.0000E+00    1.434000E+09  0.05000  8.837E-05    0   0.5874   age139_m72            0.0000     9.3064E-01     5.0363  -0.2099    98.0244
 63      4.2802     1.0350E+01    1.0538E+01    2.500000E+09  0.05000  4.233E-05    0   0.5598   age150_m72            0.0000     1.2483E+00     5.9839  -0.4915    95.5445
 64      3.6320     2.5906E+01    2.4733E+01    6.250000E+09  0.05000  1.435E-05    0   0.5249   age166_m72            0.0000     1.7143E+00     7.1576  -0.9172    93.1941
 65      1.8522     2.9107E+01    2.6662E+01    1.300000E+10  0.05000  6.513E-06    0   0.5036   age193_m72            0.0000     2.4394E+00     8.5059  -1.0000    86.2525
 66      0.0021     4.7863E-02    4.3050E-02    1.800000E+10  0.05000  4.527E-06    0   0.4945   age213_m72            0.0000     3.1770E+00     9.8073  -1.0000    80.0830


## Synthesis Results - Average & Chains ##

# j      x_j: min, <> & last-chain-values for 1 ...  7 chains
  1      0.0000      0.0236      0.0000      0.0000      0.0000      0.0000      0.0000      0.0000      0.0000
  2      0.0000      0.1260      0.0000      0.0000      0.8068      0.0000      0.2742      0.0000      0.0000
  3      0.0000      0.0477      0.0000      0.0000      0.0000      0.0000      0.0000      0.0000      0.0000
  4      0.0000      0.1964      0.0000      0.0000      0.0000      0.0000      0.1290      0.0000      0.0000
  5      0.0000      0.1416      0.0000      0.4652      0.6481      0.0000      0.0000      0.0000      0.0000
  6      0.0000      0.0649      0.0000      0.0000      0.0000      0.0000      0.5076      0.0000      0.0000
  7      0.0000      0.1301      0.0000      0.0000      0.0000      0.4606      0.0000      0.0000      0.0000
  8      0.0000      0.1424      0.0000      0.0000      0.0000      0.0000      0.0000      0.3474      0.4592
  9      0.0000      0.1623      0.0000      0.0000      0.2631      0.1688      0.0000      0.0000      0.0000
 10      0.0000      0.1769      0.0000      0.0000      0.0000      0.0000      0.0000      0.0291      0.0000
 11      0.0000      0.4838      0.2355      0.2280      0.0000      0.7283      0.1593      0.0269      0.2359
 12      0.0000      0.2672      0.0000      0.0000      0.6351      0.0000      0.0925      0.4530      1.1239
 13     30.4181     26.2820     34.3517     28.9465     26.3098     26.7046     27.0933     28.0605     27.0651
 14      0.0000      0.3926      0.6259      1.4835      2.0827      0.0000      0.1858      0.4435      0.0000
 15      0.0000      0.3831      0.0000      0.9972      0.9792      0.3648      0.0000      1.1494      0.0302
 16      0.0000      0.1453      0.0000      0.0000      0.0000      0.0000      0.0000      0.0000      0.0000
 17      0.0000      0.1007      0.0000      0.0000      0.0000      0.0000      0.0000      0.0000      0.0000
 18      0.0000      0.0393      0.0000      0.0000      0.0000      0.0000      0.0000      0.0000      0.0000
 19      0.0000      0.0301      0.0000      0.0000      0.0000      0.0000      0.0000      0.0000      0.0000
 20      0.0000      0.0351      0.0000      0.0000      0.0000      0.0000      0.0000      0.1844      0.0000
 21      0.0000      0.1002      0.0000      0.0000      0.0000      0.0000      0.2725      0.0000      0.0000
 22      0.0018      0.1283      0.2431      0.0000      0.0000      0.2532      0.6914      0.0000      0.0000
 23      0.0000      0.1525      0.0000      0.0000      0.0000      0.0000      0.0000      0.0000      0.0000
 24      0.0000      0.1119      0.0612      0.0000      0.0000      0.1177      0.3300      0.0000      0.0000
 25      0.0000      0.1105      0.0000      0.0000      0.0000      0.0000      0.0000      0.0000      0.0000
 26      0.0000      0.1012      0.0000      0.0000      0.0000      0.1471      0.3208      0.1466      0.0000
 27      0.9016      0.7438      0.0000      0.8577      0.9535      2.4166      0.7854      2.2116      0.0000
 28      0.0000      0.6170      0.0000      0.5755      0.3712      0.0000      0.0000      0.4880      0.0000
 29      0.0000      0.3546      0.0000      0.3629      0.0000      0.0000      0.0000      0.0000      0.0000
 30      0.0000      0.2119      0.0000      0.0000      0.0000      0.6323      0.2282      0.0000      0.0564
 31      0.0000      0.3445      0.9578      0.0000      0.0000      0.0000      0.0580      0.0000      0.2227
 32      0.0000      0.1087      0.0000      0.0000      0.8161      0.0000      0.0000      0.3223      0.0000
 33      0.0000      0.0976      0.0467      0.4814      0.0000      0.0000      0.0000      0.0000      0.0000
 34      0.0000      0.0342      0.0000      0.0000      0.0000      0.0000      0.0000      0.0000      0.0000
 35      0.0000      0.0454      0.0000      0.0000      0.0000      0.0000      0.0000      0.0000      0.0000
 36      0.0000      0.0744      0.0000      0.0000      0.0000      0.0000      0.0000      0.0000      0.0000
 37      0.0000      0.1238      0.3122      0.0000      0.4053      0.0000      0.0000      0.0000      0.0000
 38      0.0000      0.0404      0.0383      0.0000      0.0000      0.0000      0.0000      0.0000      0.0000
 39      0.0000      0.0844      0.0000      0.0000      0.0000      0.0000      0.0430      0.0000      0.0000
 40      0.0000      0.0915      0.0000      0.0000      0.0000      0.0000      0.0000      0.0000      0.3770
 41      0.0000      0.1410      0.4863      0.0000      0.0000      0.0055      0.0000      0.0000      0.0052
 42      0.0000      0.5008      0.2175      1.8656      1.1900      0.0000      0.0000      0.5300      0.0000
 43      8.7967      4.7551      4.5458      5.5577      5.3626      4.9672      4.5664      5.9432      5.3145
 44     15.7413     14.9943     16.1541     14.1178     15.0487     14.2040     17.2395     15.2716     17.3067
 45      0.0000      1.8562      0.0000      1.2086      0.0000      3.0997      0.8485      0.0000      0.3305
 46      0.0000      1.1851      0.0000      0.5768      0.0000      0.0073      0.7691      0.0000      0.0635
