###################################################################
## OUTPUT of StarlightChains_v04.for    [Cid@UFSC - 01/Apr/2007] ##
###################################################################

## Some input info
2012fk.txt                               [arq_obs]
Base.CB07.vall.4m                        [arq_base]
Masks.EmLines.NEW.gm                     [arq_masks]
StCv04.C11.config                        [arq_config]
   66                                    [N_base]
    0                                    [N_YAV_components = # of components with extra extinction!]
    0                                    [i_FitPowerLaw (1/0 = Yes/No)]
-9.99                                    [alpha_PowerLaw]
CCM                                      [red_law_option]
 1.458241                                [q_norm = A(l_norm)/A(V)]

## (Re)Sampling Parameters
 3741.00                                 [l_ini (A)]
 7218.00                                 [l_fin (A)]
    1.00                                 [dl    (A)]     (OBS: dl_cushion =    50.00 A)

## Normalization info
 4020.00                                 [l_norm (A) - for base]
 4010.00                                 [llow_norm (A) - window for f_obs]
 4060.00                                 [lupp_norm (A) - window for f_obs]
2.106104E-16                             [fobs_norm (in input units)]

## S/N
 3691.00                                 [llow_SN (A) - window for S/N]
 7268.00                                 [lupp_SN (A) - window for S/N]
   8.912                                 [S/N in S/N window]
   9.529                                 [S/N in norm. window]
  10.000                                 [S/N_err in S/N window]
  10.692                                 [S/N_err in norm. window]
  1.0000                                 [fscale_chi2]

## etc...
    -2007396                             [idum_orig]
  2284                                   [NOl_eff]
  2235                                   [Nl_eff]
    49    NSIGMA                         [Ntot_cliped & clip_method]
  1276590                                [Nglobal_steps]
   7                                     [N_chains]
  21                                     [NEX0s_base = N_base in EX0s-fits]
 0   0   1       84   2.0   1.500E+01    [Clip-Bug, RC-Crash & Burn-In warning-flags, n_censored_weights, wei_nsig_threshold & wei_limit]
    12     12.096     11.592      0.504  [idt_all, wdt_TotTime, wdt_UsrTime & wdt_SysTime (sec)]

## Synthesis Results - Best model ##

 4.89665E-01                             [chi2/Nl_eff]
     4.66235                             [adev (%)]

    98.81609                             [sum-of-x (%)]
 4.09978E-16                             [Flux_tot (units of input spectrum!)]
 6.27630E-12                             [Mini_tot (???)]
 3.23061E-12                             [Mcor_tot (???)]

   0.00                                  [v0_min  (km/s)]
 150.00                                  [vd_min  (km/s)]
 0.5048                                  [AV_min  (mag)]
 0.0000                                  [YAV_min (mag)]

# j     x_j(%)      Mini_j(%)     Mcor_j(%)     age_j(yr)     Z_j      (L/M)_j    YAV?  Mstars   component_j        a/Fe...       SSP_chi2r SSP_adev(%)   SSP_AV   SSP_x(%)
  1     13.5679     8.1983E-02    1.5927E-01    1.000000E+06  0.00400  1.094E-02    0   1.0000   age020_m42            0.0000     8.2342E-01     6.6027   3.0824    85.1822
  2      0.0000     0.0000E+00    0.0000E+00    3.160000E+06  0.00400  4.007E-02    0   0.9999   age045_m42            0.0000     6.9027E-01     5.8101   2.3378    91.8806
  3      0.0000     0.0000E+00    0.0000E+00    5.010000E+06  0.00400  2.539E-02    0   0.9488   age055_m42            0.0000     7.3850E-01     6.0841   2.6666    89.2487
  4      0.0000     0.0000E+00    0.0000E+00    6.610000E+06  0.00400  2.620E-02    0   0.9220   age061_m42            0.0000     7.0452E-01     5.7126   2.2638    92.1218
  5      0.0000     0.0000E+00    0.0000E+00    1.000000E+07  0.00400  1.322E-02    0   0.8862   age070_m42            0.0000     6.3263E-01     5.1745   1.9874    93.9439
  6      0.0000     0.0000E+00    0.0000E+00    1.445000E+07  0.00400  7.883E-03    0   0.8571   age078_m42            0.0000     6.6771E-01     5.3906   2.3208    91.2818
  7      0.0000     0.0000E+00    0.0000E+00    2.512000E+07  0.00400  5.251E-03    0   0.8174   age090_m42            0.0000     6.2653E-01     5.1240   1.8581    94.4710
  8      0.0000     0.0000E+00    0.0000E+00    4.000000E+07  0.00400  3.649E-03    0   0.7851   age104_m42            0.0000     6.1306E-01     5.0460   1.6261    95.4582
  9      0.0000     0.0000E+00    0.0000E+00    5.500000E+07  0.00400  3.098E-03    0   0.7629   age110_m42            0.0000     6.5104E-01     5.1265   1.7731    95.7123
 10      0.0000     0.0000E+00    0.0000E+00    1.015200E+08  0.00400  2.228E-03    0   0.7207   age116_m42            0.0000     7.0842E-01     5.2351   1.7892    96.0749
 11      0.0000     0.0000E+00    0.0000E+00    2.861200E+08  0.00400  1.093E-03    0   0.6648   age125_m42            0.0000     7.1387E-01     5.0848   1.2232    99.0388
 12      0.0000     0.0000E+00    0.0000E+00    5.088000E+08  0.00400  6.597E-04    0   0.6365   age130_m42            0.0000     7.9523E-01     5.2613   1.2068   100.1164
 13     33.2437     1.0307E+01    1.1610E+01    1.434000E+09  0.00400  2.132E-04    0   0.5798   age139_m42            0.0000     7.1627E-01     5.2061   0.2313   102.2909
 14      0.0000     0.0000E+00    0.0000E+00    4.250000E+09  0.00400  5.895E-05    0   0.5377   age158_m42            0.0000     7.1348E-01     5.7548  -0.2033    97.9776
 15      4.2369     7.9794E+00    8.0796E+00    7.500000E+09  0.00400  3.510E-05    0   0.5212   age171_m42            0.0000     7.9076E-01     6.1169  -0.3913    97.3354
 16     10.8470     3.5762E+01    3.4975E+01    1.300000E+10  0.00400  2.005E-05    0   0.5034   age193_m42            0.0000     8.8241E-01     6.4948  -0.5546    96.7654
 17      7.5782     3.2849E+01    3.1699E+01    1.800000E+10  0.00400  1.525E-05    0   0.4967   age213_m42            0.0000     8.5789E-01     6.4097  -0.5769    96.3176
 18     15.7358     8.4023E-02    1.6324E-01    1.000000E+06  0.00800  1.238E-02    0   1.0000   age020_m52            0.0000     8.2595E-01     6.6087   3.0788    85.3444
 19      0.0000     0.0000E+00    0.0000E+00    3.160000E+06  0.00800  3.074E-02    0   0.9966   age045_m52            0.0000     8.2227E-01     6.5766   3.0013    86.1300
 20      0.0000     0.0000E+00    0.0000E+00    5.010000E+06  0.00800  2.668E-02    0   0.9443   age055_m52            0.0000     7.5913E-01     6.1742   2.7525    88.3046
 21      0.0000     0.0000E+00    0.0000E+00    6.610000E+06  0.00800  2.136E-02    0   0.9177   age061_m52            0.0000     5.7333E-01     5.0847   1.4886    94.9145
 22      0.0000     0.0000E+00    0.0000E+00    1.000000E+07  0.00800  1.215E-02    0   0.8827   age070_m52            0.0000     6.3904E-01     5.2172   2.1751    93.4614
 23      0.0000     0.0000E+00    0.0000E+00    1.445000E+07  0.00800  8.717E-03    0   0.8552   age078_m52            0.0000     6.4952E-01     5.2784   2.2852    92.6055
 24      0.0000     0.0000E+00    0.0000E+00    2.512000E+07  0.00800  5.592E-03    0   0.8162   age090_m52            0.0000     6.1968E-01     5.0443   1.9230    95.6064
 25      0.0000     0.0000E+00    0.0000E+00    4.000000E+07  0.00800  3.896E-03    0   0.7841   age104_m52            0.0000     6.2266E-01     5.0145   1.8321    96.5000
 26      0.0000     0.0000E+00    0.0000E+00    1.015200E+08  0.00800  2.148E-03    0   0.7226   age116_m52            0.0000     6.8171E-01     5.1401   1.7635    96.5879
 27      0.0000     0.0000E+00    0.0000E+00    2.861200E+08  0.00800  9.925E-04    0   0.6683   age125_m52            0.0000     8.0774E-01     5.2615   1.2712   101.0489
 28      8.6624     1.8230E+00    2.1739E+00    9.047900E+08  0.00800  3.141E-04    0   0.6138   age135_m52            0.0000     8.4742E-01     5.6914   0.4726   105.2884
 29      0.0000     0.0000E+00    0.0000E+00    1.434000E+09  0.00800  1.719E-04    0   0.5853   age139_m52            0.0000     7.5128E-01     5.7097  -0.1000   102.8843
 30      0.0000     0.0000E+00    0.0000E+00    2.500000E+09  0.00800  7.872E-05    0   0.5600   age150_m52            0.0000     8.7392E-01     6.4640  -0.3738   100.1874
 31      0.0000     0.0000E+00    0.0000E+00    4.250000E+09  0.00800  4.336E-05    0   0.5426   age158_m52            0.0000     8.8299E-01     6.5030  -0.3886    99.1951
 32      0.0056     1.1754E-02    1.2146E-02    6.250000E+09  0.00800  3.159E-05    0   0.5319   age166_m52            0.0000     1.0506E+00     7.1345  -0.5936    99.3135
 33      0.0000     0.0000E+00    0.0000E+00    1.300000E+10  0.00800  1.361E-05    0   0.5073   age193_m52            0.0000     1.3335E+00     7.8934  -1.0000    96.4768
 34      0.0000     0.0000E+00    0.0000E+00    1.800000E+10  0.00800  9.886E-06    0   0.4990   age213_m52            0.0000     1.6523E+00     8.5259  -1.0000    92.2273
 35      2.9912     1.2806E-02    2.4879E-02    1.000000E+06  0.02000  1.544E-02    0   1.0000   age020_m62            0.0000     8.3547E-01     6.6394   3.0758    85.5049
 36      0.0000     0.0000E+00    0.0000E+00    3.160000E+06  0.02000  3.762E-02    0   0.9858   age045_m62            0.0000     8.4292E-01     6.6588   3.0155    86.2415
 37      0.0000     0.0000E+00    0.0000E+00    5.010000E+06  0.02000  3.296E-02    0   0.9342   age055_m62            0.0000     7.4843E-01     6.0835   2.6201    90.6098
 38      0.0000     0.0000E+00    0.0000E+00    8.710000E+06  0.02000  1.154E-02    0   0.8861   age067_m62            0.0000     9.0333E-01     6.7940   1.6498    95.3170
 39      0.0000     0.0000E+00    0.0000E+00    1.445000E+07  0.02000  7.663E-03    0   0.8472   age078_m62            0.0000     6.4983E-01     5.3764   1.8307    95.3678
 40      0.0000     0.0000E+00    0.0000E+00    2.512000E+07  0.02000  4.532E-03    0   0.8099   age090_m62            0.0000     6.8098E-01     5.5033   1.8234    95.1442
 41      0.0000     0.0000E+00    0.0000E+00    5.500000E+07  0.02000  2.733E-03    0   0.7595   age110_m62            0.0000     6.4223E-01     5.0637   1.8161    95.7404
 42      0.0000     0.0000E+00    0.0000E+00    1.609000E+08  0.02000  1.369E-03    0   0.6985   age120_m62            0.0000     7.7054E-01     5.1918   1.6385    99.0765
 43      0.0000     0.0000E+00    0.0000E+00    2.861200E+08  0.02000  9.013E-04    0   0.6714   age125_m62            0.0000     9.0120E-01     5.4074   1.3793   102.3028
 44      0.0000     0.0000E+00    0.0000E+00    5.088000E+08  0.02000  5.028E-04    0   0.6449   age130_m62            0.0000     1.0050E+00     5.9667   0.9979   105.1551
 45      0.0000     0.0000E+00    0.0000E+00    9.047900E+08  0.02000  2.428E-04    0   0.6179   age135_m62            0.0000     8.8675E-01     6.1296   0.4164   104.3461
 46      0.0000     0.0000E+00    0.0000E+00    1.434000E+09  0.02000  1.263E-04    0   0.5908   age139_m62            0.0000     8.8136E-01     6.3882  -0.0259   102.7029
 47      0.0000     0.0000E+00    0.0000E+00    2.500000E+09  0.02000  5.985E-05    0   0.5673   age150_m62            0.0000     1.0419E+00     7.1564  -0.3937   101.3347
 48      0.0000     0.0000E+00    0.0000E+00    4.250000E+09  0.02000  3.271E-05    0   0.5468   age158_m62            0.0000     1.3335E+00     8.2185  -0.7027   100.6288
 49      0.2073     1.0076E+00    1.0115E+00    1.000000E+10  0.02000  1.360E-05    0   0.5167   age181_m62            0.0000     1.7856E+00     9.3699  -1.0000    98.3724
 50      0.4418     4.0993E+00    3.9924E+00    1.800000E+10  0.02000  7.124E-06    0   0.5013   age213_m62            0.0000     2.3651E+00    10.2298  -1.0000    90.1695
 51      0.0000     0.0000E+00    0.0000E+00    1.000000E+06  0.05000  2.592E-02    0   0.9998   age020_m72            0.0000     8.5938E-01     6.7007   3.0711    85.3875
 52      0.0000     0.0000E+00    0.0000E+00    3.160000E+06  0.05000  4.845E-02    0   0.9577   age045_m72            0.0000     8.1800E-01     6.5219   2.8914    87.6676
 53      0.0000     0.0000E+00    0.0000E+00    5.010000E+06  0.05000  3.072E-02    0   0.9147   age055_m72            0.0000     7.0445E-01     5.5920   2.4287    91.3380
 54      0.0000     0.0000E+00    0.0000E+00    6.610000E+06  0.05000  1.455E-02    0   0.8877   age061_m72            0.0000     1.2546E+00     8.6791   1.7353    95.4160
 55      0.0000     0.0000E+00    0.0000E+00    1.000000E+07  0.05000  9.074E-03    0   0.8524   age070_m72            0.0000     7.6337E-01     5.9832   2.6319    90.7353
 56      0.0000     0.0000E+00    0.0000E+00    2.512000E+07  0.05000  4.250E-03    0   0.7902   age090_m72            0.0000     7.0937E-01     5.5718   2.3081    93.1281
 57      0.0000     0.0000E+00    0.0000E+00    4.000000E+07  0.05000  3.087E-03    0   0.7618   age104_m72            0.0000     7.1514E-01     5.5556   2.0755    94.9274
 58      0.0000     0.0000E+00    0.0000E+00    1.015200E+08  0.05000  1.700E-03    0   0.7096   age116_m72            0.0000     7.4803E-01     5.1479   1.7887    98.4457
 59      0.0000     0.0000E+00    0.0000E+00    2.861200E+08  0.05000  7.384E-04    0   0.6633   age125_m72            0.0000     9.7072E-01     5.6754   1.2447   103.7981
 60      0.0000     0.0000E+00    0.0000E+00    5.088000E+08  0.05000  3.819E-04    0   0.6372   age130_m72            0.0000     9.5513E-01     6.1685   0.7495   105.5245
 61      0.0000     0.0000E+00    0.0000E+00    9.047900E+08  0.05000  1.676E-04    0   0.6110   age135_m72            0.0000     1.0616E+00     7.1657   0.0579   103.3847
 62      0.0000     0.0000E+00    0.0000E+00    1.434000E+09  0.05000  8.837E-05    0   0.5874   age139_m72            0.0000     1.1381E+00     7.4851  -0.3939   102.8167
 63      0.0000     0.0000E+00    0.0000E+00    2.500000E+09  0.05000  4.233E-05    0   0.5598   age150_m72            0.0000     1.4466E+00     8.6192  -0.7035   101.4953
 64      1.2984     5.9812E+00    6.0993E+00    6.250000E+09  0.05000  1.435E-05    0   0.5249   age166_m72            0.0000     1.9548E+00     9.6879  -1.0000    94.5315
 65      0.0000     0.0000E+00    0.0000E+00    1.300000E+10  0.05000  6.513E-06    0   0.5036   age193_m72            0.0000     2.9381E+00    11.2520  -1.0000    85.5288
 66      0.0000     0.0000E+00    0.0000E+00    1.800000E+10  0.05000  4.527E-06    0   0.4945   age213_m72            0.0000     3.6808E+00    12.5305  -1.0000    79.8961


## Synthesis Results - Average & Chains ##

# j      x_j: min, <> & last-chain-values for 1 ...  7 chains
  1     13.5679      5.3100      5.3035      5.2466      8.2128      6.1540      6.0377      7.5700      5.5551
  2      0.0000      1.0026      0.3326      0.1907      0.0000      1.7377      1.8485      1.6979      1.8873
  3      0.0000      0.4176      0.0000      0.0000      0.0000      0.0000      2.2525      0.5353      0.0000
  4      0.0000      0.2076      0.0000      0.0000      0.0000      0.0000      0.0000      0.0000      1.2419
  5      0.0000      0.3060      0.0000      1.1564      0.2316      0.0000      0.0000      0.0000      0.2295
  6      0.0000      0.2743      0.0000      0.0542      0.8352      0.0000      0.0000      0.0000      0.0000
  7      0.0000      0.4954      0.0000      1.7373      0.0000      0.0000      0.0000      0.0000      0.2761
  8      0.0000      0.5344      0.0000      0.0000      0.0000      2.5544      0.0000      0.0000      0.1242
  9      0.0000      0.3175      0.0000      0.0000      0.0000      0.4449      0.0000      0.0000      0.0000
 10      0.0000      0.3274      0.0000      0.4757      0.0000      0.0000      0.0000      1.0347      0.0000
 11      0.0000      0.2812      0.0000      0.0000      0.5939      0.0000      0.0000      1.1793      0.7321
 12      0.0000      0.5678      0.0815      0.0000      1.7905      0.0000      0.0000      0.0000      0.0000
 13     33.2437     18.4944     23.8381     26.9394     23.4408     23.5162     17.3969     20.7818     21.1188
 14      0.0000      6.5018      5.3138      5.5729      6.8744      5.7520      6.9358      7.3547      7.6372
 15      4.2369      5.5895      6.7358      4.8794      5.6917      4.9454      5.0434      9.1910      6.6666
 16     10.8470      6.7378      5.3284      4.6456      5.5956      6.9335      8.2869      7.2897      5.5515
 17      7.5782      3.7506      3.4606      3.1296      3.7490      2.1971      3.5619      3.4260      4.4710
 18     15.7358      5.3655      8.2584      6.2833      8.9508      6.9522      6.2676      5.3828      5.0198
 19      0.0000      3.3000      4.0619      2.6797      4.2451      3.4435      2.0272      4.0994      2.8867
 20      0.0000      0.3029      0.0000      0.0000      0.0000      0.8876      0.0112      0.2171      1.6454
 21      0.0000      0.5770      1.2411      0.0000      0.0000      0.0000      1.6824      0.2067      0.0000
 22      0.0000      0.3162      0.0000      0.0000      0.0000      0.0000      0.0000      0.4261      0.7000
 23      0.0000      0.1819      0.0000      0.0000      0.0000      0.0000      0.0000      0.0000      0.0000
 24      0.0000      0.2578      0.0000      0.0000      0.0000      0.0000      0.0000      0.0000      0.0000
 25      0.0000      0.3814      0.0000      0.0089      0.0000      0.7322      0.0000      0.0000      0.0000
 26      0.0000      0.2018      0.0000      0.0000      0.0000      0.0000      0.0000      0.0000      0.0000
 27      0.0000      0.4073      0.3349      0.0000      0.0000      0.0000      0.0000      0.2474      0.0000
 28      8.6624      2.2838      2.0427      6.6701      4.1655      1.7535      3.3517      2.3527      0.0000
 29      0.0000      1.0075      0.0000      0.0000      0.0000      0.0000      5.4491      0.0000      3.1170
 30      0.0000      0.8866      3.6508      1.2235      0.0000      0.0000      0.0000      1.0402      1.7880
 31      0.0000      3.2239      3.1449      1.0739      2.1323      4.2016      3.2023      3.1702      3.2309
 32      0.0056      3.7026      3.3589      5.1395      4.8973      3.1411      2.7911      2.3152      4.6265
 33      0.0000      0.8065      1.7280      3.0898      0.6968      1.0883      0.2929      1.1178      0.4909
 34      0.0000      0.6202      0.0000      0.5275      0.0000      0.0000      0.4524      0.0000      1.4160
 35      2.9912      0.8395      0.0000      0.0000      1.1296      0.3032      1.9180      0.0000      3.3732
 36      0.0000      3.6267      3.5949      3.7604      3.6952      3.1176      5.8151      4.4115      4.1532
 37      0.0000      0.2035      0.0000      0.0000      0.0000      0.0000      0.0000      0.0000      0.0000
 38      0.0000      2.0268      4.6452      3.3487      0.0000      2.1109      0.0000      1.5202      1.8330
 39      0.0000      0.4978      0.0000      0.0000      0.0000      0.0000      0.0000      0.8800      0.0000
 40      0.0000      0.5396      0.0000      1.9379      0.0000      0.0000      0.0000      0.0000      0.5590
 41      0.0000      0.2610      0.0000      0.0000      0.0000      0.0000      0.0000      0.0000      0.0000
 42      0.0000      0.1237      0.0000      0.0000      0.0000      0.0000      0.4568      0.0000      0.0000
 43      0.0000      0.3497      0.0000      0.0000      0.0000      0.0000      0.0000      0.0000      1.7280
 44      0.0000      0.6971      0.3866      0.0000      0.9252      0.9982      0.0000      2.9011      0.0000
 45      0.0000      0.9449      0.2382      0.0000      0.0000      1.2456      0.0000      0.0000      0.6089
 46      0.0000      0.7476      0.0000      0.0000      0.0000      1.2650      0.0000      0.0000      0.0000
