###################################################################
## OUTPUT of StarlightChains_v04.for    [Cid@UFSC - 01/Apr/2007] ##
###################################################################

## Some input info
2012fb.txt                               [arq_obs]
Base.CB07.vall.4m                        [arq_base]
Masks.EmLines.NEW.gm                     [arq_masks]
StCv04.C11.config                        [arq_config]
   66                                    [N_base]
    0                                    [N_YAV_components = # of components with extra extinction!]
    0                                    [i_FitPowerLaw (1/0 = Yes/No)]
-9.99                                    [alpha_PowerLaw]
CCM                                      [red_law_option]
 1.458241                                [q_norm = A(l_norm)/A(V)]

## (Re)Sampling Parameters
 3741.00                                 [l_ini (A)]
 7218.00                                 [l_fin (A)]
    1.00                                 [dl    (A)]     (OBS: dl_cushion =    50.00 A)

## Normalization info
 4020.00                                 [l_norm (A) - for base]
 4010.00                                 [llow_norm (A) - window for f_obs]
 4060.00                                 [lupp_norm (A) - window for f_obs]
1.068353E-17                             [fobs_norm (in input units)]

## S/N
 3691.00                                 [llow_SN (A) - window for S/N]
 7268.00                                 [lupp_SN (A) - window for S/N]
   5.760                                 [S/N in S/N window]
   7.944                                 [S/N in norm. window]
   0.000                                 [S/N_err in S/N window]
   0.000                                 [S/N_err in norm. window]
  1.0000                                 [fscale_chi2]

## etc...
    -2007395                             [idum_orig]
  2223                                   [NOl_eff]
  2223                                   [Nl_eff]
     0    NSIGMA                         [Ntot_cliped & clip_method]
  1247330                                [Nglobal_steps]
   7                                     [N_chains]
  23                                     [NEX0s_base = N_base in EX0s-fits]
 0   0   1        3   2.0   2.550E+01    [Clip-Bug, RC-Crash & Burn-In warning-flags, n_censored_weights, wei_nsig_threshold & wei_limit]
    12     12.053     11.548      0.505  [idt_all, wdt_TotTime, wdt_UsrTime & wdt_SysTime (sec)]

## Synthesis Results - Best model ##

 2.30849E-01                             [chi2/Nl_eff]
     4.10652                             [adev (%)]

    98.16172                             [sum-of-x (%)]
 1.75105E-17                             [Flux_tot (units of input spectrum!)]
 4.68156E-14                             [Mini_tot (???)]
 2.75116E-14                             [Mcor_tot (???)]

  17.43                                  [v0_min  (km/s)]
 124.02                                  [vd_min  (km/s)]
 0.3817                                  [AV_min  (mag)]
 0.0000                                  [YAV_min (mag)]

# j     x_j(%)      Mini_j(%)     Mcor_j(%)     age_j(yr)     Z_j      (L/M)_j    YAV?  Mstars   component_j        a/Fe...       SSP_chi2r SSP_adev(%)   SSP_AV   SSP_x(%)
  1      0.0000     0.0000E+00    0.0000E+00    1.000000E+06  0.00400  1.094E-02    0   1.0000   age020_m42            0.0000     4.4392E-01     5.9397   2.3400    84.1166
  2      0.0798     7.5879E-04    1.2911E-03    3.160000E+06  0.00400  4.007E-02    0   0.9999   age045_m42            0.0000     3.4828E-01     4.9777   1.6170    89.9247
  3      0.0000     0.0000E+00    0.0000E+00    5.010000E+06  0.00400  2.539E-02    0   0.9488   age055_m42            0.0000     3.7730E-01     5.2691   1.9335    87.8343
  4      0.0000     0.0000E+00    0.0000E+00    6.610000E+06  0.00400  2.620E-02    0   0.9220   age061_m42            0.0000     3.3528E-01     4.9436   1.5411    90.3037
  5      0.0000     0.0000E+00    0.0000E+00    1.000000E+07  0.00400  1.322E-02    0   0.8862   age070_m42            0.0000     3.0552E-01     4.7822   1.2263    93.9292
  6      0.0173     8.3670E-04    1.2203E-03    1.445000E+07  0.00400  7.883E-03    0   0.8571   age078_m42            0.0000     3.3004E-01     5.0309   1.5589    91.2744
  7      2.1178     1.5368E-01    2.1375E-01    2.512000E+07  0.00400  5.251E-03    0   0.8174   age090_m42            0.0000     3.0561E-01     4.7894   1.0899    94.8081
  8      0.9095     9.4975E-02    1.2688E-01    4.000000E+07  0.00400  3.649E-03    0   0.7851   age104_m42            0.0000     2.8698E-01     4.6275   0.8652    95.4591
  9      0.0000     0.0000E+00    0.0000E+00    5.500000E+07  0.00400  3.098E-03    0   0.7629   age110_m42            0.0000     2.8866E-01     4.6705   1.0349    94.6665
 10      0.0000     0.0000E+00    0.0000E+00    1.015200E+08  0.00400  2.228E-03    0   0.7207   age116_m42            0.0000     3.0060E-01     4.8390   1.0656    94.3447
 11      0.0000     0.0000E+00    0.0000E+00    2.861200E+08  0.00400  1.093E-03    0   0.6648   age125_m42            0.0000     3.1971E-01     4.9694   0.4951    97.5848
 12      0.0000     0.0000E+00    0.0000E+00    5.088000E+08  0.00400  6.597E-04    0   0.6365   age130_m42            0.0000     3.2031E-01     5.0592   0.4996    97.5888
 13      0.0000     0.0000E+00    0.0000E+00    1.434000E+09  0.00400  2.132E-04    0   0.5798   age139_m42            0.0000     2.8486E-01     4.7960  -0.4659    99.1192
 14      0.0000     0.0000E+00    0.0000E+00    4.250000E+09  0.00400  5.895E-05    0   0.5377   age158_m42            0.0000     3.3213E-01     5.1484  -0.8770    93.7527
 15      0.0000     0.0000E+00    0.0000E+00    7.500000E+09  0.00400  3.510E-05    0   0.5212   age171_m42            0.0000     3.9964E-01     5.7504  -1.0000    90.6025
 16      0.0000     0.0000E+00    0.0000E+00    1.300000E+10  0.00400  2.005E-05    0   0.5034   age193_m42            0.0000     5.7035E-01     7.1327  -1.0000    84.0931
 17      1.0902     2.7240E+01    2.3024E+01    1.800000E+10  0.00400  1.525E-05    0   0.4967   age213_m42            0.0000     5.9081E-01     7.2814  -1.0000    82.9305
 18      0.0000     0.0000E+00    0.0000E+00    1.000000E+06  0.00800  1.238E-02    0   1.0000   age020_m52            0.0000     4.4325E-01     5.9459   2.3378    84.2265
 19      2.0906     2.5913E-02    4.3946E-02    3.160000E+06  0.00800  3.074E-02    0   0.9966   age045_m52            0.0000     4.3289E-01     5.8473   2.2610    84.9726
 20      2.3189     3.3118E-02    5.3216E-02    5.010000E+06  0.00800  2.668E-02    0   0.9443   age055_m52            0.0000     3.7871E-01     5.3526   2.0148    87.0837
 21     25.3486     4.5219E-01    7.0615E-01    6.610000E+06  0.00800  2.136E-02    0   0.9177   age061_m52            0.0000     2.6694E-01     4.5506   0.7286    94.7435
 22      0.0000     0.0000E+00    0.0000E+00    1.000000E+07  0.00800  1.215E-02    0   0.8827   age070_m52            0.0000     3.2650E-01     5.0249   1.4005    94.0780
 23      0.0000     0.0000E+00    0.0000E+00    1.445000E+07  0.00800  8.717E-03    0   0.8552   age078_m52            0.0000     3.1593E-01     4.9166   1.5224    92.6313
 24      0.0000     0.0000E+00    0.0000E+00    2.512000E+07  0.00800  5.592E-03    0   0.8162   age090_m52            0.0000     3.0404E-01     4.7923   1.1543    95.9941
 25      0.0000     0.0000E+00    0.0000E+00    4.000000E+07  0.00800  3.896E-03    0   0.7841   age104_m52            0.0000     2.9335E-01     4.7017   1.0761    96.3128
 26      0.0000     0.0000E+00    0.0000E+00    1.015200E+08  0.00800  2.148E-03    0   0.7226   age116_m52            0.0000     2.8481E-01     4.6826   1.0290    95.3734
 27      0.0000     0.0000E+00    0.0000E+00    2.861200E+08  0.00800  9.925E-04    0   0.6683   age125_m52            0.0000     3.0084E-01     4.9730   0.5643    98.5067
 28      0.0000     0.0000E+00    0.0000E+00    9.047900E+08  0.00800  3.141E-04    0   0.6138   age135_m52            0.0000     3.3184E-01     5.3298  -0.2039   101.0705
 29      0.0000     0.0000E+00    0.0000E+00    1.434000E+09  0.00800  1.719E-04    0   0.5853   age139_m52            0.0000     3.4745E-01     5.3546  -0.7759    98.6436
 30      0.0000     0.0000E+00    0.0000E+00    2.500000E+09  0.00800  7.872E-05    0   0.5600   age150_m52            0.0000     4.2618E-01     6.0278  -1.0000    93.8626
 31      0.0000     0.0000E+00    0.0000E+00    4.250000E+09  0.00800  4.336E-05    0   0.5426   age158_m52            0.0000     4.4197E-01     6.1083  -1.0000    92.3648
 32      0.0000     0.0000E+00    0.0000E+00    6.250000E+09  0.00800  3.159E-05    0   0.5319   age166_m52            0.0000     6.6211E-01     7.8097  -1.0000    84.8119
 33      0.0000     0.0000E+00    0.0000E+00    1.300000E+10  0.00800  1.361E-05    0   0.5073   age193_m52            0.0000     1.7386E+00    13.2110  -1.0000    68.6019
 34      0.0000     0.0000E+00    0.0000E+00    1.800000E+10  0.00800  9.886E-06    0   0.4990   age213_m52            0.0000     2.1038E+00    14.5818  -1.0000    64.9867
 35      4.8024     1.1851E-01    2.0167E-01    1.000000E+06  0.02000  1.544E-02    0   1.0000   age020_m62            0.0000     4.4733E-01     5.9840   2.3332    84.4377
 36      0.0000     0.0000E+00    0.0000E+00    3.160000E+06  0.02000  3.762E-02    0   0.9858   age045_m62            0.0000     4.4547E-01     5.9631   2.2734    85.1555
 37      0.0000     0.0000E+00    0.0000E+00    5.010000E+06  0.02000  3.296E-02    0   0.9342   age055_m62            0.0000     3.6192E-01     5.1608   1.8988    88.7130
 38      0.0000     0.0000E+00    0.0000E+00    8.710000E+06  0.02000  1.154E-02    0   0.8861   age067_m62            0.0000     6.1300E-01     7.2739   0.7957   100.0203
 39      0.0000     0.0000E+00    0.0000E+00    1.445000E+07  0.02000  7.663E-03    0   0.8472   age078_m62            0.0000     3.6608E-01     5.4046   1.0335    97.1497
 40      0.0061     5.0874E-04    7.0114E-04    2.512000E+07  0.02000  4.532E-03    0   0.8099   age090_m62            0.0000     3.9279E-01     5.5601   1.0250    97.0292
 41      0.0000     0.0000E+00    0.0000E+00    5.500000E+07  0.02000  2.733E-03    0   0.7595   age110_m62            0.0000     2.9127E-01     4.6948   1.0588    95.5946
 42      0.0000     0.0000E+00    0.0000E+00    1.609000E+08  0.02000  1.369E-03    0   0.6985   age120_m62            0.0000     2.9598E-01     4.8884   0.9163    97.2986
 43      0.0000     0.0000E+00    0.0000E+00    2.861200E+08  0.02000  9.013E-04    0   0.6714   age125_m62            0.0000     3.1309E-01     5.1384   0.6732    99.6900
 44      0.0000     0.0000E+00    0.0000E+00    5.088000E+08  0.02000  5.028E-04    0   0.6449   age130_m62            0.0000     3.4488E-01     5.3749   0.3229   100.9257
 45      0.0000     0.0000E+00    0.0000E+00    9.047900E+08  0.02000  2.428E-04    0   0.6179   age135_m62            0.0000     3.4812E-01     5.4983  -0.2421    99.2859
 46      0.0000     0.0000E+00    0.0000E+00    1.434000E+09  0.02000  1.263E-04    0   0.5908   age139_m62            0.0000     3.9280E-01     5.7765  -0.6754    97.2453
 47      0.8608     5.4800E+00    5.2902E+00    2.500000E+09  0.02000  5.985E-05    0   0.5673   age150_m62            0.0000     5.1802E-01     6.6596  -1.0000    94.0339
 48      0.0000     0.0000E+00    0.0000E+00    4.250000E+09  0.02000  3.271E-05    0   0.5468   age158_m62            0.0000     9.0486E-01     9.2349  -1.0000    81.9073
 49      0.0000     0.0000E+00    0.0000E+00    1.000000E+10  0.02000  1.360E-05    0   0.5167   age181_m62            0.0000     1.7757E+00    13.2211  -1.0000    69.9830
 50      0.0000     0.0000E+00    0.0000E+00    1.800000E+10  0.02000  7.124E-06    0   0.5013   age213_m62            0.0000     2.4642E+00    15.7383  -1.0000    63.1435
 51      9.7533     1.4338E-01    2.4393E-01    1.000000E+06  0.05000  2.592E-02    0   0.9998   age020_m72            0.0000     4.5757E-01     6.0990   2.3236    84.4979
 52      0.4665     3.6690E-03    5.9793E-03    3.160000E+06  0.05000  4.845E-02    0   0.9577   age045_m72            0.0000     4.1777E-01     5.6324   2.1605    86.1472
 53      0.0000     0.0000E+00    0.0000E+00    5.010000E+06  0.05000  3.072E-02    0   0.9147   age055_m72            0.0000     3.8347E-01     5.5353   1.6571    91.7764
 54      0.0000     0.0000E+00    0.0000E+00    6.610000E+06  0.05000  1.455E-02    0   0.8877   age061_m72            0.0000     1.0223E+00     9.1747   0.8641   101.2714
 55      0.0000     0.0000E+00    0.0000E+00    1.000000E+07  0.05000  9.074E-03    0   0.8524   age070_m72            0.0000     4.5912E-01     5.9449   1.8700    90.7969
 56      0.0000     0.0000E+00    0.0000E+00    2.512000E+07  0.05000  4.250E-03    0   0.7902   age090_m72            0.0000     3.9639E-01     5.4359   1.5462    93.2599
 57      0.0000     0.0000E+00    0.0000E+00    4.000000E+07  0.05000  3.087E-03    0   0.7618   age104_m72            0.0000     4.0777E-01     5.4692   1.3096    95.2802
 58      0.0000     0.0000E+00    0.0000E+00    1.015200E+08  0.05000  1.700E-03    0   0.7096   age116_m72            0.0000     3.1298E-01     4.9772   1.0515    97.4004
 59      0.0000     0.0000E+00    0.0000E+00    2.861200E+08  0.05000  7.384E-04    0   0.6633   age125_m72            0.0000     3.2830E-01     5.2847   0.5563   100.2750
 60     39.0784     3.8990E+01    4.2277E+01    5.088000E+08  0.05000  3.819E-04    0   0.6372   age130_m72            0.0000     3.3899E-01     5.4394   0.0875   100.5846
 61      6.1323     1.3942E+01    1.4496E+01    9.047900E+08  0.05000  1.676E-04    0   0.6110   age135_m72            0.0000     4.7751E-01     6.4515  -0.5654    96.6458
 62      3.0893     1.3321E+01    1.3315E+01    1.434000E+09  0.05000  8.837E-05    0   0.5874   age139_m72            0.0000     5.6512E-01     6.9613  -1.0000    95.3743
 63      0.0000     0.0000E+00    0.0000E+00    2.500000E+09  0.05000  4.233E-05    0   0.5598   age150_m72            0.0000     9.5703E-01     9.4748  -1.0000    82.5513
 64      0.0000     0.0000E+00    0.0000E+00    6.250000E+09  0.05000  1.435E-05    0   0.5249   age166_m72            0.0000     2.0864E+00    14.3956  -1.0000    66.7206
 65      0.0000     0.0000E+00    0.0000E+00    1.300000E+10  0.05000  6.513E-06    0   0.5036   age193_m72            0.0000     3.0871E+00    17.7429  -1.0000    59.2648
 66      0.0000     0.0000E+00    0.0000E+00    1.800000E+10  0.05000  4.527E-06    0   0.4945   age213_m72            0.0000     3.7303E+00    19.6014  -1.0000    54.8979


## Synthesis Results - Average & Chains ##

# j      x_j: min, <> & last-chain-values for 1 ...  7 chains
  1      0.0000      0.2719      0.0000      0.0349      0.0000      0.0000      0.0406      0.0000      2.2647
  2      0.0798      0.7019      1.6979      0.0000      0.0000      0.0000      0.2794      4.8081      0.0000
  3      0.0000      0.4798      0.0000      0.0000      0.0000      0.0000      0.4954      0.0000      0.0000
  4      0.0000      0.7009      0.3501      0.0000      1.9859      0.0000      0.5832      0.0000      5.0221
  5      0.0000      1.1358      0.0000      0.0000      0.0000      0.0000      0.0000      2.4077      0.0000
  6      0.0173      0.6108      1.9424      0.0000      0.0000      0.0000      3.9415      0.6587      0.9329
  7      2.1178      2.3786      4.6608      5.0464      3.8565      3.4989      4.0743      0.8465      0.0000
  8      0.9095      2.1845      7.3245      5.7796      0.7262      0.8009      0.0000      0.0000      5.5200
  9      0.0000      0.7878      0.0000      0.0000      0.0000      0.0000      1.2674      0.0000      0.0000
 10      0.0000      1.2014      0.0000      0.1350      0.0000      0.2045      0.0000      0.8661      0.2976
 11      0.0000      0.8582      0.0000      0.9274      0.5169      0.0000      0.0000      0.4034      0.6530
 12      0.0000      0.8088      0.0484      0.0753      0.0000      0.0000      0.0000      0.0000      0.0000
 13      0.0000      0.2947      0.0000      0.5478      0.0000      0.0000      0.0000      0.0000      0.0517
 14      0.0000      0.1437      0.0000      0.0000      0.0000      0.0000      0.0000      0.3946      0.0218
 15      0.0000      0.0299      0.0000      0.0000      0.0000      0.0000      0.0000      0.0000      0.0000
 16      0.0000      0.0505      0.0000      0.0000      0.0000      0.0000      0.0000      0.0000      0.0000
 17      1.0902      0.0613      1.0746      0.0000      0.0000      0.0000      0.0000      0.0000      0.2309
 18      0.0000      0.2855      0.0000      1.6973      0.3947      0.1154      0.0674      0.0000      0.0000
 19      2.0906      1.7626      0.7226      1.4267      0.3356      0.0000      5.3251      1.6867      0.0000
 20      2.3189      0.4962      1.7298      0.0000      0.0000      0.0000      0.2856      0.0000      3.5141
 21     25.3486     25.7637     25.5470     28.0944     35.5725     37.8863     23.0323     33.7791     25.7153
 22      0.0000      0.4977      0.0000      0.0000      0.0000      0.0000      0.0000      4.6642      0.0000
 23      0.0000      0.7707      0.0000      0.5482      2.5522      0.0000      0.6201      0.0000      0.0000
 24      0.0000      0.5518      0.0000      0.2482      0.0000      0.0435      0.0000      0.0000      0.0000
 25      0.0000      0.6585      0.0783      0.0000      0.0000      2.9614      3.0812      0.0000      0.0000
 26      0.0000      1.2013      0.7027      0.0920      0.0000      0.0000      0.0000      0.0000      0.0000
 27      0.0000      1.3058      0.0000      0.0000      0.0000      0.0000      0.7951      0.0000      3.6852
 28      0.0000      0.4326      1.3170      0.0000      1.2070      0.3251      0.0000      0.0000      0.0000
 29      0.0000      0.1838      0.0000      0.0000      0.0000      0.0000      0.0000      0.0000      0.0000
 30      0.0000      0.2126      0.0000      1.6005      0.0000      0.0000      0.0000      0.0000      0.0000
 31      0.0000      0.1950      0.0000      0.0000      0.0000      0.0000      0.6062      0.0000      0.0000
 32      0.0000      0.0342      0.0000      0.0000      0.0462      0.2545      0.0000      0.0000      0.0000
 33      0.0000      0.0577      0.0000      0.2742      0.0000      0.0000      0.0000      0.4657      0.0000
 34      0.0000      0.0223      0.0000      0.0000      0.0000      0.0000      0.0000      0.0000      0.0000
 35      4.8024      1.2855      2.5371      1.5586      3.1133      3.1210      2.6971      2.4204      0.0000
 36      0.0000      1.0295      0.0000      1.0762      1.0070      0.0000      0.0000      0.6261      5.3955
 37      0.0000      0.5697      1.5504      3.8239      0.0000      0.0000      2.2790      0.4213      0.0000
 38      0.0000      1.7141      0.0000      0.0000      2.8337      1.3013      0.9426      1.0333      1.8449
 39      0.0000      0.9689      0.8225      0.0000      0.0000      0.0000      0.0000      0.0000      0.0000
 40      0.0061      0.8209      0.6298      1.9224      0.0000      0.0000      2.1513      1.2560      0.1694
 41      0.0000      0.9665      0.0000      0.2341      2.5900      0.0000      1.5073      0.3998      0.0000
 42      0.0000      1.0294      0.0000      0.0000      0.0000      0.0000      1.0439      0.0000      0.0000
 43      0.0000      1.2549      2.0340      0.0000      0.0000      0.0000      0.0000      0.0000      0.0000
 44      0.0000      3.9150      0.0000      5.2640      0.3703      0.0000      0.0000      0.0000      2.0321
 45      0.0000      4.4856      0.3755      3.5364      4.5501      7.0143      2.6805      4.1742      4.4629
 46      0.0000      0.6404      0.0000      0.0000      0.9942      0.0000      2.3136      0.1491      0.0000
