###################################################################
## OUTPUT of StarlightChains_v04.for    [Cid@UFSC - 01/Apr/2007] ##
###################################################################

## Some input info
2013U.txt                                [arq_obs]
Base.CB07.vall.4m                        [arq_base]
Masks.EmLines.NEW.gm                     [arq_masks]
StCv04.C11.config                        [arq_config]
   66                                    [N_base]
    0                                    [N_YAV_components = # of components with extra extinction!]
    0                                    [i_FitPowerLaw (1/0 = Yes/No)]
-9.99                                    [alpha_PowerLaw]
CCM                                      [red_law_option]
 1.458241                                [q_norm = A(l_norm)/A(V)]

## (Re)Sampling Parameters
 3741.00                                 [l_ini (A)]
 7218.00                                 [l_fin (A)]
    1.00                                 [dl    (A)]     (OBS: dl_cushion =    50.00 A)

## Normalization info
 4020.00                                 [l_norm (A) - for base]
 4010.00                                 [llow_norm (A) - window for f_obs]
 4060.00                                 [lupp_norm (A) - window for f_obs]
5.636147E-17                             [fobs_norm (in input units)]

## S/N
 3691.00                                 [llow_SN (A) - window for S/N]
 7268.00                                 [lupp_SN (A) - window for S/N]
  11.491                                 [S/N in S/N window]
  12.356                                 [S/N in norm. window]
  19.038                                 [S/N_err in S/N window]
  20.472                                 [S/N_err in norm. window]
  1.0000                                 [fscale_chi2]

## etc...
    -2007414                             [idum_orig]
  2289                                   [NOl_eff]
  2287                                   [Nl_eff]
     2    NSIGMA                         [Ntot_cliped & clip_method]
  2254840                                [Nglobal_steps]
   7                                     [N_chains]
  37                                     [NEX0s_base = N_base in EX0s-fits]
 0   0   1        0   2.0   3.950E+01    [Clip-Bug, RC-Crash & Burn-In warning-flags, n_censored_weights, wei_nsig_threshold & wei_limit]
    18     18.044     17.550      0.494  [idt_all, wdt_TotTime, wdt_UsrTime & wdt_SysTime (sec)]

## Synthesis Results - Best model ##

 3.89322E-01                             [chi2/Nl_eff]
     2.50411                             [adev (%)]

   106.60400                             [sum-of-x (%)]
 1.14703E-16                             [Flux_tot (units of input spectrum!)]
 9.75331E-13                             [Mini_tot (???)]
 5.24849E-13                             [Mcor_tot (???)]

 -50.91                                  [v0_min  (km/s)]
 170.25                                  [vd_min  (km/s)]
 0.4814                                  [AV_min  (mag)]
 0.0000                                  [YAV_min (mag)]

# j     x_j(%)      Mini_j(%)     Mcor_j(%)     age_j(yr)     Z_j      (L/M)_j    YAV?  Mstars   component_j        a/Fe...       SSP_chi2r SSP_adev(%)   SSP_AV   SSP_x(%)
  1      0.0000     0.0000E+00    0.0000E+00    1.000000E+06  0.00400  1.094E-02    0   1.0000   age020_m42            0.0000     1.5580E+00     5.3027   2.9571    87.7535
  2      0.0000     0.0000E+00    0.0000E+00    3.160000E+06  0.00400  4.007E-02    0   0.9999   age045_m42            0.0000     1.1534E+00     4.2579   2.2144    94.6713
  3      0.0000     0.0000E+00    0.0000E+00    5.010000E+06  0.00400  2.539E-02    0   0.9488   age055_m42            0.0000     1.2387E+00     4.5378   2.5365    92.2244
  4      0.0000     0.0000E+00    0.0000E+00    6.610000E+06  0.00400  2.620E-02    0   0.9220   age061_m42            0.0000     1.0611E+00     4.0887   2.1322    95.3136
  5      0.0003     2.1204E-06    3.4920E-06    1.000000E+07  0.00400  1.322E-02    0   0.8862   age070_m42            0.0000     7.8014E-01     3.5581   1.7983    99.8656
  6      0.0000     0.0000E+00    0.0000E+00    1.445000E+07  0.00400  7.883E-03    0   0.8571   age078_m42            0.0000     8.9069E-01     3.8416   2.1368    96.7925
  7      0.7387     1.5519E-02    2.3574E-02    2.512000E+07  0.00400  5.251E-03    0   0.8174   age090_m42            0.0000     7.4539E-01     3.4938   1.6562   101.0276
  8      1.6895     5.1078E-02    7.4520E-02    4.000000E+07  0.00400  3.649E-03    0   0.7851   age104_m42            0.0000     6.8150E-01     3.3397   1.4310   101.7641
  9      0.0000     0.0000E+00    0.0000E+00    5.500000E+07  0.00400  3.098E-03    0   0.7629   age110_m42            0.0000     7.6444E-01     3.4785   1.6060   100.7401
 10      0.0000     0.0000E+00    0.0000E+00    1.015200E+08  0.00400  2.228E-03    0   0.7207   age116_m42            0.0000     8.6232E-01     3.7092   1.6402   100.2803
 11      0.0000     0.0000E+00    0.0000E+00    2.861200E+08  0.00400  1.093E-03    0   0.6648   age125_m42            0.0000     8.3353E-01     3.7522   1.0592   104.1896
 12      0.0000     0.0000E+00    0.0000E+00    5.088000E+08  0.00400  6.597E-04    0   0.6365   age130_m42            0.0000     9.2270E-01     3.9660   1.0707   103.9306
 13      6.3342     3.2776E+00    3.5314E+00    1.434000E+09  0.00400  2.132E-04    0   0.5798   age139_m42            0.0000     6.9968E-01     3.5586   0.1072   105.4883
 14      8.0177     1.5004E+01    1.4992E+01    4.250000E+09  0.00400  5.895E-05    0   0.5377   age158_m42            0.0000     9.0410E-01     4.1280  -0.2849    99.0092
 15      0.2794     8.7816E-01    8.5054E-01    7.500000E+09  0.00400  3.510E-05    0   0.5212   age171_m42            0.0000     1.1326E+00     4.6664  -0.4497    97.3376
 16      0.0000     0.0000E+00    0.0000E+00    1.300000E+10  0.00400  2.005E-05    0   0.5034   age193_m42            0.0000     1.4039E+00     5.2197  -0.5925    95.8714
 17      0.0000     0.0000E+00    0.0000E+00    1.800000E+10  0.00400  1.525E-05    0   0.4967   age213_m42            0.0000     1.3458E+00     5.1029  -0.6200    95.6341
 18      6.8160     6.0738E-02    1.1287E-01    1.000000E+06  0.00800  1.238E-02    0   1.0000   age020_m52            0.0000     1.5541E+00     5.3032   2.9535    87.9196
 19      0.0000     0.0000E+00    0.0000E+00    3.160000E+06  0.00800  3.074E-02    0   0.9966   age045_m52            0.0000     1.4970E+00     5.1890   2.8750    88.7754
 20      0.6223     2.5730E-03    4.5151E-03    5.010000E+06  0.00800  2.668E-02    0   0.9443   age055_m52            0.0000     1.2354E+00     4.6061   2.6187    91.3868
 21      0.0000     0.0000E+00    0.0000E+00    6.610000E+06  0.00800  2.136E-02    0   0.9177   age061_m52            0.0000     6.2603E-01     3.2863   1.3045   100.5678
 22      0.0000     0.0000E+00    0.0000E+00    1.000000E+07  0.00800  1.215E-02    0   0.8827   age070_m52            0.0000     7.9450E-01     3.6669   1.9705   100.0826
 23      0.6404     8.1040E-03    1.2879E-02    1.445000E+07  0.00800  8.717E-03    0   0.8552   age078_m52            0.0000     8.0895E-01     3.6720   2.0984    98.3194
 24      5.0308     9.9247E-02    1.5053E-01    2.512000E+07  0.00800  5.592E-03    0   0.8162   age090_m52            0.0000     6.8598E-01     3.3802   1.7192   102.3624
 25      0.0004     1.0515E-05    1.5321E-05    4.000000E+07  0.00800  3.896E-03    0   0.7841   age104_m52            0.0000     6.6675E-01     3.3168   1.6407   102.7530
 26      0.0000     0.0000E+00    0.0000E+00    1.015200E+08  0.00800  2.148E-03    0   0.7226   age116_m52            0.0000     7.2571E-01     3.4224   1.5987   101.5854
 27      0.0000     0.0000E+00    0.0000E+00    2.861200E+08  0.00800  9.925E-04    0   0.6683   age125_m52            0.0000     8.4487E-01     3.7814   1.1332   105.0135
 28      0.0000     0.0000E+00    0.0000E+00    9.047900E+08  0.00800  3.141E-04    0   0.6138   age135_m52            0.0000     9.4046E-01     4.1448   0.3742   107.4012
 29      0.0007     4.6957E-04    5.1074E-04    1.434000E+09  0.00800  1.719E-04    0   0.5853   age139_m52            0.0000     9.0474E-01     4.0923  -0.1932   104.6175
 30      0.0000     0.0000E+00    0.0000E+00    2.500000E+09  0.00800  7.872E-05    0   0.5600   age150_m52            0.0000     1.2624E+00     5.0001  -0.4188    99.6073
 31      0.0000     0.0000E+00    0.0000E+00    4.250000E+09  0.00800  4.336E-05    0   0.5426   age158_m52            0.0000     1.2998E+00     5.0614  -0.4307    98.4896
 32      0.0000     0.0000E+00    0.0000E+00    6.250000E+09  0.00800  3.159E-05    0   0.5319   age166_m52            0.0000     1.6912E+00     5.8579  -0.6049    97.2313
 33      2.9342     2.3783E+01    2.2421E+01    1.300000E+10  0.00800  1.361E-05    0   0.5073   age193_m52            0.0000     2.3073E+00     7.0130  -1.0000    93.4632
 34      0.7291     8.1359E+00    7.5443E+00    1.800000E+10  0.00800  9.886E-06    0   0.4990   age213_m52            0.0000     2.9424E+00     8.0984  -1.0000    88.6243
 35      0.0000     0.0000E+00    0.0000E+00    1.000000E+06  0.02000  1.544E-02    0   1.0000   age020_m62            0.0000     1.5655E+00     5.3374   2.9498    88.1082
 36      0.0000     0.0000E+00    0.0000E+00    3.160000E+06  0.02000  3.762E-02    0   0.9858   age045_m62            0.0000     1.5460E+00     5.3108   2.8891    88.8919
 37      0.0000     0.0000E+00    0.0000E+00    5.010000E+06  0.02000  3.296E-02    0   0.9342   age055_m62            0.0000     1.1936E+00     4.4448   2.4990    93.2738
 38     21.4186     2.0475E-01    3.3716E-01    8.710000E+06  0.02000  1.154E-02    0   0.8861   age067_m62            0.0000     1.7299E+00     5.6694   1.3420   107.2326
 39      1.3789     1.9851E-02    3.1253E-02    1.445000E+07  0.02000  7.663E-03    0   0.8472   age078_m62            0.0000     8.4139E-01     3.8533   1.5941   103.7123
 40      0.0003     8.4022E-06    1.2646E-05    2.512000E+07  0.02000  4.532E-03    0   0.8099   age090_m62            0.0000     9.1196E-01     4.0021   1.5809   103.7973
 41      0.0090     3.6181E-04    5.1066E-04    5.500000E+07  0.02000  2.733E-03    0   0.7595   age110_m62            0.0000     6.4382E-01     3.2631   1.6238   101.9686
 42      0.0000     0.0000E+00    0.0000E+00    1.609000E+08  0.02000  1.369E-03    0   0.6985   age120_m62            0.0000     7.9988E-01     3.6236   1.4826   103.7905
 43      0.0000     0.0000E+00    0.0000E+00    2.861200E+08  0.02000  9.013E-04    0   0.6714   age125_m62            0.0000     9.3534E-01     3.9607   1.2396   106.3741
 44      0.0000     0.0000E+00    0.0000E+00    5.088000E+08  0.02000  5.028E-04    0   0.6449   age130_m62            0.0000     1.1460E+00     4.4367   0.9016   107.1885
 45      0.0028     1.2855E-03    1.4761E-03    9.047900E+08  0.02000  2.428E-04    0   0.6179   age135_m62            0.0000     1.0501E+00     4.4105   0.3452   105.0966
 46      0.8721     7.6172E-01    8.3629E-01    1.434000E+09  0.02000  1.263E-04    0   0.5908   age139_m62            0.0000     1.1448E+00     4.6913  -0.0829   102.7170
 47      0.0000     0.0000E+00    0.0000E+00    2.500000E+09  0.02000  5.985E-05    0   0.5673   age150_m62            0.0000     1.6220E+00     5.7476  -0.4086    99.3863
 48      0.0000     0.0000E+00    0.0000E+00    4.250000E+09  0.02000  3.271E-05    0   0.5468   age158_m62            0.0000     2.2939E+00     7.0189  -0.6723    96.6589
 49      0.0000     0.0000E+00    0.0000E+00    1.000000E+10  0.02000  1.360E-05    0   0.5167   age181_m62            0.0000     3.2283E+00     8.4354  -0.9694    94.0733
 50      0.7208     1.1162E+01    1.0398E+01    1.800000E+10  0.02000  7.124E-06    0   0.5013   age213_m62            0.0000     4.1967E+00     9.8161  -1.0000    86.1724
 51      0.0000     0.0000E+00    0.0000E+00    1.000000E+06  0.05000  2.592E-02    0   0.9998   age020_m72            0.0000     1.5979E+00     5.4331   2.9408    88.1436
 52      5.7991     1.3204E-02    2.3500E-02    3.160000E+06  0.05000  4.845E-02    0   0.9577   age045_m72            0.0000     1.4260E+00     4.9925   2.7708    90.1719
 53      0.0000     0.0000E+00    0.0000E+00    5.010000E+06  0.05000  3.072E-02    0   0.9147   age055_m72            0.0000     1.0061E+00     4.2095   2.2373    97.2394
 54      0.0000     0.0000E+00    0.0000E+00    6.610000E+06  0.05000  1.455E-02    0   0.8877   age061_m72            0.0000     3.5196E+00     7.8353   1.4064   108.7438
 55      0.0000     0.0000E+00    0.0000E+00    1.000000E+07  0.05000  9.074E-03    0   0.8524   age070_m72            0.0000     1.3467E+00     4.7942   2.4560    95.9851
 56      0.0000     0.0000E+00    0.0000E+00    2.512000E+07  0.05000  4.250E-03    0   0.7902   age090_m72            0.0000     1.0335E+00     4.1230   2.1167    99.2616
 57      0.0000     0.0000E+00    0.0000E+00    4.000000E+07  0.05000  3.087E-03    0   0.7618   age104_m72            0.0000     1.0485E+00     4.1384   1.8736   101.6862
 58      0.0000     0.0000E+00    0.0000E+00    1.015200E+08  0.05000  1.700E-03    0   0.7096   age116_m72            0.0000     7.9270E-01     3.6408   1.6151   104.0131
 59      0.0001     1.2930E-05    1.5938E-05    2.861200E+08  0.05000  7.384E-04    0   0.6633   age125_m72            0.0000     1.0055E+00     4.0587   1.1278   106.8258
 60     23.9094     6.9067E+00    8.1783E+00    5.088000E+08  0.05000  3.819E-04    0   0.6372   age130_m72            0.0000     1.0466E+00     4.3399   0.6699   106.7082
 61     13.1260     8.6398E+00    9.8099E+00    9.047900E+08  0.05000  1.676E-04    0   0.6110   age135_m72            0.0000     1.5158E+00     5.5927   0.0345   101.8330
 62      4.1827     5.2215E+00    5.6996E+00    1.434000E+09  0.05000  8.837E-05    0   0.5874   age139_m72            0.0000     1.7506E+00     5.9900  -0.4047   100.6672
 63      0.0557     1.4526E-01    1.5111E-01    2.500000E+09  0.05000  4.233E-05    0   0.5598   age150_m72            0.0000     2.5485E+00     7.4329  -0.6582    96.8545
 64      0.6841     5.2590E+00    5.1298E+00    6.250000E+09  0.05000  1.435E-05    0   0.5249   age166_m72            0.0000     3.5276E+00     8.9489  -1.0000    90.9712
 65      0.6109     1.0348E+01    9.6838E+00    1.300000E+10  0.05000  6.513E-06    0   0.5036   age193_m72            0.0000     5.2874E+00    11.2057  -1.0000    80.9708
 66      0.0000     0.0000E+00    0.0000E+00    1.800000E+10  0.05000  4.527E-06    0   0.4945   age213_m72            0.0000     6.7228E+00    12.8054  -1.0000    75.0877


## Synthesis Results - Average & Chains ##

# j      x_j: min, <> & last-chain-values for 1 ...  7 chains
  1      0.0000      0.3921      0.0000      0.7333      0.0876      0.0000      0.0000      0.0245      0.5337
  2      0.0000      0.3416      0.0000      0.5561      0.4361      0.0000      1.0564      0.3088      0.2101
  3      0.0000      0.3431      0.0000      0.0000      0.7334      0.3570      0.6631      0.0000      0.0000
  4      0.0000      0.1890      0.0000      0.0190      0.7467      0.0000      0.0000      0.0000      0.0000
  5      0.0003      2.0129      1.9351      2.3906      1.6664      1.8992      1.9996      1.8447      2.5558
  6      0.0000      0.3139      0.4551      0.3617      0.0000      0.0000      0.0000      0.0463      0.0000
  7      0.7387      1.5317      3.3876      1.8730      1.3100      0.8532      2.9912      1.0864      0.6300
  8      1.6895      2.8683      2.6123      2.9364      4.1849      0.8789      3.2926      0.8178      2.3988
  9      0.0000      0.3694      0.4692      0.0000      0.0000      0.0000      0.3830      0.2060      0.1054
 10      0.0000      0.2634      0.2393      0.1098      0.0000      0.0432      0.0000      0.0000      0.0997
 11      0.0000      0.3237      0.0000      0.0000      0.0000      0.0000      0.0000      0.0000      0.0000
 12      0.0000      0.3814      0.0000      0.0000      0.0000      0.0000      1.6154      0.0000      0.0000
 13      6.3342      4.6394      5.3996      4.9309      3.2513      6.4724      4.9348      6.5191      4.6578
 14      8.0177      4.6755      4.8748      4.2165      4.9891      5.2473      5.0689      5.5479      5.3358
 15      0.2794      0.5643      0.2711      0.4820      0.0000      0.0000      0.0000      0.7467      0.5884
 16      0.0000      0.0488      0.0000      0.0000      0.0000      0.0000      0.0000      0.0000      0.0000
 17      0.0000      0.0897      0.0000      0.0018      0.0000      0.1282      0.1126      0.0000      0.0000
 18      6.8160      4.2538      4.8698      5.1825      4.1341      4.8250      4.5565      4.9455      4.8935
 19      0.0000      0.3004      0.5664      0.0000      0.9748      0.5450      0.1356      0.0000      0.5126
 20      0.6223      0.4734      0.0000      1.0491      0.5490      1.4135      0.9729      0.8375      0.5445
 21      0.0000      2.5819      2.1034      2.0326      2.7714      0.2370      1.9795      2.5994      1.8445
 22      0.0000      0.4337      0.0000      0.3903      0.4561      0.7957      0.0000      1.5956      0.0000
 23      0.6404      0.4732      0.2622      0.0000      1.2842      1.0011      0.3200      0.6753      0.0089
 24      5.0308      3.7060      4.7159      3.7926      4.9043      4.0227      3.2976      3.9599      3.9282
 25      0.0004      0.9149      1.2238      1.0184      0.2174      0.4915      0.9930      0.5314      1.5374
 26      0.0000      0.9338      1.9833      0.0000      0.8480      2.8879      0.0545      0.5827      2.3239
 27      0.0000      0.3912      0.0000      0.2708      0.0000      0.0000      0.0000      0.5909      0.0000
 28      0.0000      1.4648      0.0000      0.2486      0.4023      0.0000      0.0000      0.6447      0.2659
 29      0.0007      2.8266      2.2480      4.0199      3.0389      3.3517      1.5123      2.1130      2.9485
 30      0.0000      0.6697      1.6162      1.1772      0.8720      0.0000      1.0404      0.1280      0.0950
 31      0.0000      0.1533      0.0074      0.0863      0.5796      0.0000      0.0449      0.0000      0.0273
 32      0.0000      0.1518      0.0000      0.0000      0.1429      0.0000      0.5773      0.0000      0.0000
 33      2.9342      2.1267      2.2543      2.4561      2.7056      2.1304      2.0032      2.4182      2.1535
 34      0.7291      0.9335      0.9020      0.8503      1.0773      0.9287      0.8335      1.1121      0.7689
 35      0.0000      0.8203      0.6816      1.8132      0.0000      0.9813      1.1093      0.0000      1.2157
 36      0.0000      0.1258      0.0143      0.0000      0.0000      0.3830      0.0000      0.4209      0.0000
 37      0.0000      0.1904      0.0000      0.0234      0.0000      0.0000      0.4384      0.4437      0.0000
 38     21.4186     12.0246     12.5063     12.2015     12.9577     13.1695     12.9129     13.8580     11.9956
 39      1.3789      2.1877      1.9102      2.2832      2.0800      2.9522      2.5509      1.2609      3.2909
 40      0.0003      0.3803      0.1659      0.0000      0.2720      0.2163      0.0000      0.4438      0.0000
 41      0.0090      1.7821      2.7168      1.8274      3.1088      0.9518      1.0661      1.8373      0.0000
 42      0.0000      0.4030      0.1335      0.3444      0.0000      1.0453      0.9450      0.0000      0.8755
 43      0.0000      0.4128      0.8981      0.1645      0.0000      1.0507      0.0000      0.0000      0.0000
 44      0.0000      0.5631      0.0000      0.0449      0.2501      0.0943      0.4571      0.0000      0.0000
 45      0.0028      1.8775      2.2509      0.1457      1.4134      0.5725      0.7419      1.4553      4.7210
 46      0.8721      5.4944      5.5012      5.1745      3.7313      5.8703      4.8959      4.6996      4.9889
