###################################################################
## OUTPUT of StarlightChains_v04.for    [Cid@UFSC - 01/Apr/2007] ##
###################################################################

## Some input info
2013gq.txt                               [arq_obs]
Base.CB07.vall.4m                        [arq_base]
Masks.EmLines.NEW.gm                     [arq_masks]
StCv04.C11.config                        [arq_config]
   66                                    [N_base]
    0                                    [N_YAV_components = # of components with extra extinction!]
    0                                    [i_FitPowerLaw (1/0 = Yes/No)]
-9.99                                    [alpha_PowerLaw]
CCM                                      [red_law_option]
 1.458241                                [q_norm = A(l_norm)/A(V)]

## (Re)Sampling Parameters
 3741.00                                 [l_ini (A)]
 7218.00                                 [l_fin (A)]
    1.00                                 [dl    (A)]     (OBS: dl_cushion =    50.00 A)

## Normalization info
 4020.00                                 [l_norm (A) - for base]
 4010.00                                 [llow_norm (A) - window for f_obs]
 4060.00                                 [lupp_norm (A) - window for f_obs]
2.579195E-16                             [fobs_norm (in input units)]

## S/N
 3691.00                                 [llow_SN (A) - window for S/N]
 7268.00                                 [lupp_SN (A) - window for S/N]
   4.441                                 [S/N in S/N window]
   3.137                                 [S/N in norm. window]
  27.878                                 [S/N_err in S/N window]
  19.691                                 [S/N_err in norm. window]
  1.0000                                 [fscale_chi2]

## etc...
    -2007410                             [idum_orig]
  2383                                   [NOl_eff]
  2378                                   [Nl_eff]
     5    NSIGMA                         [Ntot_cliped & clip_method]
  1682170                                [Nglobal_steps]
   7                                     [N_chains]
  22                                     [NEX0s_base = N_base in EX0s-fits]
 0   0   1        3   2.0   3.151E+01    [Clip-Bug, RC-Crash & Burn-In warning-flags, n_censored_weights, wei_nsig_threshold & wei_limit]
    17     17.015     16.433      0.581  [idt_all, wdt_TotTime, wdt_UsrTime & wdt_SysTime (sec)]

## Synthesis Results - Best model ##

 5.57746E-01                             [chi2/Nl_eff]
     2.16094                             [adev (%)]

   107.56013                             [sum-of-x (%)]
 4.16635E-16                             [Flux_tot (units of input spectrum!)]
 1.86947E-11                             [Mini_tot (???)]
 9.72667E-12                             [Mcor_tot (???)]

  13.10                                  [v0_min  (km/s)]
 224.82                                  [vd_min  (km/s)]
 0.3028                                  [AV_min  (mag)]
 0.0000                                  [YAV_min (mag)]

# j     x_j(%)      Mini_j(%)     Mcor_j(%)     age_j(yr)     Z_j      (L/M)_j    YAV?  Mstars   component_j        a/Fe...       SSP_chi2r SSP_adev(%)   SSP_AV   SSP_x(%)
  1      0.0000     0.0000E+00    0.0000E+00    1.000000E+06  0.00400  1.094E-02    0   1.0000   age020_m42            0.0000     5.1542E+00     7.3597   3.9342    94.6514
  2      0.0000     0.0000E+00    0.0000E+00    3.160000E+06  0.00400  4.007E-02    0   0.9999   age045_m42            0.0000     4.5991E+00     6.7162   3.2321   100.0392
  3      0.0000     0.0000E+00    0.0000E+00    5.010000E+06  0.00400  2.539E-02    0   0.9488   age055_m42            0.0000     4.8265E+00     6.9707   3.5396    98.1604
  4      0.0334     2.6383E-05    4.6753E-05    6.610000E+06  0.00400  2.620E-02    0   0.9220   age061_m42            0.0000     4.6288E+00     6.7845   3.1551   100.4304
  5      0.0000     0.0000E+00    0.0000E+00    1.000000E+07  0.00400  1.322E-02    0   0.8862   age070_m42            0.0000     5.5112E+00     7.8911   2.8457   103.8197
  6      0.0000     0.0000E+00    0.0000E+00    1.445000E+07  0.00400  7.883E-03    0   0.8571   age078_m42            0.0000     5.5590E+00     7.9357   3.1716   101.2722
  7      0.0000     0.0000E+00    0.0000E+00    2.512000E+07  0.00400  5.251E-03    0   0.8174   age090_m42            0.0000     5.7762E+00     8.1305   2.7118   104.5418
  8      1.8746     1.0644E-02    1.6062E-02    4.000000E+07  0.00400  3.649E-03    0   0.7851   age104_m42            0.0000     5.4409E+00     7.8619   2.4894   105.1797
  9      0.0000     0.0000E+00    0.0000E+00    5.500000E+07  0.00400  3.098E-03    0   0.7629   age110_m42            0.0000     4.9810E+00     7.2906   2.6607   104.3797
 10      0.8004     7.4432E-03    1.0310E-02    1.015200E+08  0.00400  2.228E-03    0   0.7207   age116_m42            0.0000     4.7239E+00     6.9724   2.6918   104.0830
 11      0.0000     0.0000E+00    0.0000E+00    2.861200E+08  0.00400  1.093E-03    0   0.6648   age125_m42            0.0000     5.1267E+00     7.5081   2.1204   107.5073
 12      0.0000     0.0000E+00    0.0000E+00    5.088000E+08  0.00400  6.597E-04    0   0.6365   age130_m42            0.0000     4.3319E+00     6.9130   2.1249   107.6864
 13      4.6784     4.5467E-01    5.0668E-01    1.434000E+09  0.00400  2.132E-04    0   0.5798   age139_m42            0.0000     2.6095E+00     5.3620   1.1515   109.8341
 14      0.0041     1.4531E-03    1.5017E-03    4.250000E+09  0.00400  5.895E-05    0   0.5377   age158_m42            0.0000     1.3323E+00     3.6714   0.7142   105.6138
 15      0.0247     1.4558E-02    1.4583E-02    7.500000E+09  0.00400  3.510E-05    0   0.5212   age171_m42            0.0000     1.0299E+00     3.1446   0.5333   104.7131
 16     12.9952     1.3429E+01    1.2993E+01    1.300000E+10  0.00400  2.005E-05    0   0.5034   age193_m42            0.0000     8.7320E-01     2.8623   0.3745   103.9957
 17      1.7090     2.3220E+00    2.2167E+00    1.800000E+10  0.00400  1.525E-05    0   0.4967   age213_m42            0.0000     9.0770E-01     2.9345   0.3487   103.6282
 18      0.7247     1.2128E-03    2.3311E-03    1.000000E+06  0.00800  1.238E-02    0   1.0000   age020_m52            0.0000     5.1417E+00     7.3437   3.9306    94.8377
 19      0.0000     0.0000E+00    0.0000E+00    3.160000E+06  0.00800  3.074E-02    0   0.9966   age045_m52            0.0000     5.0693E+00     7.2199   3.8552    95.6026
 20      0.0000     0.0000E+00    0.0000E+00    5.010000E+06  0.00800  2.668E-02    0   0.9443   age055_m52            0.0000     4.8496E+00     7.0283   3.6172    97.4926
 21      2.8402     2.7551E-03    4.8594E-03    6.610000E+06  0.00800  2.136E-02    0   0.9177   age061_m52            0.0000     4.4356E+00     7.2842   2.3364   105.4561
 22      0.3333     5.6847E-04    9.6444E-04    1.000000E+07  0.00800  1.215E-02    0   0.8827   age070_m52            0.0000     5.9330E+00     8.3675   3.0166   104.0208
 23      0.3831     9.1050E-04    1.4966E-03    1.445000E+07  0.00800  8.717E-03    0   0.8552   age078_m52            0.0000     5.4506E+00     7.8630   3.1361   102.6933
 24      0.4503     1.6686E-03    2.6176E-03    2.512000E+07  0.00800  5.592E-03    0   0.8162   age090_m52            0.0000     5.7327E+00     8.1552   2.7767   105.7496
 25      0.0000     0.0000E+00    0.0000E+00    4.000000E+07  0.00800  3.896E-03    0   0.7841   age104_m52            0.0000     5.4059E+00     7.8279   2.7000   106.0965
 26      0.0000     0.0000E+00    0.0000E+00    1.015200E+08  0.00800  2.148E-03    0   0.7226   age116_m52            0.0000     4.7788E+00     7.1670   2.6525   105.2692
 27      0.0000     0.0000E+00    0.0000E+00    2.861200E+08  0.00800  9.925E-04    0   0.6683   age125_m52            0.0000     4.1457E+00     6.8254   2.1893   108.6915
 28      0.0000     0.0000E+00    0.0000E+00    9.047900E+08  0.00800  3.141E-04    0   0.6138   age135_m52            0.0000     2.4753E+00     5.2928   1.4081   112.4327
 29      0.0000     0.0000E+00    0.0000E+00    1.434000E+09  0.00800  1.719E-04    0   0.5853   age139_m52            0.0000     1.7616E+00     4.3164   0.8207   110.6198
 30      0.0000     0.0000E+00    0.0000E+00    2.500000E+09  0.00800  7.872E-05    0   0.5600   age150_m52            0.0000     9.0394E-01     2.9570   0.5621   107.2663
 31      0.0000     0.0000E+00    0.0000E+00    4.250000E+09  0.00800  4.336E-05    0   0.5426   age158_m52            0.0000     9.0620E-01     2.9151   0.5462   106.3063
 32      0.0000     0.0000E+00    0.0000E+00    6.250000E+09  0.00800  3.159E-05    0   0.5319   age166_m52            0.0000     7.2793E-01     2.6147   0.3534   105.9723
 33      0.0000     0.0000E+00    0.0000E+00    1.300000E+10  0.00800  1.361E-05    0   0.5073   age193_m52            0.0000     6.7448E-01     2.6577  -0.1044   104.8894
 34      0.0000     0.0000E+00    0.0000E+00    1.800000E+10  0.00800  9.886E-06    0   0.4990   age213_m52            0.0000     8.6993E-01     3.2038  -0.2003   103.9320
 35      0.0000     0.0000E+00    0.0000E+00    1.000000E+06  0.02000  1.544E-02    0   1.0000   age020_m62            0.0000     5.1699E+00     7.3626   3.9260    95.0881
 36      2.4444     1.3463E-03    2.5508E-03    3.160000E+06  0.02000  3.762E-02    0   0.9858   age045_m62            0.0000     5.1680E+00     7.3173   3.8652    95.9270
 37      0.0000     0.0000E+00    0.0000E+00    5.010000E+06  0.02000  3.296E-02    0   0.9342   age055_m62            0.0000     4.6145E+00     6.6956   3.5062    99.0871
 38      0.0000     0.0000E+00    0.0000E+00    8.710000E+06  0.02000  1.154E-02    0   0.8861   age067_m62            0.0000     1.0231E+01    11.8097   2.4095   109.7912
 39      0.0000     0.0000E+00    0.0000E+00    1.445000E+07  0.02000  7.663E-03    0   0.8472   age078_m62            0.0000     6.8289E+00     9.2948   2.6475   107.2370
 40      0.0000     0.0000E+00    0.0000E+00    2.512000E+07  0.02000  4.532E-03    0   0.8099   age090_m62            0.0000     7.2648E+00     9.5258   2.6415   106.8770
 41      0.0000     0.0000E+00    0.0000E+00    5.500000E+07  0.02000  2.733E-03    0   0.7595   age110_m62            0.0000     5.3045E+00     7.7596   2.6785   105.5410
 42      0.0035     5.3006E-05    7.1162E-05    1.609000E+08  0.02000  1.369E-03    0   0.6985   age120_m62            0.0000     4.6760E+00     7.1122   2.5410   107.3217
 43      0.0000     0.0000E+00    0.0000E+00    2.861200E+08  0.02000  9.013E-04    0   0.6714   age125_m62            0.0000     4.2716E+00     6.9116   2.3008   109.8664
 44      0.0000     0.0000E+00    0.0000E+00    5.088000E+08  0.02000  5.028E-04    0   0.6449   age130_m62            0.0000     3.1654E+00     6.0105   1.9454   111.7665
 45      0.0000     0.0000E+00    0.0000E+00    9.047900E+08  0.02000  2.428E-04    0   0.6179   age135_m62            0.0000     1.7273E+00     4.3094   1.3607   111.1978
 46      0.0000     0.0000E+00    0.0000E+00    1.434000E+09  0.02000  1.263E-04    0   0.5908   age139_m62            0.0000     1.1268E+00     3.3412   0.9126   109.8244
 47      0.0000     0.0000E+00    0.0000E+00    2.500000E+09  0.02000  5.985E-05    0   0.5673   age150_m62            0.0000     7.3846E-01     2.6191   0.5553   108.0446
 48     35.5134     2.2496E+01    2.3642E+01    4.250000E+09  0.02000  3.271E-05    0   0.5468   age158_m62            0.0000     6.5401E-01     2.5803   0.2632   106.6374
 49      1.2072     1.8392E+00    1.8265E+00    1.000000E+10  0.02000  1.360E-05    0   0.5167   age181_m62            0.0000     1.1349E+00     3.7153  -0.0669   105.5219
 50      1.9580     5.6949E+00    5.4870E+00    1.800000E+10  0.02000  7.124E-06    0   0.5013   age213_m62            0.0000     1.7782E+00     4.7417  -0.2600   104.0720
 51      0.0000     0.0000E+00    0.0000E+00    1.000000E+06  0.05000  2.592E-02    0   0.9998   age020_m72            0.0000     5.2833E+00     7.4701   3.9150    95.2163
 52      0.0000     0.0000E+00    0.0000E+00    3.160000E+06  0.05000  4.845E-02    0   0.9577   age045_m72            0.0000     4.9301E+00     6.9953   3.7583    96.7475
 53      0.0000     0.0000E+00    0.0000E+00    5.010000E+06  0.05000  3.072E-02    0   0.9147   age055_m72            0.0000     6.0900E+00     8.6237   3.2550   102.4565
 54      0.0000     0.0000E+00    0.0000E+00    6.610000E+06  0.05000  1.455E-02    0   0.8877   age061_m72            0.0000     1.5599E+01    14.5096   2.4642   111.3990
 55      0.0000     0.0000E+00    0.0000E+00    1.000000E+07  0.05000  9.074E-03    0   0.8524   age070_m72            0.0000     6.9647E+00     9.1866   3.4619   101.6567
 56      0.0000     0.0000E+00    0.0000E+00    2.512000E+07  0.05000  4.250E-03    0   0.7902   age090_m72            0.0000     6.5761E+00     8.7867   3.1544   103.4495
 57      0.0000     0.0000E+00    0.0000E+00    4.000000E+07  0.05000  3.087E-03    0   0.7618   age104_m72            0.0000     6.9261E+00     8.9580   2.9238   105.2315
 58      0.0000     0.0000E+00    0.0000E+00    1.015200E+08  0.05000  1.700E-03    0   0.7096   age116_m72            0.0000     5.3088E+00     7.6362   2.6776   107.1918
 59      0.0000     0.0000E+00    0.0000E+00    2.861200E+08  0.05000  7.384E-04    0   0.6633   age125_m72            0.0000     3.6304E+00     6.4341   2.1797   110.8564
 60      0.0000     0.0000E+00    0.0000E+00    5.088000E+08  0.05000  3.819E-04    0   0.6372   age130_m72            0.0000     2.1378E+00     4.8482   1.6983   112.1440
 61      0.0000     0.0000E+00    0.0000E+00    9.047900E+08  0.05000  1.676E-04    0   0.6110   age135_m72            0.0000     9.8150E-01     3.0347   1.0117   109.9607
 62      0.0000     0.0000E+00    0.0000E+00    1.434000E+09  0.05000  8.837E-05    0   0.5874   age139_m72            0.0000     7.3982E-01     2.6977   0.5577   109.4713
 63     25.5745     1.2518E+01    1.3469E+01    2.500000E+09  0.05000  4.233E-05    0   0.5598   age150_m72            0.0000     7.6014E-01     2.8909   0.2676   107.3477
 64      6.7218     9.7056E+00    9.7915E+00    6.250000E+09  0.05000  1.435E-05    0   0.5249   age166_m72            0.0000     1.3382E+00     4.0176  -0.1589   104.8926
 65      1.3254     4.2165E+00    4.0812E+00    1.300000E+10  0.05000  6.513E-06    0   0.5036   age193_m72            0.0000     2.3283E+00     5.4035  -0.4183   105.1252
 66      5.9605     2.7281E+01    2.5929E+01    1.800000E+10  0.05000  4.527E-06    0   0.4945   age213_m72            0.0000     3.1386E+00     6.2674  -0.5642   104.3306


## Synthesis Results - Average & Chains ##

# j      x_j: min, <> & last-chain-values for 1 ...  7 chains
  1      0.0000      0.0911      0.0891      0.0000      0.0000      0.0000      0.0000      0.0637      0.0000
  2      0.0000      0.1046      0.0000      0.6814      0.2354      0.0000      0.0000      0.0000      0.0000
  3      0.0000      0.2124      0.3163      0.1998      0.0000      0.0000      0.4975      0.5269      0.0000
  4      0.0334      0.1598      0.4920      0.0000      0.0000      0.0000      1.5227      0.0000      0.0000
  5      0.0000      0.1769      0.0000      0.5210      0.3801      1.1194      0.3559      0.0465      0.1528
  6      0.0000      0.2671      0.3577      0.3247      0.0000      0.0681      0.7099      0.0000      0.0000
  7      0.0000      0.0919      0.0000      0.0898      0.0000      0.0000      0.0000      0.9254      0.0000
  8      1.8746      0.2346      0.7985      0.0000      0.8218      0.3250      0.0000      0.0000      0.7436
  9      0.0000      0.2133      0.1752      0.0000      0.4824      0.9403      0.7545      0.0000      0.1916
 10      0.8004      0.7767      0.7727      0.5083      0.7406      0.0000      1.1595      1.5948      0.8380
 11      0.0000      0.0743      0.0000      0.0000      0.2252      0.1529      0.0000      0.0000      0.0000
 12      0.0000      0.0739      0.0281      0.0587      0.2058      0.0000      0.0000      0.0000      0.3281
 13      4.6784      2.8040      3.5008      2.6351      3.0620      1.7113      2.7971      3.4068      2.9173
 14      0.0041      1.5217      0.6103      0.9781      2.7141      0.0000      0.0000      2.5007      0.0000
 15      0.0247      2.7581      2.6647      1.9968      2.4797      2.2834      0.0000      1.7872      1.9817
 16     12.9952      8.0761      4.8061      8.3006      9.3662     10.2328     13.8958      6.9250      8.9204
 17      1.7090      4.1219      7.7531      4.2304      2.3558      5.3413      0.0000      7.1555      4.3374
 18      0.7247      0.1029      0.8351      0.3034      0.0521      0.1226      0.2563      0.0000      0.1269
 19      0.0000      0.0867      0.0443      0.0000      0.0000      0.0000      0.0000      0.0000      0.0000
 20      0.0000      0.1640      0.0000      0.0000      0.0000      0.7630      0.0000      0.0000      0.0000
 21      2.8402      2.4569      1.9092      2.4958      1.6571      2.3270      1.7101      1.3598      2.7305
 22      0.3333      0.1560      0.6191      0.2022      0.4228      0.5181      0.0664      0.0000      0.0000
 23      0.3831      0.1612      1.0553      0.0000      0.3162      0.6530      0.0000      0.4144      0.2100
 24      0.4503      0.3916      0.6740      0.8306      0.2394      0.3614      1.1685      0.6027      0.3778
 25      0.0000      0.1376      0.0000      0.0000      0.0000      0.3869      0.0000      0.5373      0.0000
 26      0.0000      0.1032      0.0000      0.1419      0.7240      0.0000      0.0000      0.0000      0.0000
 27      0.0000      0.2446      0.0000      0.0000      0.0000      0.0000      0.0000      0.2112      0.0000
 28      0.0000      0.2890      0.0000      0.0000      0.0597      0.5319      0.3497      0.0000      0.0000
 29      0.0000      0.2020      0.0000      0.0202      0.0000      0.0182      0.0000      0.0000      0.0000
 30      0.0000      0.5297      0.0000      0.1963      0.0000      0.0000      0.0000      0.0000      0.7327
 31      0.0000      0.4289      0.0000      0.0000      0.3202      0.1079      0.4538      0.0000      0.0000
 32      0.0000      0.6605      0.0000      0.4408      0.0000      0.0000      0.3484      0.0000      0.0000
 33      0.0000      0.3557      0.0000      0.0000      0.0001      0.0000      0.0000      0.0000      1.6250
 34      0.0000      0.2672      0.0000      0.0000      0.0000      0.0000      2.3274      0.2987      0.7465
 35      0.0000      0.2721      0.0912      0.4156      1.3184      0.5826      0.7030      0.4797      0.4862
 36      2.4444      0.3817      1.0077      0.9683      0.2485      0.5984      0.2685      1.2252      0.5603
 37      0.0000      0.1967      0.0000      0.1841      0.0000      0.0000      0.3717      0.0000      0.3482
 38      0.0000      0.1731      0.0000      0.0000      0.1485      0.0000      0.0000      0.5445      0.0000
 39      0.0000      0.1577      0.0000      0.0000      0.0833      0.0000      0.0000      0.0000      0.8391
 40      0.0000      0.1485      0.0000      0.6386      0.3440      0.0000      0.0132      0.1940      0.0000
 41      0.0000      0.1146      0.0000      0.0000      0.1136      0.0000      0.0000      0.0000      0.4415
 42      0.0035      0.1950      0.7641      0.0000      0.0000      0.0000      0.0000      0.0785      0.0000
 43      0.0000      0.1122      0.0949      0.0000      0.0000      0.0000      0.1712      0.1256      0.0000
 44      0.0000      0.1610      0.0000      0.6620      0.7071      0.0000      0.8555      0.0000      0.0000
 45      0.0000      0.1477      0.0539      0.0000      0.0000      0.5286      0.0000      0.0000      0.0000
 46      0.0000      0.1636      0.1100      0.0000      0.0000      0.0000      0.1881      0.0000      0.0000
