###################################################################
## OUTPUT of StarlightChains_v04.for    [Cid@UFSC - 01/Apr/2007] ##
###################################################################

## Some input info
2013ej.txt                               [arq_obs]
Base.CB07.vall.4m                        [arq_base]
Masks.EmLines.NEW.gm                     [arq_masks]
StCv04.C11.config                        [arq_config]
   66                                    [N_base]
    0                                    [N_YAV_components = # of components with extra extinction!]
    0                                    [i_FitPowerLaw (1/0 = Yes/No)]
-9.99                                    [alpha_PowerLaw]
CCM                                      [red_law_option]
 1.458241                                [q_norm = A(l_norm)/A(V)]

## (Re)Sampling Parameters
 3741.00                                 [l_ini (A)]
 7218.00                                 [l_fin (A)]
    1.00                                 [dl    (A)]     (OBS: dl_cushion =    50.00 A)

## Normalization info
 4020.00                                 [l_norm (A) - for base]
 4010.00                                 [llow_norm (A) - window for f_obs]
 4060.00                                 [lupp_norm (A) - window for f_obs]
2.272868E-13                             [fobs_norm (in input units)]

## S/N
 3691.00                                 [llow_SN (A) - window for S/N]
 7268.00                                 [lupp_SN (A) - window for S/N]
   8.792                                 [S/N in S/N window]
   8.912                                 [S/N in norm. window]
  10.000                                 [S/N_err in S/N window]
  10.137                                 [S/N_err in norm. window]
  1.0000                                 [fscale_chi2]

## etc...
    -2007407                             [idum_orig]
  2405                                   [NOl_eff]
  2400                                   [Nl_eff]
     5    NSIGMA                         [Ntot_cliped & clip_method]
  1308090                                [Nglobal_steps]
   7                                     [N_chains]
  21                                     [NEX0s_base = N_base in EX0s-fits]
 0   0   1      115   2.0   1.340E+01    [Clip-Bug, RC-Crash & Burn-In warning-flags, n_censored_weights, wei_nsig_threshold & wei_limit]
    15     14.762     14.260      0.503  [idt_all, wdt_TotTime, wdt_UsrTime & wdt_SysTime (sec)]

## Synthesis Results - Best model ##

 2.62244E-01                             [chi2/Nl_eff]
     3.62164                             [adev (%)]

    95.45419                             [sum-of-x (%)]
 3.35451E-13                             [Flux_tot (units of input spectrum!)]
 8.90140E-09                             [Mini_tot (???)]
 4.55211E-09                             [Mcor_tot (???)]

-309.08                                  [v0_min  (km/s)]
 319.91                                  [vd_min  (km/s)]
 0.3245                                  [AV_min  (mag)]
 0.0000                                  [YAV_min (mag)]

# j     x_j(%)      Mini_j(%)     Mcor_j(%)     age_j(yr)     Z_j      (L/M)_j    YAV?  Mstars   component_j        a/Fe...       SSP_chi2r SSP_adev(%)   SSP_AV   SSP_x(%)
  1      0.0000     0.0000E+00    0.0000E+00    1.000000E+06  0.00400  1.094E-02    0   1.0000   age020_m42            0.0000     5.7840E-01     5.2329   3.3126    82.9888
  2      0.0000     0.0000E+00    0.0000E+00    3.160000E+06  0.00400  4.007E-02    0   0.9999   age045_m42            0.0000     5.0247E-01     4.9087   2.5743    89.0765
  3      0.0000     0.0000E+00    0.0000E+00    5.010000E+06  0.00400  2.539E-02    0   0.9488   age055_m42            0.0000     5.2237E-01     4.9379   2.9001    86.7049
  4      0.0000     0.0000E+00    0.0000E+00    6.610000E+06  0.00400  2.620E-02    0   0.9220   age061_m42            0.0000     5.1224E-01     4.8587   2.5012    89.2363
  5      0.0000     0.0000E+00    0.0000E+00    1.000000E+07  0.00400  1.322E-02    0   0.8862   age070_m42            0.0000     5.1843E-01     4.9566   2.2181    90.9698
  6      0.0000     0.0000E+00    0.0000E+00    1.445000E+07  0.00400  7.883E-03    0   0.8571   age078_m42            0.0000     5.3589E-01     4.9858   2.5492    88.5488
  7      0.0000     0.0000E+00    0.0000E+00    2.512000E+07  0.00400  5.251E-03    0   0.8174   age090_m42            0.0000     5.3966E-01     5.1332   2.0879    91.4352
  8      0.0000     0.0000E+00    0.0000E+00    4.000000E+07  0.00400  3.649E-03    0   0.7851   age104_m42            0.0000     5.1685E-01     5.0305   1.8567    92.3633
  9      0.0000     0.0000E+00    0.0000E+00    5.500000E+07  0.00400  3.098E-03    0   0.7629   age110_m42            0.0000     5.3772E-01     4.9574   2.0097    92.4836
 10      0.0000     0.0000E+00    0.0000E+00    1.015200E+08  0.00400  2.228E-03    0   0.7207   age116_m42            0.0000     5.7629E-01     5.0393   2.0295    92.7357
 11      0.0000     0.0000E+00    0.0000E+00    2.861200E+08  0.00400  1.093E-03    0   0.6648   age125_m42            0.0000     5.7563E-01     5.1287   1.4516    95.7514
 12      0.0000     0.0000E+00    0.0000E+00    5.088000E+08  0.00400  6.597E-04    0   0.6365   age130_m42            0.0000     6.1067E-01     5.1682   1.4392    96.7721
 13      0.0000     0.0000E+00    0.0000E+00    1.434000E+09  0.00400  2.132E-04    0   0.5798   age139_m42            0.0000     5.0250E-01     4.8207   0.4593    99.1258
 14      0.0049     3.2956E-03    3.4651E-03    4.250000E+09  0.00400  5.895E-05    0   0.5377   age158_m42            0.0000     3.9310E-01     4.3880   0.0155    95.6180
 15      6.6683     7.5004E+00    7.6443E+00    7.500000E+09  0.00400  3.510E-05    0   0.5212   age171_m42            0.0000     4.4260E-01     4.6876  -0.1750    95.1432
 16     25.9454     5.1088E+01    5.0290E+01    1.300000E+10  0.00400  2.005E-05    0   0.5034   age193_m42            0.0000     5.0433E-01     4.9996  -0.3418    94.7549
 17     11.2009     2.8997E+01    2.8164E+01    1.800000E+10  0.00400  1.525E-05    0   0.4967   age213_m42            0.0000     4.8814E-01     4.9326  -0.3639    94.2854
 18      8.7893     2.8029E-02    5.4810E-02    1.000000E+06  0.00800  1.238E-02    0   1.0000   age020_m52            0.0000     5.7631E-01     5.2236   3.3089    83.1537
 19      1.3433     1.7253E-03    3.3622E-03    3.160000E+06  0.00800  3.074E-02    0   0.9966   age045_m52            0.0000     5.6945E-01     5.1722   3.2321    83.8967
 20      0.0000     0.0000E+00    0.0000E+00    5.010000E+06  0.00800  2.668E-02    0   0.9443   age055_m52            0.0000     5.3011E-01     4.9406   2.9845    85.8637
 21      4.2972     7.9426E-03    1.4253E-02    6.610000E+06  0.00800  2.136E-02    0   0.9177   age061_m52            0.0000     3.8960E-01     4.3996   1.7124    92.2889
 22      0.0000     0.0000E+00    0.0000E+00    1.000000E+07  0.00800  1.215E-02    0   0.8827   age070_m52            0.0000     5.4518E-01     5.1198   2.3990    90.6536
 23      0.0000     0.0000E+00    0.0000E+00    1.445000E+07  0.00800  8.717E-03    0   0.8552   age078_m52            0.0000     5.2318E-01     4.9443   2.5136    89.8156
 24      0.0000     0.0000E+00    0.0000E+00    2.512000E+07  0.00800  5.592E-03    0   0.8162   age090_m52            0.0000     5.4418E-01     5.1712   2.1509    92.5470
 25      0.0000     0.0000E+00    0.0000E+00    4.000000E+07  0.00800  3.896E-03    0   0.7841   age104_m52            0.0000     5.3455E-01     5.0682   2.0600    93.4234
 26      0.0000     0.0000E+00    0.0000E+00    1.015200E+08  0.00800  2.148E-03    0   0.7226   age116_m52            0.0000     5.2929E-01     4.9098   1.9956    93.4854
 27      0.0000     0.0000E+00    0.0000E+00    2.861200E+08  0.00800  9.925E-04    0   0.6683   age125_m52            0.0000     6.2679E-01     5.1725   1.5032    97.6942
 28      0.0000     0.0000E+00    0.0000E+00    9.047900E+08  0.00800  3.141E-04    0   0.6138   age135_m52            0.0000     5.9488E-01     5.0968   0.6924   102.4316
 29      0.0000     0.0000E+00    0.0000E+00    1.434000E+09  0.00800  1.719E-04    0   0.5853   age139_m52            0.0000     4.6223E-01     4.6529   0.1114   100.4167
 30      0.0000     0.0000E+00    0.0000E+00    2.500000E+09  0.00800  7.872E-05    0   0.5600   age150_m52            0.0000     5.1265E-01     4.9967  -0.1581    97.9608
 31      0.0065     5.8949E-03    6.2547E-03    4.250000E+09  0.00800  4.336E-05    0   0.5426   age158_m52            0.0000     5.1293E-01     5.0295  -0.1738    97.0743
 32      0.0136     1.6951E-02    1.7631E-02    6.250000E+09  0.00800  3.159E-05    0   0.5319   age166_m52            0.0000     6.5136E-01     5.6440  -0.3796    97.3038
 33      0.0000     0.0000E+00    0.0000E+00    1.300000E+10  0.00800  1.361E-05    0   0.5073   age193_m52            0.0000     9.0151E-01     6.5919  -0.8498    96.8277
 34      0.0000     0.0000E+00    0.0000E+00    1.800000E+10  0.00800  9.886E-06    0   0.4990   age213_m52            0.0000     1.1236E+00     7.3250  -0.9574    96.4127
 35      5.8581     1.4979E-02    2.9291E-02    1.000000E+06  0.02000  1.544E-02    0   1.0000   age020_m62            0.0000     5.7754E-01     5.2309   3.3038    83.3807
 36      3.5069     3.6802E-03    7.0943E-03    3.160000E+06  0.02000  3.762E-02    0   0.9858   age045_m62            0.0000     5.7848E-01     5.2100   3.2431    84.1061
 37      0.0000     0.0000E+00    0.0000E+00    5.010000E+06  0.02000  3.296E-02    0   0.9342   age055_m62            0.0000     5.2063E-01     4.8948   2.8566    87.9299
 38      0.0000     0.0000E+00    0.0000E+00    8.710000E+06  0.02000  1.154E-02    0   0.8861   age067_m62            0.0000     9.5419E-01     7.5228   1.8522    92.6112
 39      0.0000     0.0000E+00    0.0000E+00    1.445000E+07  0.02000  7.663E-03    0   0.8472   age078_m62            0.0000     5.9428E-01     5.5948   2.0422    92.6974
 40      0.0000     0.0000E+00    0.0000E+00    2.512000E+07  0.02000  4.532E-03    0   0.8099   age090_m62            0.0000     6.4564E-01     5.8308   2.0349    92.3893
 41      0.0000     0.0000E+00    0.0000E+00    5.500000E+07  0.02000  2.733E-03    0   0.7595   age110_m62            0.0000     5.2205E-01     4.9755   2.0436    92.7302
 42      0.0000     0.0000E+00    0.0000E+00    1.609000E+08  0.02000  1.369E-03    0   0.6985   age120_m62            0.0000     6.1121E-01     5.1130   1.8750    95.6824
 43      0.0000     0.0000E+00    0.0000E+00    2.861200E+08  0.02000  9.013E-04    0   0.6714   age125_m62            0.0000     7.1901E-01     5.4205   1.6187    98.7202
 44      0.0000     0.0000E+00    0.0000E+00    5.088000E+08  0.02000  5.028E-04    0   0.6449   age130_m62            0.0000     7.6139E-01     5.5485   1.2337   101.8051
 45      0.0000     0.0000E+00    0.0000E+00    9.047900E+08  0.02000  2.428E-04    0   0.6179   age135_m62            0.0000     5.7553E-01     5.0517   0.6385   101.7053
 46      0.0000     0.0000E+00    0.0000E+00    1.434000E+09  0.02000  1.263E-04    0   0.5908   age139_m62            0.0000     5.2456E-01     5.0271   0.1911   100.4171
 47     17.3056     1.1416E+01    1.2664E+01    2.500000E+09  0.02000  5.985E-05    0   0.5673   age150_m62            0.0000     6.3659E-01     5.6339  -0.1780    99.3068
 48      0.0000     0.0000E+00    0.0000E+00    4.250000E+09  0.02000  3.271E-05    0   0.5468   age158_m62            0.0000     8.9587E-01     6.6516  -0.4855    98.6779
 49      0.0000     0.0000E+00    0.0000E+00    1.000000E+10  0.02000  1.360E-05    0   0.5167   age181_m62            0.0000     1.3232E+00     7.9985  -0.8340    98.3714
 50      0.0000     0.0000E+00    0.0000E+00    1.800000E+10  0.02000  7.124E-06    0   0.5013   age213_m62            0.0000     1.6920E+00     8.9966  -1.0000    96.0942
 51      6.6698     1.0159E-02    1.9862E-02    1.000000E+06  0.05000  2.592E-02    0   0.9998   age020_m72            0.0000     5.8884E-01     5.2960   3.2979    83.3142
 52      0.0000     0.0000E+00    0.0000E+00    3.160000E+06  0.05000  4.845E-02    0   0.9577   age045_m72            0.0000     5.5628E-01     5.0857   3.1237    85.3178
 53      0.0000     0.0000E+00    0.0000E+00    5.010000E+06  0.05000  3.072E-02    0   0.9147   age055_m72            0.0000     5.6465E-01     5.0975   2.6342    89.1497
 54      0.0000     0.0000E+00    0.0000E+00    6.610000E+06  0.05000  1.455E-02    0   0.8877   age061_m72            0.0000     1.5051E+00     9.8014   1.8951    93.3333
 55      0.0000     0.0000E+00    0.0000E+00    1.000000E+07  0.05000  9.074E-03    0   0.8524   age070_m72            0.0000     6.9278E-01     5.6201   2.8174    88.8886
 56      0.0000     0.0000E+00    0.0000E+00    2.512000E+07  0.05000  4.250E-03    0   0.7902   age090_m72            0.0000     6.2679E-01     5.4176   2.5122    90.7057
 57      0.0000     0.0000E+00    0.0000E+00    4.000000E+07  0.05000  3.087E-03    0   0.7618   age104_m72            0.0000     6.6037E-01     5.6406   2.2816    92.2784
 58      0.0000     0.0000E+00    0.0000E+00    1.015200E+08  0.05000  1.700E-03    0   0.7096   age116_m72            0.0000     6.2575E-01     5.2394   2.0185    95.1744
 59      0.0000     0.0000E+00    0.0000E+00    2.861200E+08  0.05000  7.384E-04    0   0.6633   age125_m72            0.0000     7.6458E-01     5.5217   1.4832   100.2888
 60      0.0000     0.0000E+00    0.0000E+00    5.088000E+08  0.05000  3.819E-04    0   0.6372   age130_m72            0.0000     6.7628E-01     5.3612   0.9821   102.4576
 61      3.8444     9.0559E-01    1.0820E+00    9.047900E+08  0.05000  1.676E-04    0   0.6110   age135_m72            0.0000     6.6627E-01     5.7754   0.2789   101.1977
 62      0.0000     0.0000E+00    0.0000E+00    1.434000E+09  0.05000  8.837E-05    0   0.5874   age139_m72            0.0000     7.1040E-01     5.9536  -0.1809   100.8722
 63      0.0000     0.0000E+00    0.0000E+00    2.500000E+09  0.05000  4.233E-05    0   0.5598   age150_m72            0.0000     1.0035E+00     7.0498  -0.4874    99.6243
 64      0.0000     0.0000E+00    0.0000E+00    6.250000E+09  0.05000  1.435E-05    0   0.5249   age166_m72            0.0000     1.4264E+00     8.3980  -0.9307    97.9927
 65      0.0000     0.0000E+00    0.0000E+00    1.300000E+10  0.05000  6.513E-06    0   0.5036   age193_m72            0.0000     2.0441E+00     9.8396  -1.0000    91.4328
 66      0.0000     0.0000E+00    0.0000E+00    1.800000E+10  0.05000  4.527E-06    0   0.4945   age213_m72            0.0000     2.6327E+00    11.1453  -1.0000    85.6235


## Synthesis Results - Average & Chains ##

# j      x_j: min, <> & last-chain-values for 1 ...  7 chains
  1      0.0000      0.5871      0.0000      0.0000      1.3037      0.0000      1.4126      2.3639      0.0000
  2      0.0000      0.5184      0.0000      0.4081      0.0000      0.4269      0.0810      0.0000      1.9736
  3      0.0000      0.2204      0.0000      0.0000      0.0000      0.9714      0.0000      0.1509      0.0000
  4      0.0000      0.2259      0.3395      0.0000      0.0000      0.0987      0.0000      1.2493      0.0000
  5      0.0000      0.4739      0.0000      0.7491      0.4715      0.0000      0.0000      0.0000      1.5964
  6      0.0000      0.2205      0.0000      0.0000      0.0000      0.0000      0.0000      0.0000      0.5934
  7      0.0000      0.3937      0.0000      0.0000      0.0000      0.0000      0.1823      0.0000      0.0000
  8      0.0000      0.3200      0.0000      0.0000      0.0000      0.0000      0.0000      0.0000      0.0000
  9      0.0000      0.2008      0.0000      0.0000      0.0000      0.0000      0.0000      0.0571      0.0000
 10      0.0000      0.1344      0.0000      0.0000      0.0000      0.0000      0.0000      0.0000      0.0000
 11      0.0000      0.2498      0.0000      0.0000      0.2500      0.0000      1.6496      0.0000      0.0000
 12      0.0000      0.6645      0.0000      0.0000      0.0000      0.0000      0.0000      0.0000      0.9840
 13      0.0000      0.6381      0.0000      0.4121      0.0000      0.6197      0.2402      0.0000      0.0000
 14      0.0049      2.5665      0.6053      1.0933      1.9991      3.0969      0.0000      3.7572      1.4008
 15      6.6683      7.0762     10.2655      6.6300     10.8392      7.6340     10.0127      7.9464      8.9445
 16     25.9454      8.4033     11.4714     11.9015      9.5600      9.8640      8.7858      9.4201      6.7173
 17     11.2009      6.7709      7.6077      8.7689      4.9556      5.7604      7.9614      6.6290      6.8882
 18      8.7893      7.0432      7.4046      8.6645      7.1415      8.8185      8.6984      6.2581      7.8821
 19      1.3433      3.7141      4.0039      5.2064      3.7748      3.0737      6.7407      3.6956      3.0401
 20      0.0000      0.2185      0.0000      0.0000      0.0000      0.0000      0.0000      0.0000      0.0000
 21      4.2972      2.6496      3.7943      2.3993      3.3458      3.3995      0.0000      2.1944      1.7660
 22      0.0000      0.5986      0.0000      0.0000      0.0000      0.2332      0.0000      0.0000      0.0000
 23      0.0000      0.2406      0.0000      0.1519      0.0000      0.0000      0.0000      0.0000      0.0000
 24      0.0000      0.5793      1.6625      0.0000      0.0000      0.0000      0.5563      0.4325      0.0000
 25      0.0000      0.2847      0.0000      0.0000      0.0000      0.0000      0.0000      0.0000      0.0650
 26      0.0000      0.1757      0.9846      0.3379      0.0396      0.0000      1.0729      0.0000      0.8161
 27      0.0000      0.2580      0.0000      0.0000      0.0000      0.5879      0.0000      1.6790      0.0000
 28      0.0000      0.6588      0.5670      0.0000      0.6697      0.0000      0.0000      0.0000      0.0000
 29      0.0000      0.6703      0.0000      0.0000      0.0000      0.0000      0.9791      0.5865      0.0000
 30      0.0000      0.8845      1.0453      0.0000      0.0000      0.0000      0.8425      4.4785      0.3342
 31      0.0065      3.5091      3.6309      0.8778      2.1164      5.2099      2.6872      3.6585      6.9376
 32      0.0136      0.6628      0.5209      0.0000      2.6072      1.6383      0.0000      0.0000      0.1380
 33      0.0000      0.5619      0.0000      1.7275      0.0000      0.0000      0.0000      0.0000      1.7976
 34      0.0000      0.2848      0.0000      0.2766      0.0000      0.0000      0.2985      0.0000      0.2454
 35      5.8581      4.8667      4.4721      5.0904      6.9105      6.6168      5.7687      5.2829      6.5291
 36      3.5069      2.3337      1.5411      2.6305      1.7235      2.2033      1.1918      4.7124      2.8613
 37      0.0000      0.1940      0.0000      0.0000      0.0000      0.0000      0.0000      0.0224      0.0000
 38      0.0000      0.4204      0.0000      0.4190      0.0000      0.0000      0.0000      1.2766      1.6672
 39      0.0000      0.3660      0.0000      0.0000      0.1373      0.0000      0.0000      0.0000      0.7859
 40      0.0000      0.3313      0.0000      0.0000      0.0000      0.0000      0.0000      0.0000      0.4873
 41      0.0000      0.2478      0.0000      0.4055      0.0000      0.0000      0.0000      0.0000      1.0324
 42      0.0000      0.1799      0.0000      0.0000      2.4517      0.0000      0.0000      0.0000      0.0000
 43      0.0000      0.2479      0.0000      0.1463      0.0000      0.0000      0.0000      1.0775      0.1157
 44      0.0000      0.2649      0.3352      0.0000      1.5204      0.0000      0.0000      0.0000      0.0000
 45      0.0000      1.2330      0.0000      4.0350      1.1107      0.0000      1.5056      5.2990      0.0000
 46      0.0000      2.5034      1.2237      4.6478      0.0000      2.0727      3.9145      0.0000      2.9826
