###################################################################
## OUTPUT of StarlightChains_v04.for    [Cid@UFSC - 01/Apr/2007] ##
###################################################################

## Some input info
2013fw.txt                               [arq_obs]
Base.CB07.vall.4m                        [arq_base]
Masks.EmLines.NEW.gm                     [arq_masks]
StCv04.C11.config                        [arq_config]
   66                                    [N_base]
    0                                    [N_YAV_components = # of components with extra extinction!]
    0                                    [i_FitPowerLaw (1/0 = Yes/No)]
-9.99                                    [alpha_PowerLaw]
CCM                                      [red_law_option]
 1.458241                                [q_norm = A(l_norm)/A(V)]

## (Re)Sampling Parameters
 3741.00                                 [l_ini (A)]
 7218.00                                 [l_fin (A)]
    1.00                                 [dl    (A)]     (OBS: dl_cushion =    50.00 A)

## Normalization info
 4020.00                                 [l_norm (A) - for base]
 4010.00                                 [llow_norm (A) - window for f_obs]
 4060.00                                 [lupp_norm (A) - window for f_obs]
2.075042E-16                             [fobs_norm (in input units)]

## S/N
 3691.00                                 [llow_SN (A) - window for S/N]
 7268.00                                 [lupp_SN (A) - window for S/N]
   9.094                                 [S/N in S/N window]
   9.849                                 [S/N in norm. window]
  21.115                                 [S/N_err in S/N window]
  22.868                                 [S/N_err in norm. window]
  1.0000                                 [fscale_chi2]

## etc...
    -2007408                             [idum_orig]
  2386                                   [NOl_eff]
  2386                                   [Nl_eff]
     0    NSIGMA                         [Ntot_cliped & clip_method]
  2230690                                [Nglobal_steps]
   7                                     [N_chains]
  37                                     [NEX0s_base = N_base in EX0s-fits]
 0   0   1        1   2.0   5.362E+01    [Clip-Bug, RC-Crash & Burn-In warning-flags, n_censored_weights, wei_nsig_threshold & wei_limit]
    19     18.682     18.178      0.504  [idt_all, wdt_TotTime, wdt_UsrTime & wdt_SysTime (sec)]

## Synthesis Results - Best model ##

 4.17549E-01                             [chi2/Nl_eff]
     2.21396                             [adev (%)]

   103.62672                             [sum-of-x (%)]
 2.39381E-16                             [Flux_tot (units of input spectrum!)]
 4.90463E-12                             [Mini_tot (???)]
 2.57806E-12                             [Mcor_tot (???)]

  78.35                                  [v0_min  (km/s)]
 142.57                                  [vd_min  (km/s)]
 0.0799                                  [AV_min  (mag)]
 0.0000                                  [YAV_min (mag)]

# j     x_j(%)      Mini_j(%)     Mcor_j(%)     age_j(yr)     Z_j      (L/M)_j    YAV?  Mstars   component_j        a/Fe...       SSP_chi2r SSP_adev(%)   SSP_AV   SSP_x(%)
  1      0.9635     4.1480E-03    7.8914E-03    1.000000E+06  0.00400  1.094E-02    0   1.0000   age020_m42            0.0000     3.2400E+00     6.2848   3.0663    83.9146
  2      2.5874     3.0413E-03    5.7854E-03    3.160000E+06  0.00400  4.007E-02    0   0.9999   age045_m42            0.0000     2.5319E+00     5.1048   2.3126    91.1203
  3      1.0318     1.9139E-03    3.4548E-03    5.010000E+06  0.00400  2.539E-02    0   0.9488   age055_m42            0.0000     2.7235E+00     5.5335   2.6401    88.4765
  4      0.0000     0.0000E+00    0.0000E+00    6.610000E+06  0.00400  2.620E-02    0   0.9220   age061_m42            0.0000     2.3564E+00     4.9656   2.2268    91.9140
  5      0.0000     0.0000E+00    0.0000E+00    1.000000E+07  0.00400  1.322E-02    0   0.8862   age070_m42            0.0000     1.9939E+00     4.9348   1.8736    97.3772
  6      0.0000     0.0000E+00    0.0000E+00    1.445000E+07  0.00400  7.883E-03    0   0.8571   age078_m42            0.0000     2.2756E+00     5.2644   2.2203    93.9349
  7      0.0000     0.0000E+00    0.0000E+00    2.512000E+07  0.00400  5.251E-03    0   0.8174   age090_m42            0.0000     1.9852E+00     4.9981   1.7271    98.7653
  8      0.0000     0.0000E+00    0.0000E+00    4.000000E+07  0.00400  3.649E-03    0   0.7851   age104_m42            0.0000     1.7863E+00     4.7397   1.5004    99.5729
  9      0.0000     0.0000E+00    0.0000E+00    5.500000E+07  0.00400  3.098E-03    0   0.7629   age110_m42            0.0000     1.8097E+00     4.5170   1.6822    98.1830
 10      0.0030     6.4459E-05    8.8380E-05    1.015200E+08  0.00400  2.228E-03    0   0.7207   age116_m42            0.0000     1.8500E+00     4.5078   1.7184    97.5968
 11      0.0082     3.5273E-04    4.4611E-04    2.861200E+08  0.00400  1.093E-03    0   0.6648   age125_m42            0.0000     1.6488E+00     4.6203   1.1232   102.1796
 12      0.0000     0.0000E+00    0.0000E+00    5.088000E+08  0.00400  6.597E-04    0   0.6365   age130_m42            0.0000     1.5406E+00     4.4181   1.1396   101.6382
 13      5.7394     1.2679E+00    1.3986E+00    1.434000E+09  0.00400  2.132E-04    0   0.5798   age139_m42            0.0000     6.9741E-01     3.0385   0.1679   103.6312
 14      0.0000     0.0000E+00    0.0000E+00    4.250000E+09  0.00400  5.895E-05    0   0.5377   age158_m42            0.0000     7.3506E-01     2.9689  -0.2071    96.3971
 15      0.0000     0.0000E+00    0.0000E+00    7.500000E+09  0.00400  3.510E-05    0   0.5212   age171_m42            0.0000     8.2936E-01     3.3296  -0.3685    94.5976
 16      0.0000     0.0000E+00    0.0000E+00    1.300000E+10  0.00400  2.005E-05    0   0.5034   age193_m42            0.0000     9.9745E-01     3.7822  -0.5080    93.0059
 17      0.0000     0.0000E+00    0.0000E+00    1.800000E+10  0.00400  1.525E-05    0   0.4967   age213_m42            0.0000     9.6675E-01     3.6995  -0.5364    92.8123
 18      0.0000     0.0000E+00    0.0000E+00    1.000000E+06  0.00800  1.238E-02    0   1.0000   age020_m52            0.0000     3.2246E+00     6.2834   3.0634    84.0469
 19      0.0000     0.0000E+00    0.0000E+00    3.160000E+06  0.00800  3.074E-02    0   0.9966   age045_m52            0.0000     3.1338E+00     6.1918   2.9859    84.8212
 20      0.0026     4.6025E-06    8.2682E-06    5.010000E+06  0.00800  2.668E-02    0   0.9443   age055_m52            0.0000     2.7073E+00     5.6402   2.7228    87.6515
 21      0.0000     0.0000E+00    0.0000E+00    6.610000E+06  0.00800  2.136E-02    0   0.9177   age061_m52            0.0000     1.5290E+00     4.4391   1.3807    98.0725
 22      1.4487     5.6157E-03    9.4305E-03    1.000000E+07  0.00800  1.215E-02    0   0.8827   age070_m52            0.0000     2.1064E+00     5.2555   2.0436    97.6948
 23      0.1958     1.0580E-03    1.7214E-03    1.445000E+07  0.00800  8.717E-03    0   0.8552   age078_m52            0.0000     2.0968E+00     5.0783   2.1788    95.5814
 24      1.1124     9.3693E-03    1.4548E-02    2.512000E+07  0.00800  5.592E-03    0   0.8162   age090_m52            0.0000     1.8504E+00     4.9228   1.7864   100.2385
 25      0.4062     4.9109E-03    7.3256E-03    4.000000E+07  0.00800  3.896E-03    0   0.7841   age104_m52            0.0000     1.7152E+00     4.6820   1.7088   100.5773
 26      0.0000     0.0000E+00    0.0000E+00    1.015200E+08  0.00800  2.148E-03    0   0.7226   age116_m52            0.0000     1.6536E+00     4.4099   1.6726    99.1145
 27      2.1011     9.9706E-02    1.2677E-01    2.861200E+08  0.00800  9.925E-04    0   0.6683   age125_m52            0.0000     1.3598E+00     4.2497   1.2003   102.8117
 28      0.0061     9.2037E-04    1.0747E-03    9.047900E+08  0.00800  3.141E-04    0   0.6138   age135_m52            0.0000     9.2285E-01     3.5288   0.4387   105.2994
 29      1.0824     2.9655E-01    3.3021E-01    1.434000E+09  0.00800  1.719E-04    0   0.5853   age139_m52            0.0000     6.6549E-01     2.8739  -0.1249   102.3393
 30      0.0000     0.0000E+00    0.0000E+00    2.500000E+09  0.00800  7.872E-05    0   0.5600   age150_m52            0.0000     8.2624E-01     3.4228  -0.3372    96.8055
 31      0.0000     0.0000E+00    0.0000E+00    4.250000E+09  0.00800  4.336E-05    0   0.5426   age158_m52            0.0000     8.7723E-01     3.5440  -0.3468    95.6173
 32      0.0000     0.0000E+00    0.0000E+00    6.250000E+09  0.00800  3.159E-05    0   0.5319   age166_m52            0.0000     1.1391E+00     4.2537  -0.5175    94.2258
 33      0.0000     0.0000E+00    0.0000E+00    1.300000E+10  0.00800  1.361E-05    0   0.5073   age193_m52            0.0000     1.5888E+00     5.2713  -0.9486    91.9889
 34      1.1465     5.4621E+00    5.1853E+00    1.800000E+10  0.00800  9.886E-06    0   0.4990   age213_m52            0.0000     2.0545E+00     6.2270  -1.0000    89.2039
 35      1.7949     5.4752E-03    1.0416E-02    1.000000E+06  0.02000  1.544E-02    0   1.0000   age020_m62            0.0000     3.2418E+00     6.3205   3.0605    84.1950
 36      1.0065     1.2601E-03    2.3633E-03    3.160000E+06  0.02000  3.762E-02    0   0.9858   age045_m62            0.0000     3.2115E+00     6.3029   3.0013    84.8635
 37      0.0000     0.0000E+00    0.0000E+00    5.010000E+06  0.02000  3.296E-02    0   0.9342   age055_m62            0.0000     2.5738E+00     5.3209   2.6017    89.5198
 38     11.2822     4.6047E-02    7.7624E-02    8.710000E+06  0.02000  1.154E-02    0   0.8861   age067_m62            0.0000     3.8685E+00     7.8737   1.3830   106.6434
 39      3.9026     2.3986E-02    3.8660E-02    1.445000E+07  0.02000  7.663E-03    0   0.8472   age078_m62            0.0000     2.2114E+00     5.7183   1.6548   101.9424
 40      0.0000     0.0000E+00    0.0000E+00    2.512000E+07  0.02000  4.532E-03    0   0.8099   age090_m62            0.0000     2.3222E+00     5.8899   1.6379   102.2177
 41      2.6994     4.6520E-02    6.7217E-02    5.500000E+07  0.02000  2.733E-03    0   0.7595   age110_m62            0.0000     1.6354E+00     4.5889   1.6932    99.7378
 42      0.0000     0.0000E+00    0.0000E+00    1.609000E+08  0.02000  1.369E-03    0   0.6985   age120_m62            0.0000     1.5305E+00     4.3794   1.5535   101.4397
 43      2.8877     1.5090E-01    1.9274E-01    2.861200E+08  0.02000  9.013E-04    0   0.6714   age125_m62            0.0000     1.4259E+00     4.3455   1.3068   104.1735
 44      0.0000     0.0000E+00    0.0000E+00    5.088000E+08  0.02000  5.028E-04    0   0.6449   age130_m62            0.0000     1.3539E+00     4.2008   0.9725   104.7550
 45      0.0000     0.0000E+00    0.0000E+00    9.047900E+08  0.02000  2.428E-04    0   0.6179   age135_m62            0.0000     8.6826E-01     3.3880   0.4204   102.5004
 46      0.5992     2.2347E-01    2.5117E-01    1.434000E+09  0.02000  1.263E-04    0   0.5908   age139_m62            0.0000     7.6541E-01     3.2337  -0.0034    99.9854
 47      0.8575     6.7481E-01    7.2830E-01    2.500000E+09  0.02000  5.985E-05    0   0.5673   age150_m62            0.0000     1.0799E+00     4.1888  -0.3196    96.2658
 48      0.3620     5.2130E-01    5.4229E-01    4.250000E+09  0.02000  3.271E-05    0   0.5468   age158_m62            0.0000     1.6047E+00     5.4307  -0.5776    93.3422
 49      7.0546     2.4431E+01    2.4016E+01    1.000000E+10  0.02000  1.360E-05    0   0.5167   age181_m62            0.0000     2.4134E+00     6.8622  -0.8689    90.5855
 50      2.6919     1.7797E+01    1.6973E+01    1.800000E+10  0.02000  7.124E-06    0   0.5013   age213_m62            0.0000     3.1617E+00     8.0507  -1.0000    86.7307
 51      0.0217     3.9442E-05    7.5021E-05    1.000000E+06  0.05000  2.592E-02    0   0.9998   age020_m72            0.0000     3.2984E+00     6.4280   3.0510    84.2400
 52      0.0000     0.0000E+00    0.0000E+00    3.160000E+06  0.05000  4.845E-02    0   0.9577   age045_m72            0.0000     3.0095E+00     5.9592   2.8818    86.1400
 53      0.0000     0.0000E+00    0.0000E+00    5.010000E+06  0.05000  3.072E-02    0   0.9147   age055_m72            0.0000     2.4884E+00     5.8544   2.3186    94.4171
 54      0.0000     0.0000E+00    0.0000E+00    6.610000E+06  0.05000  1.455E-02    0   0.8877   age061_m72            0.0000     6.9350E+00    10.6231   1.4375   108.6023
 55      0.0002     1.2357E-06    2.0039E-06    1.000000E+07  0.05000  9.074E-03    0   0.8524   age070_m72            0.0000     3.1438E+00     6.6250   2.5419    92.9439
 56      0.0005     5.3403E-06    8.0282E-06    2.512000E+07  0.05000  4.250E-03    0   0.7902   age090_m72            0.0000     2.5226E+00     5.7893   2.1915    96.7055
 57      0.0000     0.0000E+00    0.0000E+00    4.000000E+07  0.05000  3.087E-03    0   0.7618   age104_m72            0.0000     2.4813E+00     5.7908   1.9394    99.5359
 58      1.0773     2.9846E-02    4.0291E-02    1.015200E+08  0.05000  1.700E-03    0   0.7096   age116_m72            0.0000     1.6834E+00     4.6599   1.6822   101.8155
 59      2.2004     1.4035E-01    1.7711E-01    2.861200E+08  0.05000  7.384E-04    0   0.6633   age125_m72            0.0000     1.2936E+00     4.1340   1.1967   104.4990
 60     14.9743     1.8468E+00    2.2387E+00    5.088000E+08  0.05000  3.819E-04    0   0.6372   age130_m72            0.0000     9.7752E-01     3.5875   0.7441   104.0945
 61      9.6140     2.7017E+00    3.1405E+00    9.047900E+08  0.05000  1.676E-04    0   0.6110   age135_m72            0.0000     1.1103E+00     4.2693   0.1230    98.6346
 62      3.4630     1.8457E+00    2.0625E+00    1.434000E+09  0.05000  8.837E-05    0   0.5874   age139_m72            0.0000     1.1659E+00     4.3964  -0.3171    97.5483
 63     16.4221     1.8272E+01    1.9460E+01    2.500000E+09  0.05000  4.233E-05    0   0.5598   age150_m72            0.0000     1.8251E+00     5.8639  -0.5611    93.3942
 64      0.0000     0.0000E+00    0.0000E+00    6.250000E+09  0.05000  1.435E-05    0   0.5249   age166_m72            0.0000     2.6891E+00     7.3159  -0.9498    89.5288
 65      1.8522     1.3394E+01    1.2833E+01    1.300000E+10  0.05000  6.513E-06    0   0.5036   age193_m72            0.0000     4.0947E+00     9.4050  -1.0000    81.4960
 66      1.0274     1.0689E+01    1.0056E+01    1.800000E+10  0.05000  4.527E-06    0   0.4945   age213_m72            0.0000     5.4961E+00    11.0328  -1.0000    75.5906


## Synthesis Results - Average & Chains ##

# j      x_j: min, <> & last-chain-values for 1 ...  7 chains
  1      0.9635      0.8044      1.0591      0.8074      0.3445      1.0564      1.2457      0.8536      1.4348
  2      2.5874      2.5013      2.4459      2.6784      2.1433      2.7230      2.7538      2.9738      2.4762
  3      1.0318      1.1602      1.2408      1.3109      1.2667      1.7051      0.8659      0.3504      1.2025
  4      0.0000      0.4408      0.2607      0.4223      0.8217      0.4310      0.0000      0.4019      0.0000
  5      0.0000      0.3581      0.0000      0.6436      0.0000      0.4693      0.3668      0.0112      0.5906
  6      0.0000      0.1453      0.0000      0.0000      0.1797      0.0000      0.0000      0.3294      0.0034
  7      0.0000      0.2556      0.0297      1.5180      0.0000      0.0000      0.6074      0.0000      0.1911
  8      0.0000      0.1788      0.0000      0.0000      0.0000      0.3476      0.0000      0.0000      0.0000
  9      0.0000      0.2929      0.0000      0.8296      0.0000      0.0000      0.5816      0.3544      1.2588
 10      0.0030      0.6491      0.7830      0.1270      0.6251      0.0000      0.3788      0.8662      0.0000
 11      0.0082      0.4589      0.9090      0.2168      0.2380      0.3468      0.0000      1.3129      0.5274
 12      0.0000      0.2885      0.0000      0.1190      0.0064      0.2439      0.3376      0.2959      0.0000
 13      5.7394      2.2621      1.3325      2.9945      2.1816      2.2120      2.0495      2.6455      1.3915
 14      0.0000      0.1688      0.0000      0.0000      0.2051      0.0000      0.0000      0.0000      0.0000
 15      0.0000      0.1321      0.0000      0.0000      0.4228      0.0000      0.0527      0.0000      0.0000
 16      0.0000      0.1245      0.0000      0.0000      0.2535      0.0000      0.0000      0.0000      0.0000
 17      0.0000      0.0752      0.0000      0.0000      0.0000      0.0000      0.0000      0.0000      0.0000
 18      0.0000      0.0969      0.1381      0.0000      0.0000      0.0000      0.6326      0.0000      0.0000
 19      0.0000      0.4104      0.0000      0.0000      0.6510      0.0000      0.0000      0.6557      0.1108
 20      0.0026      0.7047      1.4011      0.5056      0.8009      0.0635      0.6103      0.0000      0.0000
 21      0.0000      0.2105      0.1471      0.4875      0.2996      0.1296      0.1659      0.1316      0.6994
 22      1.4487      1.3724      1.8276      2.0876      1.4294      1.2120      1.9332      1.2798      0.5203
 23      0.1958      0.3156      0.3623      0.1687      0.3133      0.1833      0.0000      0.2525      0.0000
 24      1.1124      1.0353      1.3648      2.1021      1.3215      1.0886      1.8141      0.8244      1.3403
 25      0.4062      0.5982      1.4475      1.3521      0.6070      0.4439      0.7414      1.1982      0.6749
 26      0.0000      0.2091      0.0000      0.0000      0.3400      0.5751      0.0000      0.0013      0.4579
 27      2.1011      2.3561      2.5405      1.9303      2.6560      3.0438      3.4609      2.6115      2.2169
 28      0.0061      0.7361      0.8645      0.9573      0.0000      0.0676      1.8432      0.0000      0.5116
 29      1.0824      1.3003      2.4177      2.0192      0.0000      0.8856      1.3224      0.6495      0.6176
 30      0.0000      0.5181      0.2025      0.0000      0.1819      0.0000      0.4839      0.0000      0.0882
 31      0.0000      0.3542      0.0000      0.0000      0.1867      0.0000      0.0877      0.0000      0.0000
 32      0.0000      0.1049      0.0000      0.0000      0.0000      0.0309      0.0000      0.1262      0.0000
 33      0.0000      0.0710      0.0758      0.0000      0.0000      0.1172      0.0000      0.4146      0.0000
 34      1.1465      1.0786      1.6998      1.0624      1.2169      1.0598      1.3828      0.9615      1.0200
 35      1.7949      1.3594      1.0864      1.2578      1.5676      1.2983      1.5620      1.2827      1.2290
 36      1.0065      0.8758      1.3190      1.1815      1.1243      1.4859      0.0545      1.2943      1.3051
 37      0.0000      0.1511      0.0000      0.4934      0.1806      0.0000      0.0000      0.1049      0.5462
 38     11.2822      6.5818      6.8154      6.4216      6.7996      6.5656      7.4181      6.0262      6.7198
 39      3.9026      3.5993      4.1554      3.3648      3.4126      4.0098      3.7855      2.8206      4.0705
 40      0.0000      0.2001      0.0000      0.0000      0.4920      0.0973      0.0000      0.0000      0.0000
 41      2.6994      1.4371      1.4421      1.3173      1.5633      2.2673      0.4138      2.0332      1.5369
 42      0.0000      1.1922      0.0898      0.8783      1.7621      1.6222      1.3309      1.6158      1.4419
 43      2.8877      1.4226      1.4094      1.9573      1.2621      3.0597      2.0529      1.7777      2.7226
 44      0.0000      0.5158      0.2773      0.6731      0.1598      0.6063      0.2176      1.1650      0.0724
 45      0.0000      2.5469      0.0000      2.0927      2.0375      0.9383      2.1231      0.0000      1.1334
 46      0.5992      6.5880      7.2169      6.1932      6.8691      6.6800      3.3164      6.0407      6.7360
