###################################################################
## OUTPUT of StarlightChains_v04.for    [Cid@UFSC - 01/Apr/2007] ##
###################################################################

## Some input info
2013T.txt                                [arq_obs]
Base.CB07.vall.4m                        [arq_base]
Masks.EmLines.NEW.gm                     [arq_masks]
StCv04.C11.config                        [arq_config]
   66                                    [N_base]
    0                                    [N_YAV_components = # of components with extra extinction!]
    0                                    [i_FitPowerLaw (1/0 = Yes/No)]
-9.99                                    [alpha_PowerLaw]
CCM                                      [red_law_option]
 1.458241                                [q_norm = A(l_norm)/A(V)]

## (Re)Sampling Parameters
 3741.00                                 [l_ini (A)]
 7218.00                                 [l_fin (A)]
    1.00                                 [dl    (A)]     (OBS: dl_cushion =    50.00 A)

## Normalization info
 4020.00                                 [l_norm (A) - for base]
 4010.00                                 [llow_norm (A) - window for f_obs]
 4060.00                                 [lupp_norm (A) - window for f_obs]
2.566497E-18                             [fobs_norm (in input units)]

## S/N
 3691.00                                 [llow_SN (A) - window for S/N]
 7268.00                                 [lupp_SN (A) - window for S/N]
   2.945                                 [S/N in S/N window]
   4.442                                 [S/N in norm. window]
  10.000                                 [S/N_err in S/N window]
  15.080                                 [S/N_err in norm. window]
  1.0000                                 [fscale_chi2]

## etc...
    -2007413                             [idum_orig]
  2362                                   [NOl_eff]
  1571                                   [Nl_eff]
   791    NSIGMA                         [Ntot_cliped & clip_method]
   446670                                [Nglobal_steps]
   7                                     [N_chains]
  10                                     [NEX0s_base = N_base in EX0s-fits]
 0   0   1       67   2.0   3.688E+01    [Clip-Bug, RC-Crash & Burn-In warning-flags, n_censored_weights, wei_nsig_threshold & wei_limit]
     9      9.335      8.837      0.498  [idt_all, wdt_TotTime, wdt_UsrTime & wdt_SysTime (sec)]

## Synthesis Results - Best model ##

 2.63384E+00                             [chi2/Nl_eff]
    13.74589                             [adev (%)]

    85.64214                             [sum-of-x (%)]
 3.42522E-18                             [Flux_tot (units of input spectrum!)]
 5.87124E-15                             [Mini_tot (???)]
 3.80788E-15                             [Mcor_tot (???)]

   0.00                                  [v0_min  (km/s)]
 289.68                                  [vd_min  (km/s)]
 0.3303                                  [AV_min  (mag)]
 0.0000                                  [YAV_min (mag)]

# j     x_j(%)      Mini_j(%)     Mcor_j(%)     age_j(yr)     Z_j      (L/M)_j    YAV?  Mstars   component_j        a/Fe...       SSP_chi2r SSP_adev(%)   SSP_AV   SSP_x(%)
  1      0.0000     0.0000E+00    0.0000E+00    1.000000E+06  0.00400  1.094E-02    0   1.0000   age020_m42            0.0000     3.1147E+00    14.4943   2.3081    70.2560
  2      0.0000     0.0000E+00    0.0000E+00    3.160000E+06  0.00400  4.007E-02    0   0.9999   age045_m42            0.0000     2.8283E+00    14.0533   1.5671    75.6104
  3      0.0000     0.0000E+00    0.0000E+00    5.010000E+06  0.00400  2.539E-02    0   0.9488   age055_m42            0.0000     2.9560E+00    14.2600   1.8951    73.4710
  4      0.0000     0.0000E+00    0.0000E+00    6.610000E+06  0.00400  2.620E-02    0   0.9220   age061_m42            0.0000     2.8266E+00    14.0567   1.4922    75.8030
  5      0.0000     0.0000E+00    0.0000E+00    1.000000E+07  0.00400  1.322E-02    0   0.8862   age070_m42            0.0000     2.9573E+00    14.3331   1.2031    77.5540
  6      0.0000     0.0000E+00    0.0000E+00    1.445000E+07  0.00400  7.883E-03    0   0.8571   age078_m42            0.0000     3.0114E+00    14.3958   1.5352    75.4237
  7      0.0000     0.0000E+00    0.0000E+00    2.512000E+07  0.00400  5.251E-03    0   0.8174   age090_m42            0.0000     2.9693E+00    14.3675   1.0693    78.1109
  8      0.0000     0.0000E+00    0.0000E+00    4.000000E+07  0.00400  3.649E-03    0   0.7851   age104_m42            0.0000     2.9054E+00    14.2616   0.8381    78.9185
  9     14.1227     3.1053E+00    3.6528E+00    5.500000E+07  0.00400  3.098E-03    0   0.7629   age110_m42            0.0000     2.7939E+00    14.0492   0.9911    78.9957
 10      0.0000     0.0000E+00    0.0000E+00    1.015200E+08  0.00400  2.228E-03    0   0.7207   age116_m42            0.0000     2.7378E+00    13.9313   1.0117    79.1665
 11      0.0000     0.0000E+00    0.0000E+00    2.861200E+08  0.00400  1.093E-03    0   0.6648   age125_m42            0.0000     2.7722E+00    14.0134   0.4325    81.8435
 12      0.0000     0.0000E+00    0.0000E+00    5.088000E+08  0.00400  6.597E-04    0   0.6365   age130_m42            0.0000     2.6827E+00    13.8373   0.4203    82.6808
 13      0.0000     0.0000E+00    0.0000E+00    1.434000E+09  0.00400  2.132E-04    0   0.5798   age139_m42            0.0000     2.7109E+00    13.9553  -0.5546    84.4821
 14      0.0000     0.0000E+00    0.0000E+00    4.250000E+09  0.00400  5.895E-05    0   0.5377   age158_m42            0.0000     2.8819E+00    14.2884  -0.9806    80.7294
 15      0.0000     0.0000E+00    0.0000E+00    7.500000E+09  0.00400  3.510E-05    0   0.5212   age171_m42            0.0000     3.0726E+00    14.6256  -1.0000    75.1894
 16      0.0000     0.0000E+00    0.0000E+00    1.300000E+10  0.00400  2.005E-05    0   0.5034   age193_m42            0.0000     3.4531E+00    15.2347  -1.0000    69.9997
 17      0.0000     0.0000E+00    0.0000E+00    1.800000E+10  0.00400  1.525E-05    0   0.4967   age213_m42            0.0000     3.5042E+00    15.3254  -1.0000    69.0236
 18      0.0000     0.0000E+00    0.0000E+00    1.000000E+06  0.00800  1.238E-02    0   1.0000   age020_m52            0.0000     3.1180E+00    14.4985   2.3044    70.3838
 19      0.0000     0.0000E+00    0.0000E+00    3.160000E+06  0.00800  3.074E-02    0   0.9966   age045_m52            0.0000     3.1033E+00    14.4745   2.2299    70.9436
 20      0.0000     0.0000E+00    0.0000E+00    5.010000E+06  0.00800  2.668E-02    0   0.9443   age055_m52            0.0000     3.0004E+00    14.3271   1.9801    72.7204
 21      0.0000     0.0000E+00    0.0000E+00    6.610000E+06  0.00800  2.136E-02    0   0.9177   age061_m52            0.0000     2.9773E+00    14.3589   0.7029    78.4623
 22      0.0000     0.0000E+00    0.0000E+00    1.000000E+07  0.00800  1.215E-02    0   0.8827   age070_m52            0.0000     3.0557E+00    14.5022   1.3830    77.3024
 23      0.0000     0.0000E+00    0.0000E+00    1.445000E+07  0.00800  8.717E-03    0   0.8552   age078_m52            0.0000     2.9933E+00    14.3783   1.4996    76.4958
 24      0.0000     0.0000E+00    0.0000E+00    2.512000E+07  0.00800  5.592E-03    0   0.8162   age090_m52            0.0000     2.9691E+00    14.3832   1.1318    79.0605
 25      0.0000     0.0000E+00    0.0000E+00    4.000000E+07  0.00800  3.896E-03    0   0.7841   age104_m52            0.0000     2.8865E+00    14.2384   1.0414    79.7992
 26      0.0000     0.0000E+00    0.0000E+00    1.015200E+08  0.00800  2.148E-03    0   0.7226   age116_m52            0.0000     2.7803E+00    14.0221   0.9801    79.7224
 27      0.0000     0.0000E+00    0.0000E+00    2.861200E+08  0.00800  9.925E-04    0   0.6683   age125_m52            0.0000     2.6746E+00    13.8341   0.4853    83.4288
 28      0.0000     0.0000E+00    0.0000E+00    9.047900E+08  0.00800  3.141E-04    0   0.6138   age135_m52            0.0000     2.7174E+00    13.9699  -0.3138    86.9503
 29      0.0000     0.0000E+00    0.0000E+00    1.434000E+09  0.00800  1.719E-04    0   0.5853   age139_m52            0.0000     2.8312E+00    14.2364  -0.8902    85.0113
 30      0.0000     0.0000E+00    0.0000E+00    2.500000E+09  0.00800  7.872E-05    0   0.5600   age150_m52            0.0000     3.0466E+00    14.6063  -1.0000    77.8835
 31      0.0000     0.0000E+00    0.0000E+00    4.250000E+09  0.00800  4.336E-05    0   0.5426   age158_m52            0.0000     3.0970E+00    14.6771  -1.0000    76.6939
 32      0.0000     0.0000E+00    0.0000E+00    6.250000E+09  0.00800  3.159E-05    0   0.5319   age166_m52            0.0000     3.5830E+00    15.4555  -1.0000    70.7138
 33      0.0000     0.0000E+00    0.0000E+00    1.300000E+10  0.00800  1.361E-05    0   0.5073   age193_m52            0.0000     5.4963E+00    18.6718  -1.0000    57.3242
 34      0.0000     0.0000E+00    0.0000E+00    1.800000E+10  0.00800  9.886E-06    0   0.4990   age213_m52            0.0000     6.1157E+00    19.5374  -1.0000    54.3242
 35      0.0000     0.0000E+00    0.0000E+00    1.000000E+06  0.02000  1.544E-02    0   1.0000   age020_m62            0.0000     3.1326E+00    14.5190   2.3030    70.4664
 36      0.0000     0.0000E+00    0.0000E+00    3.160000E+06  0.02000  3.762E-02    0   0.9858   age045_m62            0.0000     3.1315E+00    14.5094   2.2432    71.0460
 37      0.0000     0.0000E+00    0.0000E+00    5.010000E+06  0.02000  3.296E-02    0   0.9342   age055_m62            0.0000     2.8952E+00    14.1575   1.8544    74.4115
 38      0.0000     0.0000E+00    0.0000E+00    8.710000E+06  0.02000  1.154E-02    0   0.8861   age067_m62            0.0000     3.7768E+00    15.8594   0.8249    79.5044
 39      0.0000     0.0000E+00    0.0000E+00    1.445000E+07  0.02000  7.663E-03    0   0.8472   age078_m62            0.0000     3.2088E+00    14.8003   1.0222    79.2388
 40      0.0000     0.0000E+00    0.0000E+00    2.512000E+07  0.02000  4.532E-03    0   0.8099   age090_m62            0.0000     3.2379E+00    14.8850   1.0123    79.0757
 41      0.0000     0.0000E+00    0.0000E+00    5.500000E+07  0.02000  2.733E-03    0   0.7595   age110_m62            0.0000     2.9256E+00    14.3150   1.0267    79.1183
 42      0.0000     0.0000E+00    0.0000E+00    1.609000E+08  0.02000  1.369E-03    0   0.6985   age120_m62            0.0000     2.7414E+00    13.9636   0.8587    81.6340
 43      0.0000     0.0000E+00    0.0000E+00    2.861200E+08  0.02000  9.013E-04    0   0.6714   age125_m62            0.0000     2.6669E+00    13.8337   0.5973    84.4274
 44     71.5195     9.6895E+01    9.6347E+01    5.088000E+08  0.02000  5.028E-04    0   0.6449   age130_m62            0.0000     2.6430E+00    13.7714   0.2179    86.8167
 45      0.0000     0.0000E+00    0.0000E+00    9.047900E+08  0.02000  2.428E-04    0   0.6179   age135_m62            0.0000     2.7739E+00    14.1002  -0.3576    85.8751
 46      0.0000     0.0000E+00    0.0000E+00    1.434000E+09  0.02000  1.263E-04    0   0.5908   age139_m62            0.0000     2.9171E+00    14.3971  -0.7960    84.3870
 47      0.0000     0.0000E+00    0.0000E+00    2.500000E+09  0.02000  5.985E-05    0   0.5673   age150_m62            0.0000     3.1871E+00    14.8288  -1.0000    78.2341
 48      0.0000     0.0000E+00    0.0000E+00    4.250000E+09  0.02000  3.271E-05    0   0.5468   age158_m62            0.0000     4.0244E+00    16.1944  -1.0000    68.5455
 49      0.0000     0.0000E+00    0.0000E+00    1.000000E+10  0.02000  1.360E-05    0   0.5167   age181_m62            0.0000     5.6001E+00    18.6821  -1.0000    58.6368
 50      0.0000     0.0000E+00    0.0000E+00    1.800000E+10  0.02000  7.124E-06    0   0.5013   age213_m62            0.0000     6.7621E+00    20.2831  -1.0000    52.8661
 51      0.0000     0.0000E+00    0.0000E+00    1.000000E+06  0.05000  2.592E-02    0   0.9998   age020_m72            0.0000     3.1804E+00    14.5912   2.2985    70.3508
 52      0.0000     0.0000E+00    0.0000E+00    3.160000E+06  0.05000  4.845E-02    0   0.9577   age045_m72            0.0000     3.0439E+00    14.3844   2.1235    72.0873
 53      0.0000     0.0000E+00    0.0000E+00    5.010000E+06  0.05000  3.072E-02    0   0.9147   age055_m72            0.0000     3.1754E+00    14.6633   1.6233    75.7830
 54      0.0000     0.0000E+00    0.0000E+00    6.610000E+06  0.05000  1.455E-02    0   0.8877   age061_m72            0.0000     4.3923E+00    16.9152   0.8641    80.3321
 55      0.0000     0.0000E+00    0.0000E+00    1.000000E+07  0.05000  9.074E-03    0   0.8524   age070_m72            0.0000     3.2523E+00    14.8090   1.8065    75.6208
 56      0.0000     0.0000E+00    0.0000E+00    2.512000E+07  0.05000  4.250E-03    0   0.7902   age090_m72            0.0000     3.0930E+00    14.5761   1.4959    77.3589
 57      0.0000     0.0000E+00    0.0000E+00    4.000000E+07  0.05000  3.087E-03    0   0.7618   age104_m72            0.0000     3.0857E+00    14.6048   1.2610    78.8623
 58      0.0000     0.0000E+00    0.0000E+00    1.015200E+08  0.05000  1.700E-03    0   0.7096   age116_m72            0.0000     2.8019E+00    14.0832   1.0007    81.2588
 59      0.0000     0.0000E+00    0.0000E+00    2.861200E+08  0.05000  7.384E-04    0   0.6633   age125_m72            0.0000     2.6494E+00    13.8191   0.4654    85.5960
 60      0.0000     0.0000E+00    0.0000E+00    5.088000E+08  0.05000  3.819E-04    0   0.6372   age130_m72            0.0000     2.7114E+00    13.9844  -0.0206    86.7848
 61      0.0000     0.0000E+00    0.0000E+00    9.047900E+08  0.05000  1.676E-04    0   0.6110   age135_m72            0.0000     3.0031E+00    14.5813  -0.6974    84.5566
 62      0.0000     0.0000E+00    0.0000E+00    1.434000E+09  0.05000  8.837E-05    0   0.5874   age139_m72            0.0000     3.2334E+00    14.9374  -1.0000    79.3499
 63      0.0000     0.0000E+00    0.0000E+00    2.500000E+09  0.05000  4.233E-05    0   0.5598   age150_m72            0.0000     4.0964E+00    16.3082  -1.0000    69.1111
 64      0.0000     0.0000E+00    0.0000E+00    6.250000E+09  0.05000  1.435E-05    0   0.5249   age166_m72            0.0000     6.0846E+00    19.4090  -1.0000    55.8980
 65      0.0000     0.0000E+00    0.0000E+00    1.300000E+10  0.05000  6.513E-06    0   0.5036   age193_m72            0.0000     7.7261E+00    21.5788  -1.0000    49.5456
 66      0.0000     0.0000E+00    0.0000E+00    1.800000E+10  0.05000  4.527E-06    0   0.4945   age213_m72            0.0000     8.7320E+00    22.8401  -1.0000    45.7973


## Synthesis Results - Average & Chains ##

# j      x_j: min, <> & last-chain-values for 1 ...  7 chains
  1      0.0000      0.0402      0.0000      0.0000      0.0000      0.0000      0.0000      0.0000      0.0000
  2      0.0000      0.2544      0.0000      1.0881      2.9865      0.0000      0.0000      0.0000      0.6645
  3      0.0000      0.2553      0.0000      0.0000      0.0000      0.0000      0.8348      0.0000      0.0000
  4      0.0000      0.3837      0.0000      0.0000      0.0000      0.0000      2.5164      0.0000      0.0000
  5      0.0000      0.2921      0.0000      0.0000      0.0000      0.0000      0.0000      0.0000      1.2891
  6      0.0000      0.1535      0.5778      0.0000      0.0200      0.0000      0.0000      0.0000      0.0000
  7      0.0000      0.4533      0.0000      0.3812      0.0000      0.0000      1.5153      0.0000      0.0000
  8      0.0000      0.7594      0.0000      1.2922      0.0000      0.0000      3.2735      0.0000      0.6858
  9     14.1227      0.7030      0.4448      0.3730      0.0000      0.0000      0.0000      2.1728      1.6864
 10      0.0000      1.0400      0.0000      5.6022      1.1772      0.0000      1.8935      0.0000      1.3860
 11      0.0000      1.7228      0.0000      0.1145      0.0000      4.4582      0.0000      2.3387      3.2953
 12      0.0000      4.8916      6.0733      4.1921      6.7521      4.5731      0.7749      8.8838      0.0000
 13      0.0000      0.2518      0.0000      0.0000      0.0000      0.0000      0.0000      0.0000      0.2076
 14      0.0000      0.1218      0.0000      0.5061      0.0000      0.0000      0.0000      0.0000      0.0000
 15      0.0000      0.1120      0.0000      0.0000      0.0000      0.0000      0.0000      0.0762      0.0000
 16      0.0000      0.0155      0.0000      0.0000      0.0000      0.0000      0.0000      0.0000      0.0000
 17      0.0000      0.0085      0.0000      0.0000      0.0000      0.0000      0.0000      0.0000      0.0000
 18      0.0000      0.0642      0.4793      0.0000      0.0000      0.1914      0.0067      0.0000      0.0000
 19      0.0000      0.0660      0.0000      0.0000      0.0000      0.0000      0.0000      0.0104      0.0000
 20      0.0000      0.2250      0.0000      0.1101      0.0000      0.0000      0.0000      0.0000      0.0000
 21      0.0000      0.5352      0.0000      0.0000      0.0728      0.0000      0.0000      0.0000      0.0000
 22      0.0000      0.3606      0.5764      0.0000      0.4417      0.6152      0.0000      0.0000      1.5593
 23      0.0000      0.0952      0.9542      0.1228      0.0000      0.0224      0.0000      0.0000      0.0000
 24      0.0000      0.3535      0.0000      0.0000      0.0000      1.6585      0.0000      1.1111      0.0000
 25      0.0000      0.3106      0.0000      0.0000      0.0000      0.0000      0.0000      0.0000      0.0000
 26      0.0000      0.2723      0.0000      1.3589      0.0000      0.0000      0.0000      0.0000      0.0000
 27      0.0000      3.0777      7.3533      4.6241      1.0217      1.7348      3.0469      1.9541      2.7020
 28      0.0000      0.5340      0.0000      0.0000      0.0000      0.0000      0.0000      0.0000      0.0000
 29      0.0000      0.0404      0.0000      0.0000      0.0000      0.0000      0.0000      0.0000      0.0000
 30      0.0000      0.0329      0.0000      0.0000      0.0000      0.0000      0.0000      0.0000      0.7046
 31      0.0000      0.0353      0.0000      0.0000      0.0000      0.0000      0.0000      0.0000      0.0000
 32      0.0000      0.0415      0.0000      0.0000      0.0000      0.0000      0.0000      0.0000      0.4850
 33      0.0000      0.0086      0.0000      0.0000      0.0000      0.0000      0.0000      0.0000      0.0000
 34      0.0000      0.0049      0.0000      0.0000      0.0000      0.0000      0.0000      0.0000      0.0000
 35      0.0000      0.0753      0.0000      0.0000      0.0000      0.0000      0.0000      0.0000      0.0000
 36      0.0000      0.1586      0.3135      0.0000      0.0000      0.0000      0.0000      0.0000      0.0000
 37      0.0000      0.3668      0.5376      0.0000      0.0000      0.0000      0.0000      1.4503      0.0000
 38      0.0000      0.0607      0.0000      0.0000      0.6501      0.0000      0.0000      0.0000      0.0000
 39      0.0000      0.0700      0.0000      0.0000      0.0000      0.0000      0.0000      0.0000      0.0000
 40      0.0000      0.1920      0.0000      0.0000      0.0000      0.2656      0.0000      0.0000      0.0000
 41      0.0000      0.2117      0.0000      0.0000      0.0000      0.0000      0.0000      0.0000      0.0000
 42      0.0000      0.8354      0.0000      0.0000      0.0000      0.0000      0.0000      1.3795      0.0000
 43      0.0000      3.4205      1.0639      4.0285      3.1783      2.9367      2.8000      0.0000      1.7106
 44     71.5195     48.7693     53.0376     54.7073     58.6708     54.1302     57.7937     59.5954     62.2018
 45      0.0000      0.6361      0.0000      0.0000      0.0000      0.0000      0.0301      0.0000      0.0000
 46      0.0000      0.1112      0.0000      0.0000      0.0000      0.0000      0.1487      0.0000      0.0000
