###################################################################
## OUTPUT of StarlightChains_v04.for    [Cid@UFSC - 01/Apr/2007] ##
###################################################################

## Some input info
2013ha.txt                               [arq_obs]
Base.CB07.vall.4m                        [arq_base]
Masks.EmLines.NEW.gm                     [arq_masks]
StCv04.C11.config                        [arq_config]
   66                                    [N_base]
    0                                    [N_YAV_components = # of components with extra extinction!]
    0                                    [i_FitPowerLaw (1/0 = Yes/No)]
-9.99                                    [alpha_PowerLaw]
CCM                                      [red_law_option]
 1.458241                                [q_norm = A(l_norm)/A(V)]

## (Re)Sampling Parameters
 3741.00                                 [l_ini (A)]
 7218.00                                 [l_fin (A)]
    1.00                                 [dl    (A)]     (OBS: dl_cushion =    50.00 A)

## Normalization info
 4020.00                                 [l_norm (A) - for base]
 4010.00                                 [llow_norm (A) - window for f_obs]
 4060.00                                 [lupp_norm (A) - window for f_obs]
3.552482E-16                             [fobs_norm (in input units)]

## S/N
 3691.00                                 [llow_SN (A) - window for S/N]
 7268.00                                 [lupp_SN (A) - window for S/N]
  11.692                                 [S/N in S/N window]
  13.312                                 [S/N in norm. window]
  15.525                                 [S/N_err in S/N window]
  17.675                                 [S/N_err in norm. window]
  1.0000                                 [fscale_chi2]

## etc...
    -2007411                             [idum_orig]
  2383                                   [NOl_eff]
  2381                                   [Nl_eff]
     2    NSIGMA                         [Ntot_cliped & clip_method]
  1933260                                [Nglobal_steps]
   7                                     [N_chains]
  30                                     [NEX0s_base = N_base in EX0s-fits]
 0   0   1        3   2.0   4.310E+01    [Clip-Bug, RC-Crash & Burn-In warning-flags, n_censored_weights, wei_nsig_threshold & wei_limit]
    19     17.966     17.410      0.557  [idt_all, wdt_TotTime, wdt_UsrTime & wdt_SysTime (sec)]

## Synthesis Results - Best model ##

 3.92693E-01                             [chi2/Nl_eff]
     3.02084                             [adev (%)]

    98.04457                             [sum-of-x (%)]
 9.40823E-16                             [Flux_tot (units of input spectrum!)]
 1.17568E-11                             [Mini_tot (???)]
 6.03153E-12                             [Mcor_tot (???)]

   2.53                                  [v0_min  (km/s)]
 212.57                                  [vd_min  (km/s)]
 0.7399                                  [AV_min  (mag)]
 0.0000                                  [YAV_min (mag)]

# j     x_j(%)      Mini_j(%)     Mcor_j(%)     age_j(yr)     Z_j      (L/M)_j    YAV?  Mstars   component_j        a/Fe...       SSP_chi2r SSP_adev(%)   SSP_AV   SSP_x(%)
  1      0.0000     0.0000E+00    0.0000E+00    1.000000E+06  0.00400  1.094E-02    0   1.0000   age020_m42            0.0000     1.3772E+00     6.4981   3.1677    75.9903
  2      0.0000     0.0000E+00    0.0000E+00    3.160000E+06  0.00400  4.007E-02    0   0.9999   age045_m42            0.0000     1.0499E+00     5.3537   2.3835    83.7254
  3      0.0000     0.0000E+00    0.0000E+00    5.010000E+06  0.00400  2.539E-02    0   0.9488   age055_m42            0.0000     1.1228E+00     5.6759   2.7228    80.8206
  4      0.0000     0.0000E+00    0.0000E+00    6.610000E+06  0.00400  2.620E-02    0   0.9220   age061_m42            0.0000     9.5002E-01     5.0522   2.2920    84.6228
  5      3.5524     2.1932E-02    3.7886E-02    1.000000E+07  0.00400  1.322E-02    0   0.8862   age070_m42            0.0000     5.8159E-01     3.8644   1.9326    89.3935
  6      0.0000     0.0000E+00    0.0000E+00    1.445000E+07  0.00400  7.883E-03    0   0.8571   age078_m42            0.0000     7.0279E-01     4.3303   2.2830    86.1383
  7      4.8362     7.5172E-02    1.1977E-01    2.512000E+07  0.00400  5.251E-03    0   0.8174   age090_m42            0.0000     5.3099E-01     3.6383   1.7841    90.6520
  8      7.5989     1.6997E-01    2.6011E-01    4.000000E+07  0.00400  3.649E-03    0   0.7851   age104_m42            0.0000     5.0075E-01     3.5220   1.5552    91.5462
  9      1.9488     5.1344E-02    7.6351E-02    5.500000E+07  0.00400  3.098E-03    0   0.7629   age110_m42            0.0000     6.0537E-01     3.8943   1.7311    90.7619
 10      3.4044     1.2472E-01    1.7520E-01    1.015200E+08  0.00400  2.228E-03    0   0.7207   age116_m42            0.0000     7.1413E-01     4.2331   1.7644    90.4873
 11      0.0000     0.0000E+00    0.0000E+00    2.861200E+08  0.00400  1.093E-03    0   0.6648   age125_m42            0.0000     6.3199E-01     3.8548   1.1391    95.7520
 12      0.0000     0.0000E+00    0.0000E+00    5.088000E+08  0.00400  6.597E-04    0   0.6365   age130_m42            0.0000     7.8855E-01     4.3965   1.1597    95.3202
 13      8.1291     3.1121E+00    3.5172E+00    1.434000E+09  0.00400  2.132E-04    0   0.5798   age139_m42            0.0000     7.9651E-01     4.4871   0.2073    96.4168
 14      0.9098     1.2596E+00    1.3202E+00    4.250000E+09  0.00400  5.895E-05    0   0.5377   age158_m42            0.0000     1.1577E+00     5.5691  -0.1470    89.0915
 15      0.3557     8.2711E-01    8.4030E-01    7.500000E+09  0.00400  3.510E-05    0   0.5212   age171_m42            0.0000     1.3566E+00     6.0760  -0.3097    87.5371
 16      0.0000     0.0000E+00    0.0000E+00    1.300000E+10  0.00400  2.005E-05    0   0.5034   age193_m42            0.0000     1.5568E+00     6.5584  -0.4523    86.2258
 17      0.0000     0.0000E+00    0.0000E+00    1.800000E+10  0.00400  1.525E-05    0   0.4967   age213_m42            0.0000     1.5306E+00     6.4728  -0.4788    85.9541
 18      0.0000     0.0000E+00    0.0000E+00    1.000000E+06  0.00800  1.238E-02    0   1.0000   age020_m52            0.0000     1.3774E+00     6.5017   3.1663    76.0557
 19      0.0000     0.0000E+00    0.0000E+00    3.160000E+06  0.00800  3.074E-02    0   0.9966   age045_m52            0.0000     1.3571E+00     6.4247   3.0883    76.8064
 20      0.0000     0.0000E+00    0.0000E+00    5.010000E+06  0.00800  2.668E-02    0   0.9443   age055_m52            0.0000     1.1381E+00     5.7360   2.8092    79.9128
 21      0.4583     1.7511E-03    3.1324E-03    6.610000E+06  0.00800  2.136E-02    0   0.9177   age061_m52            0.0000     5.9312E-01     3.9650   1.4575    89.3306
 22      0.4096     2.7517E-03    4.7345E-03    1.000000E+07  0.00800  1.215E-02    0   0.8827   age070_m52            0.0000     5.9677E-01     3.8785   2.0961    89.7544
 23      0.0000     0.0000E+00    0.0000E+00    1.445000E+07  0.00800  8.717E-03    0   0.8552   age078_m52            0.0000     6.4145E-01     4.1125   2.2395    87.7061
 24      4.2019     6.1330E-02    9.7573E-02    2.512000E+07  0.00800  5.592E-03    0   0.8162   age090_m52            0.0000     5.0238E-01     3.5037   1.8367    92.2195
 25      3.7238     7.8011E-02    1.1923E-01    4.000000E+07  0.00800  3.896E-03    0   0.7841   age104_m52            0.0000     4.9978E-01     3.4905   1.7494    93.0446
 26      2.7289     1.0369E-01    1.4605E-01    1.015200E+08  0.00800  2.148E-03    0   0.7226   age116_m52            0.0000     5.9517E-01     3.8293   1.7119    92.0250
 27      0.0000     0.0000E+00    0.0000E+00    2.861200E+08  0.00800  9.925E-04    0   0.6683   age125_m52            0.0000     7.6530E-01     4.3103   1.2187    96.4484
 28      0.0000     0.0000E+00    0.0000E+00    9.047900E+08  0.00800  3.141E-04    0   0.6138   age135_m52            0.0000     1.0601E+00     5.2151   0.4530    99.1864
 29      0.0000     0.0000E+00    0.0000E+00    1.434000E+09  0.00800  1.719E-04    0   0.5853   age139_m52            0.0000     1.1021E+00     5.3249  -0.1039    96.0838
 30      0.0000     0.0000E+00    0.0000E+00    2.500000E+09  0.00800  7.872E-05    0   0.5600   age150_m52            0.0000     1.4842E+00     6.4017  -0.2933    90.2275
 31      0.0000     0.0000E+00    0.0000E+00    4.250000E+09  0.00800  4.336E-05    0   0.5426   age158_m52            0.0000     1.5125E+00     6.4502  -0.2994    88.9946
 32      0.0000     0.0000E+00    0.0000E+00    6.250000E+09  0.00800  3.159E-05    0   0.5319   age166_m52            0.0000     1.8655E+00     7.2334  -0.4698    87.7860
 33      4.7970     2.8768E+01    2.8447E+01    1.300000E+10  0.00800  1.361E-05    0   0.5073   age193_m52            0.0000     2.4020E+00     8.3321  -0.8948    85.5740
 34      1.0990     9.0737E+00    8.8257E+00    1.800000E+10  0.00800  9.886E-06    0   0.4990   age213_m52            0.0000     2.8533E+00     9.1604  -0.9644    83.7425
 35      0.0000     0.0000E+00    0.0000E+00    1.000000E+06  0.02000  1.544E-02    0   1.0000   age020_m62            0.0000     1.3846E+00     6.5236   3.1628    76.2168
 36      0.0000     0.0000E+00    0.0000E+00    3.160000E+06  0.02000  3.762E-02    0   0.9858   age045_m62            0.0000     1.3877E+00     6.5066   3.1018    76.9042
 37      0.0000     0.0000E+00    0.0000E+00    5.010000E+06  0.02000  3.296E-02    0   0.9342   age055_m62            0.0000     1.1108E+00     5.5949   2.6799    82.0065
 38     17.7250     1.2536E-01    2.1653E-01    8.710000E+06  0.02000  1.154E-02    0   0.8861   age067_m62            0.0000     1.3344E+00     5.2290   1.4411    96.2903
 39      0.0000     0.0000E+00    0.0000E+00    1.445000E+07  0.02000  7.663E-03    0   0.8472   age078_m62            0.0000     6.9155E-01     3.8654   1.6978    93.6087
 40      0.0000     0.0000E+00    0.0000E+00    2.512000E+07  0.02000  4.532E-03    0   0.8099   age090_m62            0.0000     7.3386E-01     3.8998   1.6726    94.1312
 41      0.0000     0.0000E+00    0.0000E+00    5.500000E+07  0.02000  2.733E-03    0   0.7595   age110_m62            0.0000     5.0554E-01     3.5193   1.7370    92.1350
 42      3.4009     2.0276E-01    2.7606E-01    1.609000E+08  0.02000  1.369E-03    0   0.6985   age120_m62            0.0000     6.5468E-01     3.9930   1.5845    94.5765
 43     13.3248     1.2067E+00    1.5792E+00    2.861200E+08  0.02000  9.013E-04    0   0.6714   age125_m62            0.0000     8.2705E-01     4.4486   1.3361    97.3373
 44      0.0000     0.0000E+00    0.0000E+00    5.088000E+08  0.02000  5.028E-04    0   0.6449   age130_m62            0.0000     1.1853E+00     5.4418   1.0016    98.1679
 45      0.0000     0.0000E+00    0.0000E+00    9.047900E+08  0.02000  2.428E-04    0   0.6179   age135_m62            0.0000     1.2661E+00     5.7902   0.4520    96.0212
 46      0.0000     0.0000E+00    0.0000E+00    1.434000E+09  0.02000  1.263E-04    0   0.5908   age139_m62            0.0000     1.3997E+00     6.1475   0.0389    93.2441
 47      0.0000     0.0000E+00    0.0000E+00    2.500000E+09  0.02000  5.985E-05    0   0.5673   age150_m62            0.0000     1.8592E+00     7.2510  -0.2680    89.5592
 48      0.0000     0.0000E+00    0.0000E+00    4.250000E+09  0.02000  3.271E-05    0   0.5468   age158_m62            0.0000     2.4770E+00     8.5196  -0.5178    86.6663
 49      0.0000     0.0000E+00    0.0000E+00    1.000000E+10  0.02000  1.360E-05    0   0.5167   age181_m62            0.0000     3.2602E+00     9.8773  -0.8115    84.2976
 50      4.6358     5.3113E+01    5.1899E+01    1.800000E+10  0.02000  7.124E-06    0   0.5013   age213_m62            0.0000     3.9222E+00    10.9188  -0.9713    81.8112
 51      0.0000     0.0000E+00    0.0000E+00    1.000000E+06  0.05000  2.592E-02    0   0.9998   age020_m72            0.0000     1.4033E+00     6.5909   3.1562    76.1403
 52      0.0000     0.0000E+00    0.0000E+00    3.160000E+06  0.05000  4.845E-02    0   0.9577   age045_m72            0.0000     1.3150E+00     6.2281   2.9735    78.4339
 53      0.0000     0.0000E+00    0.0000E+00    5.010000E+06  0.05000  3.072E-02    0   0.9147   age055_m72            0.0000     9.6968E-01     4.8021   2.3474    87.5920
 54      0.0000     0.0000E+00    0.0000E+00    6.610000E+06  0.05000  1.455E-02    0   0.8877   age061_m72            0.0000     4.0806E+00     7.6785   1.4228   100.1665
 55      0.0000     0.0000E+00    0.0000E+00    1.000000E+07  0.05000  9.074E-03    0   0.8524   age070_m72            0.0000     1.7919E+00     5.6551   2.5145    88.1869
 56      0.0000     0.0000E+00    0.0000E+00    2.512000E+07  0.05000  4.250E-03    0   0.7902   age090_m72            0.0000     1.0759E+00     4.5770   2.1870    90.9860
 57      0.0000     0.0000E+00    0.0000E+00    4.000000E+07  0.05000  3.087E-03    0   0.7618   age104_m72            0.0000     1.0558E+00     4.3900   1.9326    93.6640
 58      1.9055     9.1486E-02    1.2654E-01    1.015200E+08  0.05000  1.700E-03    0   0.7096   age116_m72            0.0000     6.1913E-01     3.7855   1.7023    95.1973
 59      5.7979     6.4087E-01    8.2860E-01    2.861200E+08  0.05000  7.384E-04    0   0.6633   age125_m72            0.0000     9.8914E-01     4.9016   1.2209    98.0186
 60      2.2718     4.8552E-01    6.0305E-01    5.088000E+08  0.05000  3.819E-04    0   0.6372   age130_m72            0.0000     1.2697E+00     5.8074   0.7837    97.2178
 61      0.8291     4.0374E-01    4.8085E-01    9.047900E+08  0.05000  1.676E-04    0   0.6110   age135_m72            0.0000     1.8659E+00     7.2848   0.1819    91.5471
 62      0.0000     0.0000E+00    0.0000E+00    1.434000E+09  0.05000  8.837E-05    0   0.5874   age139_m72            0.0000     2.0155E+00     7.5277  -0.2681    90.8750
 63      0.0000     0.0000E+00    0.0000E+00    2.500000E+09  0.05000  4.233E-05    0   0.5598   age150_m72            0.0000     2.7332E+00     8.9552  -0.5018    86.7681
 64      0.0000     0.0000E+00    0.0000E+00    6.250000E+09  0.05000  1.435E-05    0   0.5249   age166_m72            0.0000     3.5403E+00    10.3405  -0.8885    83.1974
 65      0.0000     0.0000E+00    0.0000E+00    1.300000E+10  0.05000  6.513E-06    0   0.5036   age193_m72            0.0000     4.4744E+00    11.7581  -1.0000    77.4830
 66      0.0000     0.0000E+00    0.0000E+00    1.800000E+10  0.05000  4.527E-06    0   0.4945   age213_m72            0.0000     5.2642E+00    12.7682  -1.0000    71.4576


## Synthesis Results - Average & Chains ##

# j      x_j: min, <> & last-chain-values for 1 ...  7 chains
  1      0.0000      0.5598      0.3577      0.8043      0.5617      0.3637      0.0000      0.0000      0.0000
  2      0.0000      0.9123      0.4462      0.0000      1.2334      0.0027      0.8434      0.9403      1.2239
  3      0.0000      0.2465      0.2084      0.7612      0.0000      0.0000      0.1380      0.2545      0.0000
  4      0.0000      0.2455      0.0607      0.0924      0.0000      0.0000      0.6840      0.0000      1.0226
  5      3.5524      3.6747      4.3051      3.2004      2.8043      4.6534      4.0361      4.3988      5.0887
  6      0.0000      0.4336      0.4519      0.0000      0.6342      0.0000      0.0000      0.3153      0.4705
  7      4.8362      2.8813      3.3203      2.7196      2.7681      2.7953      3.0466      3.2986      2.2501
  8      7.5989      3.8925      4.7307      5.4613      4.2573      3.8258      4.2276      4.9432      4.0819
  9      1.9488      2.0557      2.7229      3.8458      3.2246      1.3004      2.5269      1.4375      2.2598
 10      3.4044      3.4655      4.1749      1.9395      3.8288      3.4802      3.6913      4.0096      4.4203
 11      0.0000      0.8349      1.1291      1.5832      0.2321      0.0000      0.0000      0.0000      0.0000
 12      0.0000      0.6271      0.0692      1.0554      0.1385      1.7306      0.0000      0.1463      0.0000
 13      8.1291      8.6356      8.7918      9.0294      8.3998      8.4303     10.4266      9.0227      8.5085
 14      0.9098      0.9618      1.0874      0.8945      1.1554      1.1354      0.7022      1.0574      1.0074
 15      0.3557      0.5252      0.3636      0.6093      0.1906      1.0443      0.5943      0.6131      0.0000
 16      0.0000      0.0516      0.0000      0.0000      0.0000      0.0000      0.0000      0.0000      0.0000
 17      0.0000      0.0843      0.0000      0.0000      0.0000      0.0000      0.0000      0.0000      0.0000
 18      0.0000      0.1621      0.0000      0.0000      0.7041      0.6026      0.4701      0.0000      0.0000
 19      0.0000      0.2832      0.6719      0.5969      0.3173      0.4356      0.4749      0.0000      0.4261
 20      0.0000      0.2065      0.0000      0.0000      0.0000      0.0000      0.0000      0.0000      0.0000
 21      0.4583      1.0735      2.1844      0.5743      0.0000      0.6317      0.9151      0.0000      0.0628
 22      0.4096      0.2808      0.4572      0.1158      0.9551      0.0000      0.6111      0.0000      0.0000
 23      0.0000      0.5979      0.0000      1.6596      0.5552      1.3873      0.1711      0.3587      0.0000
 24      4.2019      2.5583      2.3615      2.7058      2.4331      2.7627      2.3260      3.5963      3.5639
 25      3.7238      2.7565      2.3427      1.8939      2.5055      2.4645      4.6447      2.3564      3.6337
 26      2.7289      1.8578      2.7014      1.5416      2.3303      1.4958      1.8895      1.0430      2.5720
 27      0.0000      0.7084      0.0000      0.3780      0.2575      1.5218      0.6059      0.8011      1.6087
 28      0.0000      0.5592      0.0000      0.4293      0.0000      0.0000      0.0000      0.0000      0.1448
 29      0.0000      0.0885      0.0000      0.0000      0.0444      0.0000      0.0000      0.0000      0.0000
 30      0.0000      0.2016      0.0000      0.0829      0.0359      0.0000      0.0000      0.0682      0.0000
 31      0.0000      0.4760      1.1436      0.5167      0.0000      0.7145      0.0000      0.8195      0.4783
 32      0.0000      0.0608      0.0714      0.0806      0.0000      0.0000      0.0000      0.1672      0.0000
 33      4.7970      3.1817      2.8778      3.2142      3.4998      3.4085      3.4102      3.4368      4.0217
 34      1.0990      0.8298      0.8650      0.9381      1.0150      0.8802      0.9295      0.6634      1.0868
 35      0.0000      0.1740      0.0000      0.0000      0.0000      0.0000      0.0000      0.0000      0.0000
 36      0.0000      0.1227      0.0000      0.1276      0.0000      0.1026      0.0000      0.0000      0.1466
 37      0.0000      0.2959      0.0000      0.0000      0.0000      0.3037      0.5298      0.8966      1.6750
 38     17.7250     16.0930     16.1921     16.7085     16.1425     16.8315     15.7489     16.7220     14.5216
 39      0.0000      0.4953      0.9536      0.0901      1.6680      0.3799      0.2763      0.6049      0.0000
 40      0.0000      0.2229      0.0000      0.1787      0.0000      0.0000      0.0000      0.0343      0.0905
 41      0.0000      2.6986      2.5459      2.8466      2.5220      2.2505      1.8489      2.7814      1.8980
 42      3.4009      3.1527      3.6239      3.5825      3.5531      3.4024      4.0552      3.1128      4.1479
 43     13.3248      7.5002      8.7554      8.4555      8.6682      9.2623      9.3487      8.0802      8.9450
 44      0.0000      1.7162      1.8411      1.2018      0.2790      0.5893      1.5118      2.4350      0.3811
 45      0.0000      0.3258      0.0000      0.0000      0.0000      0.0000      0.0000      0.0000      0.0000
 46      0.0000      0.6359      0.0986      0.1733      0.0000      0.0000      0.2214      0.0000      0.7289
