###################################################################
## OUTPUT of StarlightChains_v04.for    [Cid@UFSC - 01/Apr/2007] ##
###################################################################

## Some input info
2013ce.txt                               [arq_obs]
Base.CB07.vall.4m                        [arq_base]
Masks.EmLines.NEW.gm                     [arq_masks]
StCv04.C11.config                        [arq_config]
   66                                    [N_base]
    0                                    [N_YAV_components = # of components with extra extinction!]
    0                                    [i_FitPowerLaw (1/0 = Yes/No)]
-9.99                                    [alpha_PowerLaw]
CCM                                      [red_law_option]
 1.458241                                [q_norm = A(l_norm)/A(V)]

## (Re)Sampling Parameters
 3741.00                                 [l_ini (A)]
 7218.00                                 [l_fin (A)]
    1.00                                 [dl    (A)]     (OBS: dl_cushion =    50.00 A)

## Normalization info
 4020.00                                 [l_norm (A) - for base]
 4010.00                                 [llow_norm (A) - window for f_obs]
 4060.00                                 [lupp_norm (A) - window for f_obs]
2.477672E-17                             [fobs_norm (in input units)]

## S/N
 3691.00                                 [llow_SN (A) - window for S/N]
 7268.00                                 [lupp_SN (A) - window for S/N]
   2.291                                 [S/N in S/N window]
   3.930                                 [S/N in norm. window]
   3.629                                 [S/N_err in S/N window]
   6.226                                 [S/N_err in norm. window]
  1.0000                                 [fscale_chi2]

## etc...
    -2007404                             [idum_orig]
  2386                                   [NOl_eff]
  2384                                   [Nl_eff]
     2    NSIGMA                         [Ntot_cliped & clip_method]
   949760                                [Nglobal_steps]
   7                                     [N_chains]
  23                                     [NEX0s_base = N_base in EX0s-fits]
 0   0   1       16   2.0   1.236E+01    [Clip-Bug, RC-Crash & Burn-In warning-flags, n_censored_weights, wei_nsig_threshold & wei_limit]
    11     10.671     10.166      0.505  [idt_all, wdt_TotTime, wdt_UsrTime & wdt_SysTime (sec)]

## Synthesis Results - Best model ##

 3.49561E-01                             [chi2/Nl_eff]
    14.45655                             [adev (%)]

   101.17033                             [sum-of-x (%)]
 3.43531E-17                             [Flux_tot (units of input spectrum!)]
 6.39090E-14                             [Mini_tot (???)]
 3.39501E-14                             [Mcor_tot (???)]

   0.00                                  [v0_min  (km/s)]
 150.00                                  [vd_min  (km/s)]
 0.2346                                  [AV_min  (mag)]
 0.0000                                  [YAV_min (mag)]

# j     x_j(%)      Mini_j(%)     Mcor_j(%)     age_j(yr)     Z_j      (L/M)_j    YAV?  Mstars   component_j        a/Fe...       SSP_chi2r SSP_adev(%)   SSP_AV   SSP_x(%)
  1      8.8651     4.3054E-01    8.1047E-01    1.000000E+06  0.00400  1.094E-02    0   1.0000   age020_m42            0.0000     3.8476E-01    14.6672   1.2520    93.1379
  2      0.0000     0.0000E+00    0.0000E+00    3.160000E+06  0.00400  4.007E-02    0   0.9999   age045_m42            0.0000     3.8529E-01    14.6499   0.5609    98.1958
  3      0.0008     1.6044E-05    2.8656E-05    5.010000E+06  0.00400  2.539E-02    0   0.9488   age055_m42            0.0000     3.8275E-01    14.6223   0.8683    96.2862
  4      0.0000     0.0000E+00    0.0000E+00    6.610000E+06  0.00400  2.620E-02    0   0.9220   age061_m42            0.0000     3.8523E-01    14.6742   0.4914    98.3133
  5      0.0000     0.0000E+00    0.0000E+00    1.000000E+07  0.00400  1.322E-02    0   0.8862   age070_m42            0.0000     3.6558E-01    14.4763   0.2117   100.8594
  6      0.0000     0.0000E+00    0.0000E+00    1.445000E+07  0.00400  7.883E-03    0   0.8571   age078_m42            0.0000     3.6567E-01    14.4780   0.5293    98.6071
  7      0.0000     0.0000E+00    0.0000E+00    2.512000E+07  0.00400  5.251E-03    0   0.8174   age090_m42            0.0000     3.6341E-01    14.4651   0.0835   101.4647
  8      0.0000     0.0000E+00    0.0000E+00    4.000000E+07  0.00400  3.649E-03    0   0.7851   age104_m42            0.0000     3.6699E-01    14.5108  -0.1385   102.0375
  9      0.0000     0.0000E+00    0.0000E+00    5.500000E+07  0.00400  3.098E-03    0   0.7629   age110_m42            0.0000     3.7909E-01    14.6662   0.0205   101.5742
 10      0.0000     0.0000E+00    0.0000E+00    1.015200E+08  0.00400  2.228E-03    0   0.7207   age116_m42            0.0000     3.8927E-01    14.7947   0.0461   101.4014
 11      0.0000     0.0000E+00    0.0000E+00    2.861200E+08  0.00400  1.093E-03    0   0.6648   age125_m42            0.0000     3.9280E-01    14.9087  -0.5109   104.1218
 12      0.0000     0.0000E+00    0.0000E+00    5.088000E+08  0.00400  6.597E-04    0   0.6365   age130_m42            0.0000     4.0797E-01    15.0555  -0.5132   104.4194
 13      0.0000     0.0000E+00    0.0000E+00    1.434000E+09  0.00400  2.132E-04    0   0.5798   age139_m42            0.0000     5.3421E-01    17.6396  -1.0000    89.0380
 14      0.0000     0.0000E+00    0.0000E+00    4.250000E+09  0.00400  5.895E-05    0   0.5377   age158_m42            0.0000     8.2478E-01    21.8612  -1.0000    71.2014
 15      0.0000     0.0000E+00    0.0000E+00    7.500000E+09  0.00400  3.510E-05    0   0.5212   age171_m42            0.0000     9.9061E-01    23.8572  -1.0000    65.0864
 16      2.7125     7.1880E+01    6.8115E+01    1.300000E+10  0.00400  2.005E-05    0   0.5034   age193_m42            0.0000     1.1506E+00    25.6136  -1.0000    60.0589
 17      0.0000     0.0000E+00    0.0000E+00    1.800000E+10  0.00400  1.525E-05    0   0.4967   age213_m42            0.0000     1.1714E+00    25.8674  -1.0000    59.1731
 18      3.8489     1.6518E-01    3.1095E-01    1.000000E+06  0.00800  1.238E-02    0   1.0000   age020_m52            0.0000     3.8502E-01    14.6697   1.2483    93.3138
 19      0.0000     0.0000E+00    0.0000E+00    3.160000E+06  0.00800  3.074E-02    0   0.9966   age045_m52            0.0000     3.8524E-01    14.6701   1.1743    94.0268
 20      0.0000     0.0000E+00    0.0000E+00    5.010000E+06  0.00800  2.668E-02    0   0.9443   age055_m52            0.0000     3.8210E-01    14.6239   0.9446    95.6732
 21     10.0392     2.4972E-01    4.3139E-01    6.610000E+06  0.00800  2.136E-02    0   0.9177   age061_m52            0.0000     3.6460E-01    14.4294  -0.2956   102.2236
 22      0.0031     1.3726E-04    2.2808E-04    1.000000E+07  0.00800  1.215E-02    0   0.8827   age070_m52            0.0000     3.6136E-01    14.4735   0.3850   101.0256
 23      0.0000     0.0000E+00    0.0000E+00    1.445000E+07  0.00800  8.717E-03    0   0.8552   age078_m52            0.0000     3.6503E-01    14.4686   0.4968    99.9182
 24      0.0004     3.5885E-05    5.5135E-05    2.512000E+07  0.00800  5.592E-03    0   0.8162   age090_m52            0.0000     3.6506E-01    14.5195   0.1487   102.6488
 25      0.0000     0.0000E+00    0.0000E+00    4.000000E+07  0.00800  3.896E-03    0   0.7841   age104_m52            0.0000     3.7173E-01    14.6200   0.0680   103.0503
 26      0.0000     0.0000E+00    0.0000E+00    1.015200E+08  0.00800  2.148E-03    0   0.7226   age116_m52            0.0000     3.8285E-01    14.7331   0.0123   102.3984
 27      0.0000     0.0000E+00    0.0000E+00    2.861200E+08  0.00800  9.925E-04    0   0.6683   age125_m52            0.0000     4.1043E-01    15.1154  -0.4508   105.5207
 28      0.0000     0.0000E+00    0.0000E+00    9.047900E+08  0.00800  3.141E-04    0   0.6138   age135_m52            0.0000     4.7330E-01    16.4022  -1.0000   100.2399
 29      0.0000     0.0000E+00    0.0000E+00    1.434000E+09  0.00800  1.719E-04    0   0.5853   age139_m52            0.0000     7.5796E-01    21.0359  -1.0000    78.0447
 30      0.4809     3.2459E+00    3.4217E+00    2.500000E+09  0.00800  7.872E-05    0   0.5600   age150_m52            0.0000     9.8300E-01    23.7174  -1.0000    67.4709
 31      0.0000     0.0000E+00    0.0000E+00    4.250000E+09  0.00800  4.336E-05    0   0.5426   age158_m52            0.0000     9.9795E-01    23.8487  -1.0000    66.3792
 32      0.0000     0.0000E+00    0.0000E+00    6.250000E+09  0.00800  3.159E-05    0   0.5319   age166_m52            0.0000     1.1925E+00    25.9436  -1.0000    60.5474
 33      0.0000     0.0000E+00    0.0000E+00    1.300000E+10  0.00800  1.361E-05    0   0.5073   age193_m52            0.0000     1.6848E+00    30.7489  -1.0000    48.2269
 34      0.0000     0.0000E+00    0.0000E+00    1.800000E+10  0.00800  9.886E-06    0   0.4990   age213_m52            0.0000     1.8036E+00    31.6662  -1.0000    45.5444
 35      5.3314     1.8346E-01    3.4535E-01    1.000000E+06  0.02000  1.544E-02    0   1.0000   age020_m62            0.0000     3.8527E-01    14.6774   1.2438    93.5482
 36      0.0000     0.0000E+00    0.0000E+00    3.160000E+06  0.02000  3.762E-02    0   0.9858   age045_m62            0.0000     3.8686E-01    14.7109   1.1839    94.3037
 37      0.0000     0.0000E+00    0.0000E+00    5.010000E+06  0.02000  3.296E-02    0   0.9342   age055_m62            0.0000     3.8815E-01    14.6979   0.8317    97.2736
 38     26.9897     1.2426E+00    2.0728E+00    8.710000E+06  0.02000  1.154E-02    0   0.8861   age067_m62            0.0000     3.6459E-01    14.9408  -0.1737   105.4069
 39      0.0000     0.0000E+00    0.0000E+00    1.445000E+07  0.02000  7.663E-03    0   0.8472   age078_m62            0.0000     3.5794E-01    14.5342   0.0317   103.6519
 40      0.0000     0.0000E+00    0.0000E+00    2.512000E+07  0.02000  4.532E-03    0   0.8099   age090_m62            0.0000     3.6202E-01    14.6319   0.0275   103.2911
 41      0.0000     0.0000E+00    0.0000E+00    5.500000E+07  0.02000  2.733E-03    0   0.7595   age110_m62            0.0000     3.7105E-01    14.5934   0.0457   102.5003
 42      0.0000     0.0000E+00    0.0000E+00    1.609000E+08  0.02000  1.369E-03    0   0.6985   age120_m62            0.0000     3.9682E-01    14.9413  -0.0976   104.2950
 43      0.0000     0.0000E+00    0.0000E+00    2.861200E+08  0.02000  9.013E-04    0   0.6714   age125_m62            0.0000     4.1769E-01    15.2076  -0.3353   106.6050
 44      0.0000     0.0000E+00    0.0000E+00    5.088000E+08  0.02000  5.028E-04    0   0.6449   age130_m62            0.0000     4.4760E-01    15.6378  -0.7046   108.7030
 45      0.5832     1.2763E+00    1.4845E+00    9.047900E+08  0.02000  2.428E-04    0   0.6179   age135_m62            0.0000     4.9926E-01    16.8121  -1.0000    97.2543
 46      0.0000     0.0000E+00    0.0000E+00    1.434000E+09  0.02000  1.263E-04    0   0.5908   age139_m62            0.0000     7.1667E-01    20.2450  -1.0000    80.3896
 47      1.0116     8.9807E+00    9.5906E+00    2.500000E+09  0.02000  5.985E-05    0   0.5673   age150_m62            0.0000     1.0137E+00    23.8832  -1.0000    67.6504
 48      0.7088     1.1513E+01    1.1851E+01    4.250000E+09  0.02000  3.271E-05    0   0.5468   age158_m62            0.0000     1.3086E+00    26.9236  -1.0000    58.3664
 49      0.0000     0.0000E+00    0.0000E+00    1.000000E+10  0.02000  1.360E-05    0   0.5167   age181_m62            0.0000     1.6789E+00    30.3292  -1.0000    49.3156
 50      0.0000     0.0000E+00    0.0000E+00    1.800000E+10  0.02000  7.124E-06    0   0.5013   age213_m62            0.0000     1.9106E+00    32.2196  -1.0000    44.2025
 51     40.5947     8.3212E-01    1.5661E+00    1.000000E+06  0.05000  2.592E-02    0   0.9998   age020_m72            0.0000     3.8393E-01    14.6739   1.2328    93.6897
 52      0.0000     0.0000E+00    0.0000E+00    3.160000E+06  0.05000  4.845E-02    0   0.9577   age045_m72            0.0000     3.8950E-01    14.7333   1.0761    95.1669
 53      0.0000     0.0000E+00    0.0000E+00    5.010000E+06  0.05000  3.072E-02    0   0.9147   age055_m72            0.0000     3.6787E-01    14.6194   0.6108    99.5922
 54      0.0000     0.0000E+00    0.0000E+00    6.610000E+06  0.05000  1.455E-02    0   0.8877   age061_m72            0.0000     4.0974E-01    15.9988  -0.1208   106.6197
 55      0.0000     0.0000E+00    0.0000E+00    1.000000E+07  0.05000  9.074E-03    0   0.8524   age070_m72            0.0000     3.8220E-01    14.9318   0.8025    99.0436
 56      0.0000     0.0000E+00    0.0000E+00    2.512000E+07  0.05000  4.250E-03    0   0.7902   age090_m72            0.0000     3.7688E-01    14.8002   0.5098   100.6161
 57      0.0000     0.0000E+00    0.0000E+00    4.000000E+07  0.05000  3.087E-03    0   0.7618   age104_m72            0.0000     3.7912E-01    14.8670   0.2862   102.2159
 58      0.0000     0.0000E+00    0.0000E+00    1.015200E+08  0.05000  1.700E-03    0   0.7096   age116_m72            0.0000     3.8934E-01    14.8993   0.0429   104.1168
 59      0.0000     0.0000E+00    0.0000E+00    2.861200E+08  0.05000  7.384E-04    0   0.6633   age125_m72            0.0000     4.3445E-01    15.4376  -0.4631   107.6902
 60      0.0000     0.0000E+00    0.0000E+00    5.088000E+08  0.05000  3.819E-04    0   0.6372   age130_m72            0.0000     4.5582E-01    15.7592  -0.9579   109.2144
 61      0.0000     0.0000E+00    0.0000E+00    9.047900E+08  0.05000  1.676E-04    0   0.6110   age135_m72            0.0000     6.9089E-01    19.6443  -1.0000    83.6828
 62      0.0000     0.0000E+00    0.0000E+00    1.434000E+09  0.05000  8.837E-05    0   0.5874   age139_m72            0.0000     1.0256E+00    23.9900  -1.0000    68.6047
 63      0.0000     0.0000E+00    0.0000E+00    2.500000E+09  0.05000  4.233E-05    0   0.5598   age150_m72            0.0000     1.3212E+00    26.9390  -1.0000    58.8263
 64      0.0000     0.0000E+00    0.0000E+00    6.250000E+09  0.05000  1.435E-05    0   0.5249   age166_m72            0.0000     1.7864E+00    31.2466  -1.0000    46.8628
 65      0.0000     0.0000E+00    0.0000E+00    1.300000E+10  0.05000  6.513E-06    0   0.5036   age193_m72            0.0000     2.0985E+00    33.7059  -1.0000    41.2572
 66      0.0000     0.0000E+00    0.0000E+00    1.800000E+10  0.05000  4.527E-06    0   0.4945   age213_m72            0.0000     2.2791E+00    35.0614  -1.0000    38.0160


## Synthesis Results - Average & Chains ##

# j      x_j: min, <> & last-chain-values for 1 ...  7 chains
  1      8.8651      1.8889      4.7330      9.5954     10.3848     10.8890      5.5470      5.4376      5.7380
  2      0.0000      2.5032      0.0000      0.0000      0.0000      0.9476      0.0000      0.0000      0.0000
  3      0.0008      1.0767      0.7385      0.0000      4.3404      0.0000      0.0000      0.0000      0.0000
  4      0.0000      2.2192      0.0000      0.0000      0.3547      0.0000      0.3327     12.7708     11.1332
  5      0.0000      4.1524      4.7160      0.0000      0.0000      0.0000      0.0000      0.0000      0.0000
  6      0.0000      2.7621      8.4222      0.0000      6.1064      0.0000      0.0000      4.2729      0.1123
  7      0.0000      7.1099      4.1031      4.9451      0.0000      4.9159      8.7436      4.4426      0.0000
  8      0.0000      2.4018      1.2316      0.0000      0.0000      0.0000      7.0444      0.0000      0.4875
  9      0.0000      2.5707      0.0000      5.9325      0.0112      0.0000      7.2591      0.0000      0.0000
 10      0.0000      1.5003      1.9695      0.0000      0.0000      0.3945      0.0000      0.0000      0.0000
 11      0.0000      0.2203      0.8392      0.0000      0.0000      0.0000      0.3559      1.1294      0.0000
 12      0.0000      0.5551      0.0000      0.0000      0.0000      0.1668      0.0000      0.0000      0.0000
 13      0.0000      0.0509      0.0000      0.0000      0.0000      0.0000      0.0000      0.0000      1.7560
 14      0.0000      0.1072      1.1059      0.0000      0.2856      0.0000      0.0000      0.8788      0.0000
 15      0.0000      0.0356      0.0000      0.0000      0.0000      0.0000      0.8071      0.0000      0.0000
 16      2.7125      0.0354      0.7478      0.0000      0.7354      0.0000      0.0000      0.0000      0.0000
 17      0.0000      0.0614      0.0000      0.0000      0.0000      0.0000      0.0000      0.0000      0.2813
 18      3.8489      1.7590     10.5593      0.0000      3.5367      4.4618      2.4056      6.4214      2.7640
 19      0.0000      2.9506      4.2399      7.8267      0.0000      4.0083      5.5431      5.1286      0.0000
 20      0.0000      1.2555     17.5462      4.9447      0.0000      2.4917      1.3074      0.0000      0.0000
 21     10.0392      2.9656      7.2399     13.9263      3.2067     11.0261      5.2272      2.2049      0.0000
 22      0.0031      3.7702      0.0000      0.0000      2.3458      0.0000      0.0000      0.0000      0.0000
 23      0.0000      2.1744      6.3627      0.0000      0.5466      0.0000      0.0570      3.9285      0.0000
 24      0.0004      3.8244      0.0000      0.0000      1.3184      0.0000      0.0000      0.8146      4.8808
 25      0.0000      2.9093      0.0000      0.0000      1.8395      1.9050      0.0000      0.8155      0.0000
 26      0.0000      1.9495      1.2035      0.0000      0.0000      0.0000      0.0000      0.0000      0.0000
 27      0.0000      0.4044      0.0000      0.0000      0.4437      0.0000      0.0000      0.0000      0.0000
 28      0.0000      0.1518      0.0000      1.0738      0.0000      0.8228      0.0000      0.0000      5.9704
 29      0.0000      0.0806      0.0000      0.0000      0.0000      0.0000      1.2225      0.0000      0.0000
 30      0.4809      0.0360      0.0000      0.0000      1.1831      0.0000      1.0016      0.0000      0.0000
 31      0.0000      0.0840      0.0000      0.0000      0.0000      0.1838      0.8343      0.4141      0.4871
 32      0.0000      0.0360      0.0000      0.0000      0.0000      0.0000      0.0000      0.0000      0.0000
 33      0.0000      0.0033      0.0000      0.2056      0.0000      0.0000      0.3307      0.0000      0.0000
 34      0.0000      0.0171      0.0000      0.0157      0.0000      0.0000      0.0000      0.0000      0.0000
 35      5.3314      0.8053      3.1536      1.2932      7.7376      1.2154      0.0000      0.0000      0.0000
 36      0.0000      1.1407      0.0000      0.0000      0.0000      3.3772      0.0000      7.5832      0.9066
 37      0.0000      0.7623      0.0000      0.0000      0.0000      0.0000      0.0000      0.0000      6.2272
 38     26.9897     14.0367     12.7768     23.9991     28.6956     15.7836     21.3324     25.8756     26.7008
 39      0.0000      9.9430      0.0000     21.6649      3.3311     16.9670     15.8280      7.9745      0.0000
 40      0.0000      4.3163      0.0000      0.0000      3.7604     10.3077      0.0000      0.0000      6.5143
 41      0.0000      3.2614      0.0000      0.0000      0.6150      0.0000      0.0000      0.0000      5.7928
 42      0.0000      1.0307      0.0000      0.0000      0.4852      0.0000      0.0000      0.0000      0.0000
 43      0.0000      0.2869      0.0000      0.0000      0.0000      0.2316      0.0000      0.0000      0.0000
 44      0.0000      0.1641      0.0000      0.0000      0.0000      0.0000      0.0000      0.0000      0.0000
 45      0.5832      0.2146      0.0000      0.5193      0.8255      0.0000      0.0000      1.4943      0.0000
 46      0.0000      0.1317      3.9929      0.2086      0.0000      0.0000      0.0000      0.0000      0.0000
