###################################################################
## OUTPUT of StarlightChains_v04.for    [Cid@UFSC - 01/Apr/2007] ##
###################################################################

## Some input info
2013ar.txt                               [arq_obs]
Base.CB07.vall.4m                        [arq_base]
Masks.EmLines.NEW.gm                     [arq_masks]
StCv04.C11.config                        [arq_config]
   66                                    [N_base]
    0                                    [N_YAV_components = # of components with extra extinction!]
    0                                    [i_FitPowerLaw (1/0 = Yes/No)]
-9.99                                    [alpha_PowerLaw]
CCM                                      [red_law_option]
 1.458241                                [q_norm = A(l_norm)/A(V)]

## (Re)Sampling Parameters
 3741.00                                 [l_ini (A)]
 7218.00                                 [l_fin (A)]
    1.00                                 [dl    (A)]     (OBS: dl_cushion =    50.00 A)

## Normalization info
 4020.00                                 [l_norm (A) - for base]
 4010.00                                 [llow_norm (A) - window for f_obs]
 4060.00                                 [lupp_norm (A) - window for f_obs]
9.798987E-17                             [fobs_norm (in input units)]

## S/N
 3691.00                                 [llow_SN (A) - window for S/N]
 7268.00                                 [lupp_SN (A) - window for S/N]
   5.763                                 [S/N in S/N window]
   7.295                                 [S/N in norm. window]
  10.000                                 [S/N_err in S/N window]
  12.658                                 [S/N_err in norm. window]
  1.0000                                 [fscale_chi2]

## etc...
    -2007403                             [idum_orig]
  2211                                   [NOl_eff]
  2200                                   [Nl_eff]
    11    NSIGMA                         [Ntot_cliped & clip_method]
   848400                                [Nglobal_steps]
   7                                     [N_chains]
  15                                     [NEX0s_base = N_base in EX0s-fits]
 0   0   1       47   2.0   1.755E+01    [Clip-Bug, RC-Crash & Burn-In warning-flags, n_censored_weights, wei_nsig_threshold & wei_limit]
    12     12.135     11.631      0.505  [idt_all, wdt_TotTime, wdt_UsrTime & wdt_SysTime (sec)]

## Synthesis Results - Best model ##

 4.65286E-01                             [chi2/Nl_eff]
     5.22361                             [adev (%)]

   107.46290                             [sum-of-x (%)]
 2.08353E-16                             [Flux_tot (units of input spectrum!)]
 3.20298E-13                             [Mini_tot (???)]
 2.08020E-13                             [Mcor_tot (???)]

 -30.64                                  [v0_min  (km/s)]
 299.55                                  [vd_min  (km/s)]
 0.5081                                  [AV_min  (mag)]
 0.0000                                  [YAV_min (mag)]

# j     x_j(%)      Mini_j(%)     Mcor_j(%)     age_j(yr)     Z_j      (L/M)_j    YAV?  Mstars   component_j        a/Fe...       SSP_chi2r SSP_adev(%)   SSP_AV   SSP_x(%)
  1      0.1521     8.4134E-03    1.2954E-02    1.000000E+06  0.00400  1.094E-02    0   1.0000   age020_m42            0.0000     1.1221E+00     7.3942   2.4738    86.1462
  2      0.0000     0.0000E+00    0.0000E+00    3.160000E+06  0.00400  4.007E-02    0   0.9999   age045_m42            0.0000     6.6533E-01     6.1026   1.6831    94.8889
  3      0.0000     0.0000E+00    0.0000E+00    5.010000E+06  0.00400  2.539E-02    0   0.9488   age055_m42            0.0000     8.2196E-01     6.5792   2.0303    91.4120
  4      0.0000     0.0000E+00    0.0000E+00    6.610000E+06  0.00400  2.620E-02    0   0.9220   age061_m42            0.0000     6.3321E-01     5.9597   1.6060    95.3034
  5      0.0000     0.0000E+00    0.0000E+00    1.000000E+07  0.00400  1.322E-02    0   0.8862   age070_m42            0.0000     7.2202E-01     6.2152   1.3525    96.2703
  6      0.0066     5.0569E-04    6.6737E-04    1.445000E+07  0.00400  7.883E-03    0   0.8571   age078_m42            0.0000     8.1610E-01     6.4847   1.6941    93.1806
  7      0.0000     0.0000E+00    0.0000E+00    2.512000E+07  0.00400  5.251E-03    0   0.8174   age090_m42            0.0000     7.1928E-01     6.2240   1.2223    96.8462
  8      0.0000     0.0000E+00    0.0000E+00    4.000000E+07  0.00400  3.649E-03    0   0.7851   age104_m42            0.0000     6.5183E-01     5.9884   0.9812    98.2535
  9      0.0433     8.4522E-03    9.9286E-03    5.500000E+07  0.00400  3.098E-03    0   0.7629   age110_m42            0.0000     5.6112E-01     5.6170   1.1117    99.2627
 10      0.0000     0.0000E+00    0.0000E+00    1.015200E+08  0.00400  2.228E-03    0   0.7207   age116_m42            0.0000     5.2417E-01     5.4571   1.1136   100.2428
 11      0.0130     7.2042E-03    7.3744E-03    2.861200E+08  0.00400  1.093E-03    0   0.6648   age125_m42            0.0000     5.1652E-01     5.4804   0.5405   103.6631
 12      0.0000     0.0000E+00    0.0000E+00    5.088000E+08  0.00400  6.597E-04    0   0.6365   age130_m42            0.0000     5.1260E-01     5.4373   0.5047   105.6279
 13      0.0000     0.0000E+00    0.0000E+00    1.434000E+09  0.00400  2.132E-04    0   0.5798   age139_m42            0.0000     5.2392E-01     5.4890  -0.4788   108.1015
 14      0.0000     0.0000E+00    0.0000E+00    4.250000E+09  0.00400  5.895E-05    0   0.5377   age158_m42            0.0000     7.1342E-01     6.1491  -0.8979   102.7575
 15      0.0000     0.0000E+00    0.0000E+00    7.500000E+09  0.00400  3.510E-05    0   0.5212   age171_m42            0.0000     8.7448E-01     6.6223  -1.0000    99.0943
 16      0.0000     0.0000E+00    0.0000E+00    1.300000E+10  0.00400  2.005E-05    0   0.5034   age193_m42            0.0000     1.2352E+00     7.7711  -1.0000    92.8669
 17      0.0000     0.0000E+00    0.0000E+00    1.800000E+10  0.00400  1.525E-05    0   0.4967   age213_m42            0.0000     1.2642E+00     7.9126  -1.0000    91.6281
 18      0.0000     0.0000E+00    0.0000E+00    1.000000E+06  0.00800  1.238E-02    0   1.0000   age020_m52            0.0000     1.1198E+00     7.3987   2.4693    86.3410
 19      0.0000     0.0000E+00    0.0000E+00    3.160000E+06  0.00800  3.074E-02    0   0.9966   age045_m52            0.0000     1.0674E+00     7.2964   2.3857    87.3683
 20      2.7635     6.2699E-02    9.1163E-02    5.010000E+06  0.00800  2.668E-02    0   0.9443   age055_m52            0.0000     8.8185E-01     6.7565   2.1212    90.2277
 21      0.0000     0.0000E+00    0.0000E+00    6.610000E+06  0.00800  2.136E-02    0   0.9177   age061_m52            0.0000     8.1333E-01     6.5070   0.8632    96.7703
 22      0.0000     0.0000E+00    0.0000E+00    1.000000E+07  0.00800  1.215E-02    0   0.8827   age070_m52            0.0000     8.2160E-01     6.5827   1.5498    95.3357
 23      0.0000     0.0000E+00    0.0000E+00    1.445000E+07  0.00800  8.717E-03    0   0.8552   age078_m52            0.0000     7.8068E-01     6.3924   1.6548    94.6821
 24      0.0000     0.0000E+00    0.0000E+00    2.512000E+07  0.00800  5.592E-03    0   0.8162   age090_m52            0.0000     6.9994E-01     6.1709   1.2839    98.1399
 25     26.8687     4.1746E+00    5.0401E+00    4.000000E+07  0.00800  3.896E-03    0   0.7841   age104_m52            0.0000     6.1040E-01     5.8398   1.1803    99.6498
 26      0.0000     0.0000E+00    0.0000E+00    1.015200E+08  0.00800  2.148E-03    0   0.7226   age116_m52            0.0000     5.2533E-01     5.4954   1.0916   100.6298
 27      0.0000     0.0000E+00    0.0000E+00    2.861200E+08  0.00800  9.925E-04    0   0.6683   age125_m52            0.0000     5.0810E-01     5.3862   0.5682   106.7006
 28      0.0000     0.0000E+00    0.0000E+00    9.047900E+08  0.00800  3.141E-04    0   0.6138   age135_m52            0.0000     6.0648E-01     5.8345  -0.2557   112.2420
 29      0.0000     0.0000E+00    0.0000E+00    1.434000E+09  0.00800  1.719E-04    0   0.5853   age139_m52            0.0000     6.4022E-01     5.9883  -0.8127   108.7709
 30      0.0000     0.0000E+00    0.0000E+00    2.500000E+09  0.00800  7.872E-05    0   0.5600   age150_m52            0.0000     8.6397E-01     6.6310  -1.0000   102.7873
 31      0.0000     0.0000E+00    0.0000E+00    4.250000E+09  0.00800  4.336E-05    0   0.5426   age158_m52            0.0000     9.3121E-01     6.7822  -1.0000   101.1928
 32      0.0000     0.0000E+00    0.0000E+00    6.250000E+09  0.00800  3.159E-05    0   0.5319   age166_m52            0.0000     1.4420E+00     8.3514  -1.0000    94.0437
 33      0.0000     0.0000E+00    0.0000E+00    1.300000E+10  0.00800  1.361E-05    0   0.5073   age193_m52            0.0000     3.5361E+00    13.7985  -1.0000    77.3697
 34      0.0000     0.0000E+00    0.0000E+00    1.800000E+10  0.00800  9.886E-06    0   0.4990   age213_m52            0.0000     4.3354E+00    15.2270  -1.0000    73.4914
 35      0.0000     0.0000E+00    0.0000E+00    1.000000E+06  0.02000  1.544E-02    0   1.0000   age020_m62            0.0000     1.1310E+00     7.4453   2.4670    86.4774
 36      0.0000     0.0000E+00    0.0000E+00    3.160000E+06  0.02000  3.762E-02    0   0.9858   age045_m62            0.0000     1.1106E+00     7.4245   2.4021    87.3862
 37      0.0000     0.0000E+00    0.0000E+00    5.010000E+06  0.02000  3.296E-02    0   0.9342   age055_m62            0.0000     7.2737E-01     6.3091   1.9719    93.3204
 38      2.1639     1.1351E-01    1.5487E-01    8.710000E+06  0.02000  1.154E-02    0   0.8861   age067_m62            0.0000     1.5416E+00     9.4787   1.0693    95.1874
 39      0.0000     0.0000E+00    0.0000E+00    1.445000E+07  0.02000  7.663E-03    0   0.8472   age078_m62            0.0000     9.6456E-01     7.2121   1.2159    96.7800
 40      0.0000     0.0000E+00    0.0000E+00    2.512000E+07  0.02000  4.532E-03    0   0.8099   age090_m62            0.0000     9.4443E-01     7.2080   1.2040    96.7595
 41      0.0000     0.0000E+00    0.0000E+00    5.500000E+07  0.02000  2.733E-03    0   0.7595   age110_m62            0.0000     6.3939E-01     5.9332   1.1661    98.7440
 42      0.0000     0.0000E+00    0.0000E+00    1.609000E+08  0.02000  1.369E-03    0   0.6985   age120_m62            0.0000     5.1519E-01     5.4003   0.9513   103.9263
 43      0.0000     0.0000E+00    0.0000E+00    2.861200E+08  0.02000  9.013E-04    0   0.6714   age125_m62            0.0000     5.5185E-01     5.4977   0.6682   108.4451
 44      0.0000     0.0000E+00    0.0000E+00    5.088000E+08  0.02000  5.028E-04    0   0.6449   age130_m62            0.0000     6.3107E-01     5.8476   0.2635   112.5693
 45      0.0000     0.0000E+00    0.0000E+00    9.047900E+08  0.02000  2.428E-04    0   0.6179   age135_m62            0.0000     6.6207E-01     6.0229  -0.3112   111.2155
 46      0.0000     0.0000E+00    0.0000E+00    1.434000E+09  0.02000  1.263E-04    0   0.5908   age139_m62            0.0000     7.7973E-01     6.3410  -0.7407   108.7855
 47      0.0000     0.0000E+00    0.0000E+00    2.500000E+09  0.02000  5.985E-05    0   0.5673   age150_m62            0.0000     1.0635E+00     7.1316  -1.0000   103.3034
 48      0.0000     0.0000E+00    0.0000E+00    4.250000E+09  0.02000  3.271E-05    0   0.5468   age158_m62            0.0000     1.9932E+00     9.8575  -1.0000    91.4451
 49      0.0000     0.0000E+00    0.0000E+00    1.000000E+10  0.02000  1.360E-05    0   0.5167   age181_m62            0.0000     3.8702E+00    14.0788  -1.0000    79.0037
 50      0.0000     0.0000E+00    0.0000E+00    1.800000E+10  0.02000  7.124E-06    0   0.5013   age213_m62            0.0000     5.3226E+00    16.5935  -1.0000    71.5533
 51      0.0000     0.0000E+00    0.0000E+00    1.000000E+06  0.05000  2.592E-02    0   0.9998   age020_m72            0.0000     1.1812E+00     7.5863   2.4634    86.2886
 52      0.0000     0.0000E+00    0.0000E+00    3.160000E+06  0.05000  4.845E-02    0   0.9577   age045_m72            0.0000     9.3931E-01     6.9802   2.2624    89.4811
 53      0.0000     0.0000E+00    0.0000E+00    5.010000E+06  0.05000  3.072E-02    0   0.9147   age055_m72            0.0000     9.8488E-01     7.1167   1.8110    92.7546
 54      0.0000     0.0000E+00    0.0000E+00    6.610000E+06  0.05000  1.455E-02    0   0.8877   age061_m72            0.0000     2.0759E+00    11.2608   1.1565    94.9496
 55      0.0000     0.0000E+00    0.0000E+00    1.000000E+07  0.05000  9.074E-03    0   0.8524   age070_m72            0.0000     1.0558E+00     7.4469   2.0043    92.3727
 56      0.0000     0.0000E+00    0.0000E+00    2.512000E+07  0.05000  4.250E-03    0   0.7902   age090_m72            0.0000     7.9877E-01     6.6074   1.6667    95.6012
 57      7.6024     1.4907E+00    1.7486E+00    4.000000E+07  0.05000  3.087E-03    0   0.7618   age104_m72            0.0000     7.4879E-01     6.4947   1.4251    97.8253
 58      0.0000     0.0000E+00    0.0000E+00    1.015200E+08  0.05000  1.700E-03    0   0.7096   age116_m72            0.0000     5.3289E-01     5.5068   1.1075   102.9712
 59     17.5279     1.4369E+01    1.4675E+01    2.861200E+08  0.05000  7.384E-04    0   0.6633   age125_m72            0.0000     5.8334E-01     5.6312   0.5192   110.7257
 60     50.3209     7.9760E+01    7.8255E+01    5.088000E+08  0.05000  3.819E-04    0   0.6372   age130_m72            0.0000     6.1680E-01     5.8418   0.0144   112.9199
 61      0.0000     0.0000E+00    0.0000E+00    9.047900E+08  0.05000  1.676E-04    0   0.6110   age135_m72            0.0000     8.9698E-01     6.7611  -0.6699   110.1535
 62      0.0007     4.6898E-03    4.2416E-03    1.434000E+09  0.05000  8.837E-05    0   0.5874   age139_m72            0.0000     1.1282E+00     7.2675  -1.0000   104.8636
 63      0.0000     0.0000E+00    0.0000E+00    2.500000E+09  0.05000  4.233E-05    0   0.5598   age150_m72            0.0000     2.1127E+00    10.0792  -1.0000    92.2217
 64      0.0000     0.0000E+00    0.0000E+00    6.250000E+09  0.05000  1.435E-05    0   0.5249   age166_m72            0.0000     4.4499E+00    15.2510  -1.0000    75.4662
 65      0.0000     0.0000E+00    0.0000E+00    1.300000E+10  0.05000  6.513E-06    0   0.5036   age193_m72            0.0000     6.4839E+00    18.4771  -1.0000    67.2550
 66      0.0000     0.0000E+00    0.0000E+00    1.800000E+10  0.05000  4.527E-06    0   0.4945   age213_m72            0.0000     7.7306E+00    20.2152  -1.0000    62.3371


## Synthesis Results - Average & Chains ##

# j      x_j: min, <> & last-chain-values for 1 ...  7 chains
  1      0.1521      0.1803      0.0000      0.0000      0.9363      0.0000      0.0000      0.0000      0.0000
  2      0.0000      0.4970      1.5227      0.0000      0.0000      0.2860      2.5217      0.0000      1.1184
  3      0.0000      0.5581      0.0000      0.0000      0.0000      0.0000      0.0000      0.1513      0.0000
  4      0.0000      0.8956      0.0000      0.0000      0.0000      1.6592      0.0000      0.2936      0.0000
  5      0.0000      0.4701      0.0000      0.0000      0.0000      0.0000      0.0000      0.0000      0.0000
  6      0.0066      0.4806      0.0000      0.0000      2.0951      0.0000      0.0000      0.9098      0.0000
  7      0.0000      1.3936      0.0000      0.0000      0.2765      0.0000      1.5277      0.0000      0.0000
  8      0.0000      3.1995     10.3116      6.2770      0.4961      3.4627      1.7305      9.3429      3.7765
  9      0.0433      1.2246      0.0000      2.7906      1.5884      1.9220      0.0067      0.6462      0.0000
 10      0.0000      1.0194      0.0000      0.0000      3.2493      1.2505      0.0000      0.0000      2.3697
 11      0.0130      3.2194      3.8750      0.4477      1.1889      1.4403      0.0000      0.0000      2.7339
 12      0.0000      3.3765      0.0000      0.4085      0.0000      0.0000      0.0000      6.1430      0.1875
 13      0.0000      0.5669      0.0000      0.0000      0.0000      0.9859      0.0000      0.0000      0.0000
 14      0.0000      0.2326      0.0000      0.0000      0.0000      0.0000      1.2262      1.4026      0.0000
 15      0.0000      0.0811      0.0000      0.0000      0.0000      0.0000      0.0000      0.0000      0.0000
 16      0.0000      0.0460      0.0000      0.0000      0.0000      0.0000      0.0000      0.0644      0.0000
 17      0.0000      0.0422      0.0000      0.0000      0.0000      0.0000      0.1269      0.0000      0.0000
 18      0.0000      0.2689      0.3501      0.0000      0.0000      0.0000      0.2543      1.4847      2.1088
 19      0.0000      0.3460      0.0000      0.0000      0.0000      0.0000      0.0000      1.5473      1.6194
 20      2.7635      0.2683      0.9672      0.0000      4.0086      0.0000      0.0000      1.2466      0.0000
 21      0.0000      1.3698      0.0000      0.0000      0.0000      0.0000      0.0000      0.0000      0.0000
 22      0.0000      0.5169      2.9900      0.0000      0.0000      0.0000      0.1853      0.0000      0.0000
 23      0.0000      0.4506      0.0000      0.0000      0.0000      0.0000      0.0722      0.9435      0.0000
 24      0.0000      1.7243      0.0000      2.7501      0.1573      3.9732      3.9355      3.2677      2.7530
 25     26.8687      2.7552      2.0240      2.8430     10.8037      8.4892      3.0568      0.0000      3.1374
 26      0.0000      1.8260      4.2461      2.2723      0.0000      1.8771      4.7392      6.5395      4.4114
 27      0.0000      4.1863      5.0297      0.0000      0.0000      0.0000      0.0000      0.0000      0.0000
 28      0.0000      2.6529      5.3257      3.7157      1.9737      0.9049      0.0000      4.5292      3.1339
 29      0.0000      0.1944      0.0000      0.0000      0.0000      0.0000      0.0000      0.0000      0.0824
 30      0.0000      0.0587      0.5453      0.0000      0.6581      0.0000      0.0000      0.0000      0.0000
 31      0.0000      0.0335      0.0000      0.0000      0.0000      0.1819      0.0000      0.0000      0.0000
 32      0.0000      0.0318      0.0348      0.0000      0.0000      0.0000      0.0000      0.0000      0.0000
 33      0.0000      0.0368      0.0000      0.0000      0.0000      0.0000      0.0000      0.0000      0.0000
 34      0.0000      0.0140      0.0000      0.0000      0.0000      0.0000      0.0000      0.0000      0.0000
 35      0.0000      0.4543      0.0000      0.0000      0.0000      0.0000      0.0000      0.0000      0.0000
 36      0.0000      0.1867      0.0000      0.0000      0.0000      0.0375      0.0000      0.0000      0.0000
 37      0.0000      0.6993      0.0000      0.3277      0.0000      4.1476      2.0674      0.0000      0.0000
 38      2.1639      1.0558      0.0000      0.0000      5.8327      2.8970      4.4371      0.6085      0.0000
 39      0.0000      0.5425      0.0000      0.0000      0.0000      3.7646      0.0000      0.0000      1.4514
 40      0.0000      1.3237      0.0000      2.7826      2.1626      0.0000      0.0000      0.0000      0.0000
 41      0.0000      2.1168      0.0000      9.8901      0.0000      0.0000      2.5379      5.3910      3.6762
 42      0.0000      0.9966      0.0000      1.3384      0.0000      0.0000      1.5087      0.7080      4.8459
 43      0.0000      2.2531      2.0167      0.0000      0.0000      0.0000      6.4320      0.0000      0.0000
 44      0.0000      7.0048      0.0000      0.0000      7.7826      9.6514      9.6283      0.0000      7.9122
 45      0.0000      0.9304      0.0000      1.6395      0.1582      2.4312      3.6284      1.2752      0.0000
 46      0.0000      0.2010      0.0000      1.2907      0.0000      0.0000      0.0000      0.0000      0.0000
