###################################################################
## OUTPUT of StarlightChains_v04.for    [Cid@UFSC - 01/Apr/2007] ##
###################################################################

## Some input info
2013he.txt                               [arq_obs]
Base.CB07.vall.4m                        [arq_base]
Masks.EmLines.NEW.gm                     [arq_masks]
StCv04.C11.config                        [arq_config]
   66                                    [N_base]
    0                                    [N_YAV_components = # of components with extra extinction!]
    0                                    [i_FitPowerLaw (1/0 = Yes/No)]
-9.99                                    [alpha_PowerLaw]
CCM                                      [red_law_option]
 1.458241                                [q_norm = A(l_norm)/A(V)]

## (Re)Sampling Parameters
 3741.00                                 [l_ini (A)]
 7218.00                                 [l_fin (A)]
    1.00                                 [dl    (A)]     (OBS: dl_cushion =    50.00 A)

## Normalization info
 4020.00                                 [l_norm (A) - for base]
 4010.00                                 [llow_norm (A) - window for f_obs]
 4060.00                                 [lupp_norm (A) - window for f_obs]
4.281217E-16                             [fobs_norm (in input units)]

## S/N
 3691.00                                 [llow_SN (A) - window for S/N]
 7268.00                                 [lupp_SN (A) - window for S/N]
   6.214                                 [S/N in S/N window]
   8.136                                 [S/N in norm. window]
  10.000                                 [S/N_err in S/N window]
  13.093                                 [S/N_err in norm. window]
  1.0000                                 [fscale_chi2]

## etc...
    -2007412                             [idum_orig]
  2337                                   [NOl_eff]
  2337                                   [Nl_eff]
     0    NSIGMA                         [Ntot_cliped & clip_method]
  1546090                                [Nglobal_steps]
   7                                     [N_chains]
  28                                     [NEX0s_base = N_base in EX0s-fits]
 0   0   1       13   2.0   1.763E+01    [Clip-Bug, RC-Crash & Burn-In warning-flags, n_censored_weights, wei_nsig_threshold & wei_limit]
    15     15.041     14.546      0.495  [idt_all, wdt_TotTime, wdt_UsrTime & wdt_SysTime (sec)]

## Synthesis Results - Best model ##

 1.15721E-01                             [chi2/Nl_eff]
     2.24439                             [adev (%)]

   104.11699                             [sum-of-x (%)]
 7.52806E-16                             [Flux_tot (units of input spectrum!)]
 3.10129E-12                             [Mini_tot (???)]
 1.70821E-12                             [Mcor_tot (???)]

  24.23                                  [v0_min  (km/s)]
 281.64                                  [vd_min  (km/s)]
 0.3902                                  [AV_min  (mag)]
 0.0000                                  [YAV_min (mag)]

# j     x_j(%)      Mini_j(%)     Mcor_j(%)     age_j(yr)     Z_j      (L/M)_j    YAV?  Mstars   component_j        a/Fe...       SSP_chi2r SSP_adev(%)   SSP_AV   SSP_x(%)
  1      0.0000     0.0000E+00    0.0000E+00    1.000000E+06  0.00400  1.094E-02    0   1.0000   age020_m42            0.0000     5.4270E-01     5.3479   2.3917    87.7383
  2      0.0000     0.0000E+00    0.0000E+00    3.160000E+06  0.00400  4.007E-02    0   0.9999   age045_m42            0.0000     2.7820E-01     4.0357   1.6210    95.7789
  3      0.0000     0.0000E+00    0.0000E+00    5.010000E+06  0.00400  2.539E-02    0   0.9488   age055_m42            0.0000     3.4340E-01     4.4442   1.9577    92.6982
  4      0.0000     0.0000E+00    0.0000E+00    6.610000E+06  0.00400  2.620E-02    0   0.9220   age061_m42            0.0000     2.4785E-01     3.7467   1.5425    96.2229
  5      0.0038     6.7146E-05    1.0803E-04    1.000000E+07  0.00400  1.322E-02    0   0.8862   age070_m42            0.0000     1.8712E-01     2.9218   1.2734    97.7129
  6      0.0079     2.3298E-04    3.6254E-04    1.445000E+07  0.00400  7.883E-03    0   0.8571   age078_m42            0.0000     2.4444E-01     3.3462   1.6105    94.7737
  7      0.0000     0.0000E+00    0.0000E+00    2.512000E+07  0.00400  5.251E-03    0   0.8174   age090_m42            0.0000     1.7617E-01     2.7865   1.1419    98.3344
  8      0.0000     0.0000E+00    0.0000E+00    4.000000E+07  0.00400  3.649E-03    0   0.7851   age104_m42            0.0000     1.5253E-01     2.6079   0.9062    99.5549
  9      0.0000     0.0000E+00    0.0000E+00    5.500000E+07  0.00400  3.098E-03    0   0.7629   age110_m42            0.0000     1.7144E-01     2.7988   1.0473   100.1393
 10      0.0004     4.0219E-05    5.2625E-05    1.015200E+08  0.00400  2.228E-03    0   0.7207   age116_m42            0.0000     2.1454E-01     3.1092   1.0578   100.7925
 11      0.0000     0.0000E+00    0.0000E+00    2.861200E+08  0.00400  1.093E-03    0   0.6648   age125_m42            0.0000     2.1054E-01     2.9250   0.4841   104.1436
 12      0.0000     0.0000E+00    0.0000E+00    5.088000E+08  0.00400  6.597E-04    0   0.6365   age130_m42            0.0000     3.0916E-01     3.5290   0.4624   105.5883
 13      0.9734     1.0645E+00    1.1205E+00    1.434000E+09  0.00400  2.132E-04    0   0.5798   age139_m42            0.0000     3.3536E-01     3.8787  -0.5116   107.8898
 14      0.0000     0.0000E+00    0.0000E+00    4.250000E+09  0.00400  5.895E-05    0   0.5377   age158_m42            0.0000     4.5198E-01     4.7410  -0.9373   103.0167
 15      8.5738     5.6949E+01    5.3888E+01    7.500000E+09  0.00400  3.510E-05    0   0.5212   age171_m42            0.0000     6.4854E-01     5.5066  -1.0000    97.8194
 16      0.0000     0.0000E+00    0.0000E+00    1.300000E+10  0.00400  2.005E-05    0   0.5034   age193_m42            0.0000     1.0564E+00     6.9893  -1.0000    91.4026
 17      0.5584     8.5371E+00    7.6985E+00    1.800000E+10  0.00400  1.525E-05    0   0.4967   age213_m42            0.0000     1.0816E+00     7.1405  -1.0000    90.1794
 18      0.0000     0.0000E+00    0.0000E+00    1.000000E+06  0.00800  1.238E-02    0   1.0000   age020_m52            0.0000     5.4201E-01     5.3510   2.3880    87.9115
 19      0.0036     2.7635E-05    5.0000E-05    3.160000E+06  0.00800  3.074E-02    0   0.9966   age045_m52            0.0000     5.0571E-01     5.2571   2.3053    88.9410
 20      0.0000     0.0000E+00    0.0000E+00    5.010000E+06  0.00800  2.668E-02    0   0.9443   age055_m52            0.0000     3.6909E-01     4.5551   2.0459    91.6276
 21      0.0000     0.0000E+00    0.0000E+00    6.610000E+06  0.00800  2.136E-02    0   0.9177   age061_m52            0.0000     2.1230E-01     3.0311   0.7828    98.4184
 22      1.5560     2.9857E-02    4.7847E-02    1.000000E+07  0.00800  1.215E-02    0   0.8827   age070_m52            0.0000     2.1831E-01     3.0674   1.4634    97.0283
 23      3.6579     9.7833E-02    1.5190E-01    1.445000E+07  0.00800  8.717E-03    0   0.8552   age078_m52            0.0000     2.1880E-01     3.1594   1.5727    96.2495
 24      4.8589     2.0258E-01    3.0019E-01    2.512000E+07  0.00800  5.592E-03    0   0.8162   age090_m52            0.0000     1.6506E-01     2.6897   1.2049    99.5843
 25     13.7988     8.2573E-01    1.1755E+00    4.000000E+07  0.00800  3.896E-03    0   0.7841   age104_m52            0.0000     1.4503E-01     2.5333   1.1066   100.8640
 26     26.5414     2.8808E+00    3.7793E+00    1.015200E+08  0.00800  2.148E-03    0   0.7226   age116_m52            0.0000     1.6472E-01     2.7124   1.0304   101.3860
 27      0.0000     0.0000E+00    0.0000E+00    2.861200E+08  0.00800  9.925E-04    0   0.6683   age125_m52            0.0000     3.1135E-01     3.4395   0.5265   106.6127
 28      0.0000     0.0000E+00    0.0000E+00    9.047900E+08  0.00800  3.141E-04    0   0.6138   age135_m52            0.0000     4.9518E-01     4.6068  -0.2806   111.5782
 29      0.0000     0.0000E+00    0.0000E+00    1.434000E+09  0.00800  1.719E-04    0   0.5853   age139_m52            0.0000     4.3903E-01     4.6248  -0.8464   108.6787
 30      0.0000     0.0000E+00    0.0000E+00    2.500000E+09  0.00800  7.872E-05    0   0.5600   age150_m52            0.0000     6.9831E-01     5.7522  -1.0000   101.4255
 31      0.0295     1.5864E-01    1.5627E-01    4.250000E+09  0.00800  4.336E-05    0   0.5426   age158_m52            0.0000     7.4246E-01     5.8635  -1.0000    99.8642
 32      1.3734     1.0136E+01    9.7880E+00    6.250000E+09  0.00800  3.159E-05    0   0.5319   age166_m52            0.0000     1.3266E+00     7.7958  -1.0000    92.4963
 33      0.0000     0.0000E+00    0.0000E+00    1.300000E+10  0.00800  1.361E-05    0   0.5073   age193_m52            0.0000     3.4837E+00    13.2091  -1.0000    75.5598
 34      0.0000     0.0000E+00    0.0000E+00    1.800000E+10  0.00800  9.886E-06    0   0.4990   age213_m52            0.0000     4.2884E+00    14.5894  -1.0000    71.6849
 35      0.0000     0.0000E+00    0.0000E+00    1.000000E+06  0.02000  1.544E-02    0   1.0000   age020_m62            0.0000     5.4813E-01     5.3854   2.3843    88.1014
 36      0.0000     0.0000E+00    0.0000E+00    3.160000E+06  0.02000  3.762E-02    0   0.9858   age045_m62            0.0000     5.3114E-01     5.3630   2.3200    89.0260
 37      0.0000     0.0000E+00    0.0000E+00    5.010000E+06  0.02000  3.296E-02    0   0.9342   age055_m62            0.0000     3.0836E-01     4.2854   1.9047    94.4141
 38     13.7875     2.7855E-01    4.4811E-01    8.710000E+06  0.02000  1.154E-02    0   0.8861   age067_m62            0.0000     6.1777E-01     5.7445   0.9527    97.9538
 39      0.0000     0.0000E+00    0.0000E+00    1.445000E+07  0.02000  7.663E-03    0   0.8472   age078_m62            0.0000     2.6855E-01     3.3949   1.1204    98.8218
 40      0.0000     0.0000E+00    0.0000E+00    2.512000E+07  0.02000  4.532E-03    0   0.8099   age090_m62            0.0000     2.6299E-01     3.4860   1.1086    98.7646
 41      0.0319     2.7210E-03    3.7519E-03    5.500000E+07  0.02000  2.733E-03    0   0.7595   age110_m62            0.0000     1.5059E-01     2.5446   1.0920   100.0221
 42      0.0090     1.5347E-03    1.9462E-03    1.609000E+08  0.02000  1.369E-03    0   0.6985   age120_m62            0.0000     2.3835E-01     3.0076   0.9002   104.2551
 43      0.0000     0.0000E+00    0.0000E+00    2.861200E+08  0.02000  9.013E-04    0   0.6714   age125_m62            0.0000     3.9462E-01     3.7569   0.6326   108.1088
 44      0.0000     0.0000E+00    0.0000E+00    5.088000E+08  0.02000  5.028E-04    0   0.6449   age130_m62            0.0000     5.8696E-01     4.9257   0.2435   111.5977
 45      0.0000     0.0000E+00    0.0000E+00    9.047900E+08  0.02000  2.428E-04    0   0.6179   age135_m62            0.0000     5.5352E-01     5.0872  -0.3351   110.6304
 46      0.0000     0.0000E+00    0.0000E+00    1.434000E+09  0.02000  1.263E-04    0   0.5908   age139_m62            0.0000     6.0765E-01     5.3748  -0.7697   108.5566
 47      0.0000     0.0000E+00    0.0000E+00    2.500000E+09  0.02000  5.985E-05    0   0.5673   age150_m62            0.0000     9.2760E-01     6.6128  -1.0000   101.9394
 48      0.0000     0.0000E+00    0.0000E+00    4.250000E+09  0.02000  3.271E-05    0   0.5468   age158_m62            0.0000     1.9442E+00     9.4834  -1.0000    89.8349
 49      0.0000     0.0000E+00    0.0000E+00    1.000000E+10  0.02000  1.360E-05    0   0.5167   age181_m62            0.0000     3.8432E+00    13.4570  -1.0000    77.2463
 50      0.0000     0.0000E+00    0.0000E+00    1.800000E+10  0.02000  7.124E-06    0   0.5013   age213_m62            0.0000     5.2856E+00    15.8316  -1.0000    69.7936
 51      0.0000     0.0000E+00    0.0000E+00    1.000000E+06  0.05000  2.592E-02    0   0.9998   age020_m72            0.0000     5.7750E-01     5.4803   2.3807    87.9301
 52      0.0000     0.0000E+00    0.0000E+00    3.160000E+06  0.05000  4.845E-02    0   0.9577   age045_m72            0.0000     4.3326E-01     5.0059   2.1861    90.9254
 53      0.0000     0.0000E+00    0.0000E+00    5.010000E+06  0.05000  3.072E-02    0   0.9147   age055_m72            0.0000     3.2483E-01     3.8512   1.7161    94.7269
 54      0.0000     0.0000E+00    0.0000E+00    6.610000E+06  0.05000  1.455E-02    0   0.8877   age061_m72            0.0000     1.0718E+00     8.0923   1.0239    98.1052
 55      0.0000     0.0000E+00    0.0000E+00    1.000000E+07  0.05000  9.074E-03    0   0.8524   age070_m72            0.0000     3.9193E-01     4.5147   1.9098    94.3044
 56      0.0000     0.0000E+00    0.0000E+00    2.512000E+07  0.05000  4.250E-03    0   0.7902   age090_m72            0.0000     2.4458E-01     3.5535   1.5795    97.2254
 57      0.0000     0.0000E+00    0.0000E+00    4.000000E+07  0.05000  3.087E-03    0   0.7618   age104_m72            0.0000     2.2749E-01     3.4300   1.3420    99.3014
 58      8.6522     1.1866E+00    1.5287E+00    1.015200E+08  0.05000  1.700E-03    0   0.7096   age116_m72            0.0000     2.0854E-01     2.8332   1.0493   103.5413
 59      0.0032     9.9884E-04    1.2028E-03    2.861200E+08  0.05000  7.384E-04    0   0.6633   age125_m72            0.0000     5.0009E-01     4.3243   0.4932   109.9723
 60     13.1811     8.0467E+00    9.3089E+00    5.088000E+08  0.05000  3.819E-04    0   0.6372   age130_m72            0.0000     5.6621E-01     5.1453  -0.0039   112.0114
 61      6.0833     8.4622E+00    9.3870E+00    9.047900E+08  0.05000  1.676E-04    0   0.6110   age135_m72            0.0000     7.9124E-01     6.4006  -0.6905   109.6184
 62      0.4316     1.1387E+00    1.2144E+00    1.434000E+09  0.05000  8.837E-05    0   0.5874   age139_m72            0.0000     1.0126E+00     6.8851  -1.0000   103.4772
 63      0.0000     0.0000E+00    0.0000E+00    2.500000E+09  0.05000  4.233E-05    0   0.5598   age150_m72            0.0000     2.0776E+00     9.7567  -1.0000    90.6096
 64      0.0000     0.0000E+00    0.0000E+00    6.250000E+09  0.05000  1.435E-05    0   0.5249   age166_m72            0.0000     4.4152E+00    14.5514  -1.0000    73.7404
 65      0.0000     0.0000E+00    0.0000E+00    1.300000E+10  0.05000  6.513E-06    0   0.5036   age193_m72            0.0000     6.4186E+00    17.6761  -1.0000    65.5262
 66      0.0000     0.0000E+00    0.0000E+00    1.800000E+10  0.05000  4.527E-06    0   0.4945   age213_m72            0.0000     7.6352E+00    19.4168  -1.0000    60.6414


## Synthesis Results - Average & Chains ##

# j      x_j: min, <> & last-chain-values for 1 ...  7 chains
  1      0.0000      0.3224      0.0000      0.9770      0.0000      0.0000      0.4279      0.0000      0.0000
  2      0.0000      0.8195      0.3156      0.0000      0.0000      0.0000      0.0000      0.0000      0.0000
  3      0.0000      0.6442      0.0000      0.0000      0.3933      1.8713      0.0000      0.0000      0.0795
  4      0.0000      0.7740      0.0000      0.0000      3.5640      0.9518      0.0000      1.9886      1.4879
  5      0.0038      1.3441      3.4970      1.5461      0.0000      0.0000      0.0000      3.0825      3.4215
  6      0.0079      0.6612      1.7285      0.0000      0.0831      2.3635      0.0000      3.1512      3.3780
  7      0.0000      3.0892      0.6054      0.0000      0.0000     10.4441      3.8486      4.3795      7.1809
  8      0.0000      3.3326      0.5065      3.2514      2.0646      0.0000      0.0000      0.0000      2.8011
  9      0.0000      1.2948      0.0000      0.0000      0.0000      0.0000      0.3966      3.1759      0.0000
 10      0.0004      0.9435      0.0000      2.7268      0.0000      0.0000      0.0000      0.0000      3.0767
 11      0.0000      3.2299      2.2196      0.1289      1.0604      0.0000      0.3676      0.0000      0.0000
 12      0.0000      2.9317      0.0000      2.4209      0.0000      0.0000      0.0000      0.6770      0.0000
 13      0.9734      0.6171      0.0000      1.4499      0.1567      0.4358      2.1560      0.0000      1.1625
 14      0.0000      0.5739      1.1629      0.0000      2.5189      1.2927      0.0000      0.0000      0.0000
 15      8.5738      1.1761      1.2573      3.7200      3.1729      3.4126      0.0000      1.9852      1.6143
 16      0.0000      0.1722      0.9479      0.0000      0.9596      1.5906      0.2571      0.8909      0.0000
 17      0.5584      0.0597      0.0000      0.7539      0.0000      0.0942      0.3869      0.0000      0.8893
 18      0.0000      0.3349      1.1847      0.0000      0.6050      0.0000      0.0232      0.0000      0.4249
 19      0.0036      0.4516      0.0000      0.0000      0.4119      0.0000      0.3303      0.0000      0.8686
 20      0.0000      0.9228      0.0000      6.4169      0.0000      1.0049      0.0000      0.0000      0.0000
 21      0.0000      6.0452      0.0000      0.0000      0.0000      0.0000      4.0618      4.4207      1.0529
 22      1.5560      0.8933      0.0000      0.0000      0.7552      5.4315      0.0000      0.6402      1.3616
 23      3.6579      2.4267      2.9202      1.5932      6.3683      3.9465     11.0569      5.6866      2.3623
 24      4.8589      1.3949      4.1834      8.3190      2.2551      2.6682      0.0000      0.0000      1.4518
 25     13.7988      2.8732      0.0000      3.0041      9.6615      8.0559      5.2985      2.3159      4.8083
 26     26.5414      6.2921     15.0066      9.1962     10.4881      4.3846      9.0499      9.9875      7.0944
 27      0.0000      3.0061      5.4583      4.4572      4.9987      0.8005      0.0000      0.0000      0.0000
 28      0.0000      4.6669      3.2582      6.3114      3.4041      6.8804      4.8881      5.7698      3.8690
 29      0.0000      0.3122      2.0713      0.0000      0.0000      0.0000      0.0000      0.0000      0.0000
 30      0.0000      0.2005      0.0000      0.0000      0.0000      0.8661      1.0014      0.0000      0.0000
 31      0.0295      0.2519      0.0000      0.0000      0.2926      0.0000      0.0000      0.0000      0.8153
 32      1.3734      0.7551      1.7194      0.0000      1.2339      0.0305      0.6412      0.8733      1.6483
 33      0.0000      0.0346      0.0000      0.0000      0.0000      0.0000      0.0000      0.0000      0.0000
 34      0.0000      0.0904      0.9657      0.0000      0.8055      0.1192      0.0000      0.4960      0.0000
 35      0.0000      0.2611      0.0000      0.0000      0.0000      0.0000      0.0000      0.9821      0.0000
 36      0.0000      0.2971      0.0000      0.0000      1.3790      2.3389      0.0000      0.0000      0.1502
 37      0.0000      0.4558      0.0000      0.0000      0.0000      0.0000      0.0000      0.0000      0.3293
 38     13.7875      9.0270      7.9396      8.9340      6.0167      3.4134     13.9553     11.0366     14.6643
 39      0.0000      1.7026      3.2425      0.0000      4.4985      0.0000      2.3227      2.8978      0.0351
 40      0.0000      2.0142      0.0000      6.3393      4.4742      5.2428      0.0000      1.5092      0.0000
 41      0.0319      2.5732      6.1642      4.4846      4.9390      0.0000      4.9445      3.7141      2.9019
 42      0.0090      1.2875      0.2882      1.5552      0.0000      0.0000      1.2383      1.4957      1.5369
 43      0.0000      3.5790      2.4898      0.0000      2.8662      3.8954      0.0000      6.6874      0.0000
 44      0.0000      2.8404      3.4558      1.7801      0.0000      0.0000      9.1307      0.0000      0.0000
 45      0.0000      2.6730      4.0086      2.6954      3.6712      0.0000      0.0000      5.1133      0.0000
 46      0.0000      0.4799      0.0000      0.3753      0.0000      1.9607      0.0000      0.7418      0.0000
