###################################################################
## OUTPUT of StarlightChains_v04.for    [Cid@UFSC - 01/Apr/2007] ##
###################################################################

## Some input info
2013ac.txt                               [arq_obs]
Base.CB07.vall.4m                        [arq_base]
Masks.EmLines.NEW.gm                     [arq_masks]
StCv04.C11.config                        [arq_config]
   66                                    [N_base]
    0                                    [N_YAV_components = # of components with extra extinction!]
    0                                    [i_FitPowerLaw (1/0 = Yes/No)]
-9.99                                    [alpha_PowerLaw]
CCM                                      [red_law_option]
 1.458241                                [q_norm = A(l_norm)/A(V)]

## (Re)Sampling Parameters
 3741.00                                 [l_ini (A)]
 7218.00                                 [l_fin (A)]
    1.00                                 [dl    (A)]     (OBS: dl_cushion =    50.00 A)

## Normalization info
 4020.00                                 [l_norm (A) - for base]
 4010.00                                 [llow_norm (A) - window for f_obs]
 4060.00                                 [lupp_norm (A) - window for f_obs]
2.973553E-16                             [fobs_norm (in input units)]

## S/N
 3691.00                                 [llow_SN (A) - window for S/N]
 7268.00                                 [lupp_SN (A) - window for S/N]
   3.333                                 [S/N in S/N window]
   6.209                                 [S/N in norm. window]
  10.000                                 [S/N_err in S/N window]
  18.628                                 [S/N_err in norm. window]
  1.0000                                 [fscale_chi2]

## etc...
    -2007401                             [idum_orig]
  2319                                   [NOl_eff]
  2123                                   [Nl_eff]
   196    NSIGMA                         [Ntot_cliped & clip_method]
  1021440                                [Nglobal_steps]
   7                                     [N_chains]
  15                                     [NEX0s_base = N_base in EX0s-fits]
 0   0   1        2   2.0   5.417E+01    [Clip-Bug, RC-Crash & Burn-In warning-flags, n_censored_weights, wei_nsig_threshold & wei_limit]
    11     11.237     10.731      0.506  [idt_all, wdt_TotTime, wdt_UsrTime & wdt_SysTime (sec)]

## Synthesis Results - Best model ##

 1.02942E+00                             [chi2/Nl_eff]
     7.74804                             [adev (%)]

    70.90267                             [sum-of-x (%)]
 5.40206E-16                             [Flux_tot (units of input spectrum!)]
 3.68362E-12                             [Mini_tot (???)]
 1.86717E-12                             [Mcor_tot (???)]

-136.27                                  [v0_min  (km/s)]
 171.25                                  [vd_min  (km/s)]
 0.7005                                  [AV_min  (mag)]
 0.0000                                  [YAV_min (mag)]

# j     x_j(%)      Mini_j(%)     Mcor_j(%)     age_j(yr)     Z_j      (L/M)_j    YAV?  Mstars   component_j        a/Fe...       SSP_chi2r SSP_adev(%)   SSP_AV   SSP_x(%)
  1      2.4535     4.6386E-02    9.1512E-02    1.000000E+06  0.00400  1.094E-02    0   1.0000   age020_m42            0.0000     1.4746E+00     9.2613   2.1819    62.3279
  2      0.0000     0.0000E+00    0.0000E+00    3.160000E+06  0.00400  4.007E-02    0   0.9999   age045_m42            0.0000     1.6324E+00     9.6724   1.4510    66.8004
  3      0.0000     0.0000E+00    0.0000E+00    5.010000E+06  0.00400  2.539E-02    0   0.9488   age055_m42            0.0000     1.5112E+00     9.3748   1.7686    65.2310
  4      0.0000     0.0000E+00    0.0000E+00    6.610000E+06  0.00400  2.620E-02    0   0.9220   age061_m42            0.0000     1.6136E+00     9.5824   1.3734    67.1040
  5      0.0000     0.0000E+00    0.0000E+00    1.000000E+07  0.00400  1.322E-02    0   0.8862   age070_m42            0.0000     1.3388E+00     8.6843   1.0770    69.1628
  6      0.0000     0.0000E+00    0.0000E+00    1.445000E+07  0.00400  7.883E-03    0   0.8571   age078_m42            0.0000     1.3117E+00     8.6401   1.4095    67.2249
  7      0.0000     0.0000E+00    0.0000E+00    2.512000E+07  0.00400  5.251E-03    0   0.8174   age090_m42            0.0000     1.3192E+00     8.5988   0.9440    69.6781
  8      0.0000     0.0000E+00    0.0000E+00    4.000000E+07  0.00400  3.649E-03    0   0.7851   age104_m42            0.0000     1.3891E+00     8.7807   0.7170    70.2259
  9      0.0000     0.0000E+00    0.0000E+00    5.500000E+07  0.00400  3.098E-03    0   0.7629   age110_m42            0.0000     1.5745E+00     9.2604   0.8774    69.9434
 10      0.0000     0.0000E+00    0.0000E+00    1.015200E+08  0.00400  2.228E-03    0   0.7207   age116_m42            0.0000     1.7337E+00     9.6128   0.9030    69.8717
 11      0.0000     0.0000E+00    0.0000E+00    2.861200E+08  0.00400  1.093E-03    0   0.6648   age125_m42            0.0000     1.7889E+00     9.6548   0.3351    72.1107
 12      0.0000     0.0000E+00    0.0000E+00    5.088000E+08  0.00400  6.597E-04    0   0.6365   age130_m42            0.0000     2.0480E+00    10.1396   0.3353    72.2889
 13      0.0000     0.0000E+00    0.0000E+00    1.434000E+09  0.00400  2.132E-04    0   0.5798   age139_m42            0.0000     2.2378E+00    10.4670  -0.6211    73.1263
 14      0.0000     0.0000E+00    0.0000E+00    4.250000E+09  0.00400  5.895E-05    0   0.5377   age158_m42            0.0000     2.3651E+00    10.6909  -1.0000    68.4249
 15      0.0000     0.0000E+00    0.0000E+00    7.500000E+09  0.00400  3.510E-05    0   0.5212   age171_m42            0.0000     2.6832E+00    10.7308  -1.0000    63.1493
 16      0.0000     0.0000E+00    0.0000E+00    1.300000E+10  0.00400  2.005E-05    0   0.5034   age193_m42            0.0000     3.1170E+00    11.1849  -1.0000    58.7415
 17      1.0872     1.4745E+01    1.4449E+01    1.800000E+10  0.00400  1.525E-05    0   0.4967   age213_m42            0.0000     3.1252E+00    11.2078  -1.0000    57.9455
 18      3.7481     6.2620E-02    1.2354E-01    1.000000E+06  0.00800  1.238E-02    0   1.0000   age020_m52            0.0000     1.4733E+00     9.2582   2.1788    62.4330
 19      0.0000     0.0000E+00    0.0000E+00    3.160000E+06  0.00800  3.074E-02    0   0.9966   age045_m52            0.0000     1.4779E+00     9.2724   2.1006    63.0243
 20      0.0000     0.0000E+00    0.0000E+00    5.010000E+06  0.00800  2.668E-02    0   0.9443   age055_m52            0.0000     1.4738E+00     9.2625   1.8522    64.6197
 21      0.0000     0.0000E+00    0.0000E+00    6.610000E+06  0.00800  2.136E-02    0   0.9177   age061_m52            0.0000     1.3384E+00     8.6738   0.5809    69.7531
 22      0.0000     0.0000E+00    0.0000E+00    1.000000E+07  0.00800  1.215E-02    0   0.8827   age070_m52            0.0000     1.2539E+00     8.4281   1.2588    69.0208
 23      0.0000     0.0000E+00    0.0000E+00    1.445000E+07  0.00800  8.717E-03    0   0.8552   age078_m52            0.0000     1.3170E+00     8.6432   1.3739    68.1972
 24      0.0000     0.0000E+00    0.0000E+00    2.512000E+07  0.00800  5.592E-03    0   0.8162   age090_m52            0.0000     1.3327E+00     8.6179   1.0117    70.4373
 25      0.0000     0.0000E+00    0.0000E+00    4.000000E+07  0.00800  3.896E-03    0   0.7841   age104_m52            0.0000     1.4478E+00     8.9205   0.9276    70.8463
 26      0.0000     0.0000E+00    0.0000E+00    1.015200E+08  0.00800  2.148E-03    0   0.7226   age116_m52            0.0000     1.6473E+00     9.3995   0.8714    70.4717
 27      0.0000     0.0000E+00    0.0000E+00    2.861200E+08  0.00800  9.925E-04    0   0.6683   age125_m52            0.0000     2.0576E+00    10.0944   0.4012    72.9471
 28      0.0000     0.0000E+00    0.0000E+00    9.047900E+08  0.00800  3.141E-04    0   0.6138   age135_m52            0.0000     2.5609E+00    10.9782  -0.3566    74.5003
 29      0.0000     0.0000E+00    0.0000E+00    1.434000E+09  0.00800  1.719E-04    0   0.5853   age139_m52            0.0000     2.4497E+00    10.9913  -0.9330    72.8571
 30      0.0000     0.0000E+00    0.0000E+00    2.500000E+09  0.00800  7.872E-05    0   0.5600   age150_m52            0.0000     2.8243E+00    11.0398  -1.0000    65.3996
 31      0.0000     0.0000E+00    0.0000E+00    4.250000E+09  0.00800  4.336E-05    0   0.5426   age158_m52            0.0000     2.8564E+00    11.0400  -1.0000    64.3628
 32      0.0000     0.0000E+00    0.0000E+00    6.250000E+09  0.00800  3.159E-05    0   0.5319   age166_m52            0.0000     3.4655E+00    11.6636  -1.0000    59.2599
 33      0.0000     0.0000E+00    0.0000E+00    1.300000E+10  0.00800  1.361E-05    0   0.5073   age193_m52            0.0000     5.2389E+00    14.4368  -1.0000    48.0896
 34      0.0000     0.0000E+00    0.0000E+00    1.800000E+10  0.00800  9.886E-06    0   0.4990   age213_m52            0.0000     5.8829E+00    15.3054  -1.0000    45.5595
 35      4.5264     6.0635E-02    1.1962E-01    1.000000E+06  0.02000  1.544E-02    0   1.0000   age020_m62            0.0000     1.4702E+00     9.2474   2.1751    62.5704
 36      3.8693     2.1274E-02    4.1373E-02    3.160000E+06  0.02000  3.762E-02    0   0.9858   age045_m62            0.0000     1.4727E+00     9.2648   2.1130    63.1574
 37      0.0000     0.0000E+00    0.0000E+00    5.010000E+06  0.02000  3.296E-02    0   0.9342   age055_m62            0.0000     1.5794E+00     9.5749   1.7274    66.0655
 38     43.1439     7.7328E-01    1.3518E+00    8.710000E+06  0.02000  1.154E-02    0   0.8861   age067_m62            0.0000     1.0419E+00     7.8475   0.6987    71.7488
 39      0.0000     0.0000E+00    0.0000E+00    1.445000E+07  0.02000  7.663E-03    0   0.8472   age078_m62            0.0000     1.1701E+00     8.1636   0.9048    70.8010
 40      0.0000     0.0000E+00    0.0000E+00    2.512000E+07  0.02000  4.532E-03    0   0.8099   age090_m62            0.0000     1.1794E+00     8.2113   0.8948    70.7345
 41      0.0000     0.0000E+00    0.0000E+00    5.500000E+07  0.02000  2.733E-03    0   0.7595   age110_m62            0.0000     1.4151E+00     8.8348   0.9081    70.4009
 42      0.0000     0.0000E+00    0.0000E+00    1.609000E+08  0.02000  1.369E-03    0   0.6985   age120_m62            0.0000     1.8242E+00     9.6635   0.7531    72.0564
 43      0.0000     0.0000E+00    0.0000E+00    2.861200E+08  0.02000  9.013E-04    0   0.6714   age125_m62            0.0000     2.1616E+00    10.1931   0.5098    73.8348
 44      0.0000     0.0000E+00    0.0000E+00    5.088000E+08  0.02000  5.028E-04    0   0.6449   age130_m62            0.0000     2.6093E+00    11.0093   0.1643    74.6138
 45      0.0000     0.0000E+00    0.0000E+00    9.047900E+08  0.02000  2.428E-04    0   0.6179   age135_m62            0.0000     2.6726E+00    11.2423  -0.4006    73.3981
 46      0.0000     0.0000E+00    0.0000E+00    1.434000E+09  0.02000  1.263E-04    0   0.5908   age139_m62            0.0000     2.7169E+00    11.3826  -0.8343    71.9152
 47      0.0000     0.0000E+00    0.0000E+00    2.500000E+09  0.02000  5.985E-05    0   0.5673   age150_m62            0.0000     3.1164E+00    11.4762  -1.0000    65.5291
 48      0.0000     0.0000E+00    0.0000E+00    4.250000E+09  0.02000  3.271E-05    0   0.5468   age158_m62            0.0000     4.0625E+00    12.5035  -1.0000    57.2911
 49      0.0000     0.0000E+00    0.0000E+00    1.000000E+10  0.02000  1.360E-05    0   0.5167   age181_m62            0.0000     5.5871E+00    14.6374  -1.0000    49.0258
 50      0.4787     1.3898E+01    1.3745E+01    1.800000E+10  0.02000  7.124E-06    0   0.5013   age213_m62            0.0000     6.6786E+00    16.1441  -1.0000    44.2419
 51      9.3185     7.4359E-02    1.4667E-01    1.000000E+06  0.05000  2.592E-02    0   0.9998   age020_m72            0.0000     1.4578E+00     9.1867   2.1678    62.5532
 52      0.0000     0.0000E+00    0.0000E+00    3.160000E+06  0.05000  4.845E-02    0   0.9577   age045_m72            0.0000     1.5190E+00     9.4390   1.9919    64.1069
 53      0.0000     0.0000E+00    0.0000E+00    5.010000E+06  0.05000  3.072E-02    0   0.9147   age055_m72            0.0000     1.2702E+00     8.5529   1.5137    67.3983
 54      0.0005     7.3076E-06    1.2798E-05    6.610000E+06  0.05000  1.455E-02    0   0.8877   age061_m72            0.0000     1.2292E+00     8.8767   0.7755    72.2512
 55      0.0000     0.0000E+00    0.0000E+00    1.000000E+07  0.05000  9.074E-03    0   0.8524   age070_m72            0.0000     1.3503E+00     8.9167   1.7212    66.8399
 56      0.0000     0.0000E+00    0.0000E+00    2.512000E+07  0.05000  4.250E-03    0   0.7902   age090_m72            0.0000     1.3745E+00     8.9058   1.3963    68.6353
 57      0.0000     0.0000E+00    0.0000E+00    4.000000E+07  0.05000  3.087E-03    0   0.7618   age104_m72            0.0000     1.4109E+00     8.9979   1.1625    70.0052
 58      0.0000     0.0000E+00    0.0000E+00    1.015200E+08  0.05000  1.700E-03    0   0.7096   age116_m72            0.0000     1.7104E+00     9.4523   0.8938    71.9347
 59      0.0000     0.0000E+00    0.0000E+00    2.861200E+08  0.05000  7.384E-04    0   0.6633   age125_m72            0.0000     2.4203E+00    10.6555   0.3969    74.1369
 60      0.0000     0.0000E+00    0.0000E+00    5.088000E+08  0.05000  3.819E-04    0   0.6372   age130_m72            0.0000     2.6702E+00    11.1854  -0.0700    74.3275
 61      0.0000     0.0000E+00    0.0000E+00    9.047900E+08  0.05000  1.676E-04    0   0.6110   age135_m72            0.0000     3.0000E+00    11.9151  -0.7295    71.6844
 62      0.0000     0.0000E+00    0.0000E+00    1.434000E+09  0.05000  8.837E-05    0   0.5874   age139_m72            0.0000     3.2527E+00    11.7112  -1.0000    66.4284
 63      0.0000     0.0000E+00    0.0000E+00    2.500000E+09  0.05000  4.233E-05    0   0.5598   age150_m72            0.0000     4.2071E+00    12.7183  -1.0000    57.7295
 64      0.1143     1.6472E+00    1.7057E+00    6.250000E+09  0.05000  1.435E-05    0   0.5249   age166_m72            0.0000     6.0228E+00    15.3511  -1.0000    46.7640
 65      2.1624     6.8672E+01    6.8226E+01    1.300000E+10  0.05000  6.513E-06    0   0.5036   age193_m72            0.0000     7.5225E+00    17.4674  -1.0000    41.5318
 66      0.0000     0.0000E+00    0.0000E+00    1.800000E+10  0.05000  4.527E-06    0   0.4945   age213_m72            0.0000     8.4158E+00    18.7373  -1.0000    38.4537


## Synthesis Results - Average & Chains ##

# j      x_j: min, <> & last-chain-values for 1 ...  7 chains
  1      2.4535      2.8444      3.2628      4.0738      3.9511      5.3554      3.7285      3.2274      3.8748
  2      0.0000      0.1108      0.0000      0.0000      0.0000      0.0000      0.3365      0.0000      0.0000
  3      0.0000      0.2832      0.0000      0.0000      0.0000      0.0000      0.0000      0.6060      0.0000
  4      0.0000      0.1225      0.0567      0.0000      0.0000      0.2043      0.0000      0.0000      0.0000
  5      0.0000      0.3035      0.0000      0.0000      0.0000      0.0277      0.0000      0.0000      1.7078
  6      0.0000      0.3767      0.0000      0.0000      0.0000      0.0000      0.0000      0.0000      0.0000
  7      0.0000      0.2986      0.0000      0.4500      0.0000      0.0000      0.0000      0.0000      0.0000
  8      0.0000      0.2498      0.0000      0.1858      0.0000      0.0000      0.0000      0.0000      0.0000
  9      0.0000      0.0927      0.0845      0.0000      0.0000      0.0000      0.0000      0.0000      0.0000
 10      0.0000      0.0579      0.0000      0.0000      0.0000      0.0000      0.0000      0.0000      0.0000
 11      0.0000      0.0652      0.0000      0.0000      0.0000      0.0000      0.0000      0.0000      0.0000
 12      0.0000      0.0646      0.0000      0.0000      0.0000      0.0000      0.0000      0.0000      0.0000
 13      0.0000      0.0294      0.0000      0.0000      0.0000      0.0000      0.0000      0.0000      0.0000
 14      0.0000      0.0655      0.0000      0.0000      0.0000      0.0000      0.0000      0.0000      0.0000
 15      0.0000      0.1006      0.0000      0.0000      0.0000      0.1842      0.0000      0.5162      0.0000
 16      0.0000      0.0156      0.0801      0.0000      0.0000      0.2062      0.0000      0.0000      0.0000
 17      1.0872      2.0121      1.8629      1.5848      1.5412      1.8862      1.8483      1.5325      2.3125
 18      3.7481      2.8375      3.4794      1.2524      3.1986      3.4248      3.9380      3.4756      2.0370
 19      0.0000      0.5319      0.8979      0.3063      0.0000      0.0000      3.3471      1.3184      0.0000
 20      0.0000      0.3831      0.2442      0.0000      0.0000      0.0000      1.7681      0.0000      0.0178
 21      0.0000      0.2587      1.2234      0.0000      0.0000      0.0000      0.2204      0.0000      0.0000
 22      0.0000      0.3750      0.0000      0.0000      0.0000      0.1917      1.5007      0.0000      0.2276
 23      0.0000      0.2622      0.0000      0.0000      1.0857      0.0000      0.0000      0.0000      0.0000
 24      0.0000      0.2772      0.0000      0.4740      0.0000      0.0000      0.0000      0.0000      0.0000
 25      0.0000      0.1106      0.0000      0.0000      0.0000      0.0000      0.0000      0.0000      0.0000
 26      0.0000      0.1113      0.0000      0.0000      0.0000      0.0842      0.0000      0.0000      0.0000
 27      0.0000      0.0385      0.0000      0.0478      0.0000      0.0000      0.0000      0.0000      0.0000
 28      0.0000      0.0185      0.0000      0.0000      0.0000      0.0000      0.0000      0.0000      0.0000
 29      0.0000      0.0490      0.0000      0.0000      0.0000      0.0000      0.0000      0.0000      0.0000
 30      0.0000      0.1060      0.0000      0.0744      0.1780      0.0000      0.0000      0.0000      0.0000
 31      0.0000      0.0581      0.0000      0.0000      0.0000      0.0000      0.0000      0.0000      0.0000
 32      0.0000      0.0511      0.2062      0.0000      0.0000      0.0000      0.0000      0.0000      0.0000
 33      0.0000      0.0412      0.0000      0.0000      0.0000      0.0000      0.0000      0.0000      0.2109
 34      0.0000      0.0265      0.0000      0.0000      0.0000      0.0000      0.0000      0.0000      0.0000
 35      4.5264      2.7813      3.2279      3.4486      3.0216      3.0696      3.9659      2.6678      3.4825
 36      3.8693      2.5614      2.9662      2.4302      3.5640      3.2614      3.8988      2.2629      2.9335
 37      0.0000      0.2551      0.0000      0.0000      0.0000      0.0000      0.0000      0.0000      0.0370
 38     43.1439     39.3303     41.9158     46.8160     39.7435     40.3006     41.7370     44.2164     42.9842
 39      0.0000      0.3014      0.0000      1.6516      0.0000      0.0000      0.0000      0.1156      0.0000
 40      0.0000      0.3715      0.1879      0.0000      1.1698      0.6408      0.0000      0.2379      0.0000
 41      0.0000      0.1547      0.0000      0.0000      0.0000      0.0000      0.0000      0.1342      0.0413
 42      0.0000      0.0570      0.0000      0.1735      0.1918      0.0000      0.0000      0.0000      0.0000
 43      0.0000      0.0380      0.0000      0.0000      0.0000      0.0000      0.0000      0.0000      0.0000
 44      0.0000      0.0258      0.0000      0.0000      0.0000      0.0000      0.0000      0.0455      0.0000
 45      0.0000      0.0248      0.0000      0.0000      0.0000      0.0000      0.0410      0.0000      0.0000
 46      0.0000      0.0355      0.0000      0.0000      0.0000      0.0000      0.0000      0.0000      0.0000
