###################################################################
## OUTPUT of StarlightChains_v04.for    [Cid@UFSC - 01/Apr/2007] ##
###################################################################

## Some input info
2013aj.txt                               [arq_obs]
Base.CB07.vall.4m                        [arq_base]
Masks.EmLines.NEW.gm                     [arq_masks]
StCv04.C11.config                        [arq_config]
   66                                    [N_base]
    0                                    [N_YAV_components = # of components with extra extinction!]
    0                                    [i_FitPowerLaw (1/0 = Yes/No)]
-9.99                                    [alpha_PowerLaw]
CCM                                      [red_law_option]
 1.458241                                [q_norm = A(l_norm)/A(V)]

## (Re)Sampling Parameters
 3741.00                                 [l_ini (A)]
 7218.00                                 [l_fin (A)]
    1.00                                 [dl    (A)]     (OBS: dl_cushion =    50.00 A)

## Normalization info
 4020.00                                 [l_norm (A) - for base]
 4010.00                                 [llow_norm (A) - window for f_obs]
 4060.00                                 [lupp_norm (A) - window for f_obs]
3.567852E-16                             [fobs_norm (in input units)]

## S/N
 3691.00                                 [llow_SN (A) - window for S/N]
 7268.00                                 [lupp_SN (A) - window for S/N]
   6.665                                 [S/N in S/N window]
   6.138                                 [S/N in norm. window]
  16.221                                 [S/N_err in S/N window]
  14.938                                 [S/N_err in norm. window]
  1.0000                                 [fscale_chi2]

## etc...
    -2007402                             [idum_orig]
  2384                                   [NOl_eff]
  2380                                   [Nl_eff]
     4    NSIGMA                         [Ntot_cliped & clip_method]
  1074430                                [Nglobal_steps]
   7                                     [N_chains]
  16                                     [NEX0s_base = N_base in EX0s-fits]
 0   0   1       12   2.0   2.654E+01    [Clip-Bug, RC-Crash & Burn-In warning-flags, n_censored_weights, wei_nsig_threshold & wei_limit]
    12     11.903     11.401      0.502  [idt_all, wdt_TotTime, wdt_UsrTime & wdt_SysTime (sec)]

## Synthesis Results - Best model ##

 3.20596E-01                             [chi2/Nl_eff]
     2.75602                             [adev (%)]

   102.50166                             [sum-of-x (%)]
 3.26921E-16                             [Flux_tot (units of input spectrum!)]
 9.84450E-12                             [Mini_tot (???)]
 5.12761E-12                             [Mcor_tot (???)]

 -92.14                                  [v0_min  (km/s)]
 150.77                                  [vd_min  (km/s)]
-0.0835                                  [AV_min  (mag)]
 0.0000                                  [YAV_min (mag)]

# j     x_j(%)      Mini_j(%)     Mcor_j(%)     age_j(yr)     Z_j      (L/M)_j    YAV?  Mstars   component_j        a/Fe...       SSP_chi2r SSP_adev(%)   SSP_AV   SSP_x(%)
  1      0.0000     0.0000E+00    0.0000E+00    1.000000E+06  0.00400  1.094E-02    0   1.0000   age020_m42            0.0000     2.7788E+00     7.7932   3.5277    82.6435
  2      0.0000     0.0000E+00    0.0000E+00    3.160000E+06  0.00400  4.007E-02    0   0.9999   age045_m42            0.0000     2.3701E+00     6.7259   2.7561    90.4647
  3      0.0000     0.0000E+00    0.0000E+00    5.010000E+06  0.00400  2.539E-02    0   0.9488   age055_m42            0.0000     2.5878E+00     7.1944   3.0948    87.3869
  4      0.0000     0.0000E+00    0.0000E+00    6.610000E+06  0.00400  2.620E-02    0   0.9220   age061_m42            0.0000     2.4341E+00     6.7473   2.6762    90.9631
  5      0.0000     0.0000E+00    0.0000E+00    1.000000E+07  0.00400  1.322E-02    0   0.8862   age070_m42            0.0000     2.8469E+00     7.3879   2.3615    94.3376
  6      0.0000     0.0000E+00    0.0000E+00    1.445000E+07  0.00400  7.883E-03    0   0.8571   age078_m42            0.0000     2.9233E+00     7.6394   2.7059    91.1359
  7      0.0000     0.0000E+00    0.0000E+00    2.512000E+07  0.00400  5.251E-03    0   0.8174   age090_m42            0.0000     2.9622E+00     7.5250   2.2203    95.3737
  8      0.0000     0.0000E+00    0.0000E+00    4.000000E+07  0.00400  3.649E-03    0   0.7851   age104_m42            0.0000     2.7337E+00     7.1762   1.9846    96.6063
  9      0.0000     0.0000E+00    0.0000E+00    5.500000E+07  0.00400  3.098E-03    0   0.7629   age110_m42            0.0000     2.5588E+00     6.7796   2.1486    96.1849
 10      0.0000     0.0000E+00    0.0000E+00    1.015200E+08  0.00400  2.228E-03    0   0.7207   age116_m42            0.0000     2.4956E+00     6.6449   2.1751    96.1274
 11      0.0000     0.0000E+00    0.0000E+00    2.861200E+08  0.00400  1.093E-03    0   0.6648   age125_m42            0.0000     2.4532E+00     6.8598   1.5727   100.7438
 12      0.0000     0.0000E+00    0.0000E+00    5.088000E+08  0.00400  6.597E-04    0   0.6365   age130_m42            0.0000     2.1383E+00     6.4394   1.5667   101.4709
 13      0.0000     0.0000E+00    0.0000E+00    1.434000E+09  0.00400  2.132E-04    0   0.5798   age139_m42            0.0000     1.1685E+00     4.8456   0.5561   105.6308
 14      0.0000     0.0000E+00    0.0000E+00    4.250000E+09  0.00400  5.895E-05    0   0.5377   age158_m42            0.0000     4.8870E-01     3.3306   0.1300   100.9135
 15      0.0000     0.0000E+00    0.0000E+00    7.500000E+09  0.00400  3.510E-05    0   0.5212   age171_m42            0.0000     3.7742E-01     2.9949  -0.0529   100.0995
 16     37.8342     6.1135E+01    5.9085E+01    1.300000E+10  0.00400  2.005E-05    0   0.5034   age193_m42            0.0000     3.4168E-01     2.8738  -0.2114    99.3359
 17      3.7710     8.0114E+00    7.6398E+00    1.800000E+10  0.00400  1.525E-05    0   0.4967   age213_m42            0.0000     3.5005E-01     2.9048  -0.2360    98.9392
 18      0.0000     0.0000E+00    0.0000E+00    1.000000E+06  0.00800  1.238E-02    0   1.0000   age020_m52            0.0000     2.7688E+00     7.7864   3.5240    82.8049
 19      0.0000     0.0000E+00    0.0000E+00    3.160000E+06  0.00800  3.074E-02    0   0.9966   age045_m52            0.0000     2.7213E+00     7.6784   3.4450    83.6563
 20      0.0000     0.0000E+00    0.0000E+00    5.010000E+06  0.00800  2.668E-02    0   0.9443   age055_m52            0.0000     2.5995E+00     7.3055   3.1810    86.4342
 21      0.0000     0.0000E+00    0.0000E+00    6.610000E+06  0.00800  2.136E-02    0   0.9177   age061_m52            0.0000     2.1762E+00     6.7044   1.8485    96.0480
 22      0.0000     0.0000E+00    0.0000E+00    1.000000E+07  0.00800  1.215E-02    0   0.8827   age070_m52            0.0000     3.0540E+00     7.8610   2.5388    94.1999
 23      0.0000     0.0000E+00    0.0000E+00    1.445000E+07  0.00800  8.717E-03    0   0.8552   age078_m52            0.0000     2.8506E+00     7.5169   2.6644    92.7247
 24      0.0000     0.0000E+00    0.0000E+00    2.512000E+07  0.00800  5.592E-03    0   0.8162   age090_m52            0.0000     2.9303E+00     7.5085   2.2779    96.8408
 25      0.0000     0.0000E+00    0.0000E+00    4.000000E+07  0.00800  3.896E-03    0   0.7841   age104_m52            0.0000     2.7069E+00     7.1526   2.1861    97.8676
 26      0.0000     0.0000E+00    0.0000E+00    1.015200E+08  0.00800  2.148E-03    0   0.7226   age116_m52            0.0000     2.3699E+00     6.6427   2.1286    97.5896
 27      0.0000     0.0000E+00    0.0000E+00    2.861200E+08  0.00800  9.925E-04    0   0.6683   age125_m52            0.0000     2.0775E+00     6.3153   1.6266   102.7074
 28      0.0000     0.0000E+00    0.0000E+00    9.047900E+08  0.00800  3.141E-04    0   0.6138   age135_m52            0.0000     9.3011E-01     4.6940   0.7873   109.4203
 29      0.0000     0.0000E+00    0.0000E+00    1.434000E+09  0.00800  1.719E-04    0   0.5853   age139_m52            0.0000     6.3843E-01     3.8103   0.2118   106.9797
 30      0.0000     0.0000E+00    0.0000E+00    2.500000E+09  0.00800  7.872E-05    0   0.5600   age150_m52            0.0000     3.7840E-01     2.9825  -0.0352   103.1133
 31      0.0000     0.0000E+00    0.0000E+00    4.250000E+09  0.00800  4.336E-05    0   0.5426   age158_m52            0.0000     3.4704E-01     2.8717  -0.0495   102.0907
 32      9.9736     1.0229E+01    1.0445E+01    6.250000E+09  0.00800  3.159E-05    0   0.5319   age166_m52            0.0000     3.6465E-01     2.8729  -0.2452   101.8852
 33      0.0000     0.0000E+00    0.0000E+00    1.300000E+10  0.00800  1.361E-05    0   0.5073   age193_m52            0.0000     5.2702E-01     3.4714  -0.7048   100.9356
 34      0.0000     0.0000E+00    0.0000E+00    1.800000E+10  0.00800  9.886E-06    0   0.4990   age213_m52            0.0000     7.4351E-01     4.2069  -0.7988    99.8760
 35      0.4094     8.5902E-04    1.6492E-03    1.000000E+06  0.02000  1.544E-02    0   1.0000   age020_m62            0.0000     2.7728E+00     7.8131   3.5218    82.9302
 36      3.2092     2.7637E-03    5.2307E-03    3.160000E+06  0.02000  3.762E-02    0   0.9858   age045_m62            0.0000     2.7572E+00     7.7789   3.4605    83.6925
 37      0.0000     0.0000E+00    0.0000E+00    5.010000E+06  0.02000  3.296E-02    0   0.9342   age055_m62            0.0000     2.4779E+00     6.9465   3.0510    88.6761
 38      1.4992     4.2089E-03    7.1602E-03    8.710000E+06  0.02000  1.154E-02    0   0.8861   age067_m62            0.0000     5.2440E+00    10.8567   1.9445    98.8378
 39      0.0000     0.0000E+00    0.0000E+00    1.445000E+07  0.02000  7.663E-03    0   0.8472   age078_m62            0.0000     3.3769E+00     8.5182   2.1596    97.5793
 40      0.0000     0.0000E+00    0.0000E+00    2.512000E+07  0.02000  4.532E-03    0   0.8099   age090_m62            0.0000     3.6169E+00     8.7503   2.1500    97.4236
 41      0.0000     0.0000E+00    0.0000E+00    5.500000E+07  0.02000  2.733E-03    0   0.7595   age110_m62            0.0000     2.7229E+00     7.1691   2.1729    96.9445
 42      0.0000     0.0000E+00    0.0000E+00    1.609000E+08  0.02000  1.369E-03    0   0.6985   age120_m62            0.0000     2.4638E+00     6.6862   2.0075    99.9687
 43      0.0000     0.0000E+00    0.0000E+00    2.861200E+08  0.02000  9.013E-04    0   0.6714   age125_m62            0.0000     2.2530E+00     6.4875   1.7412   103.7207
 44      0.0000     0.0000E+00    0.0000E+00    5.088000E+08  0.02000  5.028E-04    0   0.6449   age130_m62            0.0000     1.5059E+00     5.5523   1.3488   107.4552
 45      0.0000     0.0000E+00    0.0000E+00    9.047900E+08  0.02000  2.428E-04    0   0.6179   age135_m62            0.0000     6.7096E-01     3.9496   0.7472   107.8032
 46      0.0000     0.0000E+00    0.0000E+00    1.434000E+09  0.02000  1.263E-04    0   0.5908   age139_m62            0.0000     4.1572E-01     3.1193   0.3048   106.1853
 47     12.9138     6.9905E+00    7.6138E+00    2.500000E+09  0.02000  5.985E-05    0   0.5673   age150_m62            0.0000     3.7273E-01     2.9239  -0.0436   103.9460
 48      0.4832     4.7857E-01    5.0240E-01    4.250000E+09  0.02000  3.271E-05    0   0.5468   age158_m62            0.0000     5.4978E-01     3.5371  -0.3345   102.5134
 49      0.0000     0.0000E+00    0.0000E+00    1.000000E+10  0.02000  1.360E-05    0   0.5167   age181_m62            0.0000     9.6731E-01     4.8808  -0.6664   101.4997
 50      0.0000     0.0000E+00    0.0000E+00    1.800000E+10  0.02000  7.124E-06    0   0.5013   age213_m62            0.0000     1.4075E+00     5.9889  -0.8529    99.7420
 51      0.0000     0.0000E+00    0.0000E+00    1.000000E+06  0.05000  2.592E-02    0   0.9998   age020_m72            0.0000     2.8053E+00     7.9254   3.5144    82.8917
 52      0.0000     0.0000E+00    0.0000E+00    3.160000E+06  0.05000  4.845E-02    0   0.9577   age045_m72            0.0000     2.6460E+00     7.4540   3.3349    85.2061
 53      0.0000     0.0000E+00    0.0000E+00    5.010000E+06  0.05000  3.072E-02    0   0.9147   age055_m72            0.0000     3.0648E+00     8.2802   2.7945    91.7933
 54      0.0000     0.0000E+00    0.0000E+00    6.610000E+06  0.05000  1.455E-02    0   0.8877   age061_m72            0.0000     7.3013E+00    13.3312   1.9933   100.0879
 55      0.0000     0.0000E+00    0.0000E+00    1.000000E+07  0.05000  9.074E-03    0   0.8524   age070_m72            0.0000     3.4123E+00     8.8224   2.9984    91.0073
 56      0.0000     0.0000E+00    0.0000E+00    2.512000E+07  0.05000  4.250E-03    0   0.7902   age090_m72            0.0000     3.2376E+00     8.2469   2.6630    94.0815
 57      0.0000     0.0000E+00    0.0000E+00    4.000000E+07  0.05000  3.087E-03    0   0.7618   age104_m72            0.0000     3.3716E+00     8.3037   2.4168    96.4901
 58      0.0000     0.0000E+00    0.0000E+00    1.015200E+08  0.05000  1.700E-03    0   0.7096   age116_m72            0.0000     2.7197E+00     7.1112   2.1455    99.7415
 59      0.0000     0.0000E+00    0.0000E+00    2.861200E+08  0.05000  7.384E-04    0   0.6633   age125_m72            0.0000     1.8805E+00     6.0146   1.6001   105.7118
 60      0.0000     0.0000E+00    0.0000E+00    5.088000E+08  0.05000  3.819E-04    0   0.6372   age130_m72            0.0000     1.0264E+00     4.6246   1.0939   108.3139
 61      0.0000     0.0000E+00    0.0000E+00    9.047900E+08  0.05000  1.676E-04    0   0.6110   age135_m72            0.0000     4.9659E-01     3.4200   0.4117   105.9107
 62     29.2309     1.0717E+01    1.2086E+01    1.434000E+09  0.05000  8.837E-05    0   0.5874   age139_m72            0.0000     4.1385E-01     3.1009  -0.0495   105.7822
 63      3.1772     2.4318E+00    2.6135E+00    2.500000E+09  0.05000  4.233E-05    0   0.5598   age150_m72            0.0000     6.5202E-01     3.9114  -0.3310   103.2306
 64      0.0000     0.0000E+00    0.0000E+00    6.250000E+09  0.05000  1.435E-05    0   0.5249   age166_m72            0.0000     1.1194E+00     5.3007  -0.7543   100.6939
 65      0.0000     0.0000E+00    0.0000E+00    1.300000E+10  0.05000  6.513E-06    0   0.5036   age193_m72            0.0000     1.7410E+00     6.7399  -1.0000   100.1919
 66      0.0000     0.0000E+00    0.0000E+00    1.800000E+10  0.05000  4.527E-06    0   0.4945   age213_m72            0.0000     2.3091E+00     7.9586  -1.0000    93.1207


## Synthesis Results - Average & Chains ##

# j      x_j: min, <> & last-chain-values for 1 ...  7 chains
  1      0.0000      0.3474      1.0186      0.5880      0.2851      0.0000      0.9234      0.0000      0.8233
  2      0.0000      0.0674      0.0000      0.0000      0.1779      0.0619      0.0170      0.0000      0.0000
  3      0.0000      0.1252      0.0000      0.0000      0.0697      0.0000      0.6577      0.0000      0.0000
  4      0.0000      0.1293      0.0000      0.0000      0.0000      0.0000      0.0000      0.0000      0.0279
  5      0.0000      0.0790      0.0000      0.0000      0.2400      0.0000      0.0000      0.2779      0.0000
  6      0.0000      0.0844      0.5512      0.0000      0.1164      0.1518      0.0313      0.0000      0.0000
  7      0.0000      0.0587      0.0000      0.0000      0.0000      0.0000      0.0000      0.0000      0.0000
  8      0.0000      0.0778      0.0000      0.0000      0.6879      0.0000      0.0000      0.0000      0.0000
  9      0.0000      0.0405      0.0000      0.0000      0.0000      0.0000      0.0000      0.0000      0.0000
 10      0.0000      0.0438      0.0000      0.0000      0.0000      0.0000      0.0000      0.0000      0.0000
 11      0.0000      0.1499      0.0000      0.0000      0.0000      0.0000      0.0000      0.0000      0.0000
 12      0.0000      0.0537      0.0000      0.0000      0.0000      0.0000      0.0000      0.0000      0.0000
 13      0.0000      0.1685      0.0000      0.0000      0.0000      0.0000      0.0000      0.0000      0.0000
 14      0.0000      0.8637      0.0000      0.3286      0.1644      1.3463      0.0000      0.0000      0.0000
 15      0.0000      2.2380      2.3820      0.0000      2.9296      0.0000      1.1617      0.0000      0.0000
 16     37.8342     16.7590     17.4391     18.8157     23.3057     21.1866     18.2273     17.2646     16.7765
 17      3.7710      7.0067      5.8624      8.8140      7.3748      6.6837      6.2199      9.1460      7.8094
 18      0.0000      0.1600      0.4020      0.0000      0.0000      0.0000      0.1023      0.0000      0.5663
 19      0.0000      0.1377      0.5916      0.0000      0.0000      0.0000      0.5983      0.0000      0.0000
 20      0.0000      0.0504      0.0000      0.0000      0.0000      0.5263      0.0000      0.0000      0.0000
 21      0.0000      0.0874      0.0000      0.0000      0.0000      0.0000      0.0000      0.0000      0.3121
 22      0.0000      0.0464      0.0000      0.0000      0.0000      0.0000      0.5272      0.0000      0.0137
 23      0.0000      0.0732      0.0000      0.0000      0.0000      0.7997      0.4998      0.1398      0.1810
 24      0.0000      0.0713      0.0000      0.0000      0.0000      0.0000      0.0000      0.0000      0.0000
 25      0.0000      0.0556      0.0000      0.0000      0.0000      0.0000      0.0000      0.0000      0.0000
 26      0.0000      0.0841      0.0000      0.0000      0.0000      0.3491      0.0000      0.0000      0.0000
 27      0.0000      0.1202      0.0000      0.0000      0.0000      0.0000      0.0000      0.0000      0.0000
 28      0.0000      0.1458      0.0000      0.0000      0.0000      0.0866      0.0108      0.0000      0.0000
 29      0.0000      0.4409      0.0000      0.0000      0.0000      0.0000      0.0000      0.0000      0.0000
 30      0.0000      0.9248      0.0000      0.0000      0.0000      1.7828      0.0000      0.4310      1.6144
 31      0.0000      3.8616      0.0000      1.9998      1.4483      0.0000      2.1731      3.3193      2.9387
 32      9.9736      9.2731     11.3748      8.9603      7.8254      6.7152      9.8048     12.8237     10.9982
 33      0.0000      0.3653      0.5477      0.0000      0.1335      0.0000      0.0000      0.0000      0.0000
 34      0.0000      0.3399      1.0603      0.3705      0.0000      0.0000      0.5997      0.0000      1.1250
 35      0.4094      0.4428      0.6799      0.0000      0.9592      0.4123      0.6735      1.4728      1.1841
 36      3.2092      1.3266      0.8693      1.2052      1.7241      1.9213      1.3073      2.0372      1.8984
 37      0.0000      0.0606      0.0000      0.0000      0.0000      0.0000      0.0000      0.0000      0.0000
 38      1.4992      0.8582      1.2727      3.2797      0.7065      0.8081      0.8633      0.7180      1.2097
 39      0.0000      0.1296      0.4434      0.8606      0.0000      0.0000      0.0000      0.5149      0.0000
 40      0.0000      0.0942      0.0078      0.0000      0.0000      0.0000      0.0000      0.0000      0.0000
 41      0.0000      0.0523      0.0000      0.0000      0.0000      0.0000      0.0000      0.0000      0.0000
 42      0.0000      0.0837      0.0000      0.0000      0.4231      0.0463      0.0000      0.0000      0.0000
 43      0.0000      0.0447      0.0000      0.0000      0.3957      0.0000      0.0000      0.0000      0.0000
 44      0.0000      0.1058      0.2332      0.0000      0.0000      0.0000      0.0495      0.0000      0.0000
 45      0.0000      0.2828      0.0000      0.0000      0.0000      0.0000      0.7542      1.6215      0.0000
 46      0.0000      1.8594      2.1497      1.5368      0.0000      0.7591      0.5704      2.5729      2.6879
