###################################################################
## OUTPUT of StarlightChains_v04.for    [Cid@UFSC - 01/Apr/2007] ##
###################################################################

## Some input info
2013gl.txt                               [arq_obs]
Base.CB07.vall.4m                        [arq_base]
Masks.EmLines.NEW.gm                     [arq_masks]
StCv04.C11.config                        [arq_config]
   66                                    [N_base]
    0                                    [N_YAV_components = # of components with extra extinction!]
    0                                    [i_FitPowerLaw (1/0 = Yes/No)]
-9.99                                    [alpha_PowerLaw]
CCM                                      [red_law_option]
 1.458241                                [q_norm = A(l_norm)/A(V)]

## (Re)Sampling Parameters
 3741.00                                 [l_ini (A)]
 7218.00                                 [l_fin (A)]
    1.00                                 [dl    (A)]     (OBS: dl_cushion =    50.00 A)

## Normalization info
 4020.00                                 [l_norm (A) - for base]
 4010.00                                 [llow_norm (A) - window for f_obs]
 4060.00                                 [lupp_norm (A) - window for f_obs]
3.492236E-16                             [fobs_norm (in input units)]

## S/N
 3691.00                                 [llow_SN (A) - window for S/N]
 7268.00                                 [lupp_SN (A) - window for S/N]
   4.636                                 [S/N in S/N window]
   6.785                                 [S/N in norm. window]
  40.412                                 [S/N_err in S/N window]
  59.144                                 [S/N_err in norm. window]
  1.0000                                 [fscale_chi2]

## etc...
    -2007409                             [idum_orig]
  2384                                   [NOl_eff]
  2369                                   [Nl_eff]
    15    NSIGMA                         [Ntot_cliped & clip_method]
  2295300                                [Nglobal_steps]
   7                                     [N_chains]
  24                                     [NEX0s_base = N_base in EX0s-fits]
 0   0   1        3   2.0   1.162E+02    [Clip-Bug, RC-Crash & Burn-In warning-flags, n_censored_weights, wei_nsig_threshold & wei_limit]
    26     26.170     25.661      0.509  [idt_all, wdt_TotTime, wdt_UsrTime & wdt_SysTime (sec)]

## Synthesis Results - Best model ##

 5.54481E-01                             [chi2/Nl_eff]
     1.43831                             [adev (%)]

   101.91850                             [sum-of-x (%)]
 4.67830E-16                             [Flux_tot (units of input spectrum!)]
 1.17930E-12                             [Mini_tot (???)]
 6.77245E-13                             [Mcor_tot (???)]

 -46.68                                  [v0_min  (km/s)]
 153.44                                  [vd_min  (km/s)]
 0.2036                                  [AV_min  (mag)]
 0.0000                                  [YAV_min (mag)]

# j     x_j(%)      Mini_j(%)     Mcor_j(%)     age_j(yr)     Z_j      (L/M)_j    YAV?  Mstars   component_j        a/Fe...       SSP_chi2r SSP_adev(%)   SSP_AV   SSP_x(%)
  1      1.8325     6.5198E-02    1.1353E-01    1.000000E+06  0.00400  1.094E-02    0   1.0000   age020_m42            0.0000     5.4522E+00     4.7696   2.0938    86.8128
  2      0.0000     0.0000E+00    0.0000E+00    3.160000E+06  0.00400  4.007E-02    0   0.9999   age045_m42            0.0000     3.1924E+00     3.3175   1.3767    92.5414
  3      0.0000     0.0000E+00    0.0000E+00    5.010000E+06  0.00400  2.539E-02    0   0.9488   age055_m42            0.0000     3.8376E+00     3.7728   1.6904    90.4825
  4      0.0000     0.0000E+00    0.0000E+00    6.610000E+06  0.00400  2.620E-02    0   0.9220   age061_m42            0.0000     2.7405E+00     3.0747   1.2994    92.9469
  5      0.1166     3.4330E-03    5.2977E-03    1.000000E+07  0.00400  1.322E-02    0   0.8862   age070_m42            0.0000     1.4292E+00     2.3157   0.9835    96.6505
  6      0.0138     6.8043E-04    1.0155E-03    1.445000E+07  0.00400  7.883E-03    0   0.8571   age078_m42            0.0000     2.0333E+00     2.7722   1.3127    94.0414
  7      0.0000     0.0000E+00    0.0000E+00    2.512000E+07  0.00400  5.251E-03    0   0.8174   age090_m42            0.0000     1.3277E+00     2.2332   0.8477    97.5090
  8      4.0979     4.3711E-01    5.9758E-01    4.000000E+07  0.00400  3.649E-03    0   0.7851   age104_m42            0.0000     1.0822E+00     1.9940   0.6242    98.1430
  9      0.4981     6.2584E-02    8.3140E-02    5.500000E+07  0.00400  3.098E-03    0   0.7629   age110_m42            0.0000     1.3151E+00     2.1445   0.7947    97.3121
 10      0.1121     1.9579E-02    2.4571E-02    1.015200E+08  0.00400  2.228E-03    0   0.7207   age116_m42            0.0000     1.6271E+00     2.4533   0.8263    96.9535
 11      0.0000     0.0000E+00    0.0000E+00    2.861200E+08  0.00400  1.093E-03    0   0.6648   age125_m42            0.0000     1.5130E+00     2.4204   0.2484   100.4307
 12      0.0000     0.0000E+00    0.0000E+00    5.088000E+08  0.00400  6.597E-04    0   0.6365   age130_m42            0.0000     1.8222E+00     2.7513   0.2559   100.3780
 13      0.0000     0.0000E+00    0.0000E+00    1.434000E+09  0.00400  2.132E-04    0   0.5798   age139_m42            0.0000     1.8825E+00     2.8390  -0.7039   101.8085
 14      2.4476     1.6161E+01    1.5132E+01    4.250000E+09  0.00400  5.895E-05    0   0.5377   age158_m42            0.0000     4.4615E+00     4.1715  -1.0000    91.9568
 15      0.0000     0.0000E+00    0.0000E+00    7.500000E+09  0.00400  3.510E-05    0   0.5212   age171_m42            0.0000     9.7793E+00     6.2505  -1.0000    84.2920
 16      0.0000     0.0000E+00    0.0000E+00    1.300000E+10  0.00400  2.005E-05    0   0.5034   age193_m42            0.0000     1.7072E+01     8.4742  -1.0000    77.9782
 17      1.2721     3.2468E+01    2.8082E+01    1.800000E+10  0.00400  1.525E-05    0   0.4967   age213_m42            0.0000     1.8115E+01     8.7983  -1.0000    76.8457
 18      4.7537     1.4946E-01    2.6026E-01    1.000000E+06  0.00800  1.238E-02    0   1.0000   age020_m52            0.0000     5.4534E+00     4.7800   2.0902    86.9782
 19      1.1753     1.4881E-02    2.5825E-02    3.160000E+06  0.00800  3.074E-02    0   0.9966   age045_m52            0.0000     5.2872E+00     4.6880   2.0148    87.6928
 20      0.0000     0.0000E+00    0.0000E+00    5.010000E+06  0.00800  2.668E-02    0   0.9443   age055_m52            0.0000     3.9576E+00     3.9197   1.7709    89.7431
 21     18.7114     3.4097E-01    5.4487E-01    6.610000E+06  0.00800  2.136E-02    0   0.9177   age061_m52            0.0000     1.1163E+00     2.1718   0.4858    97.5971
 22      0.0000     0.0000E+00    0.0000E+00    1.000000E+07  0.00800  1.215E-02    0   0.8827   age070_m52            0.0000     1.6736E+00     2.5950   1.1529    96.9258
 23      0.0000     0.0000E+00    0.0000E+00    1.445000E+07  0.00800  8.717E-03    0   0.8552   age078_m52            0.0000     1.7299E+00     2.5739   1.2771    95.4083
 24      0.4801     3.3421E-02    4.7500E-02    2.512000E+07  0.00800  5.592E-03    0   0.8162   age090_m52            0.0000     1.2532E+00     2.1824   0.9098    98.7711
 25      0.0000     0.0000E+00    0.0000E+00    4.000000E+07  0.00800  3.896E-03    0   0.7841   age104_m52            0.0000     1.1216E+00     2.0379   0.8317    99.0987
 26      0.0000     0.0000E+00    0.0000E+00    1.015200E+08  0.00800  2.148E-03    0   0.7226   age116_m52            0.0000     1.1840E+00     2.1031   0.7870    98.0920
 27      0.0000     0.0000E+00    0.0000E+00    2.861200E+08  0.00800  9.925E-04    0   0.6683   age125_m52            0.0000     1.5952E+00     2.5640   0.3190   101.3968
 28      0.0000     0.0000E+00    0.0000E+00    9.047900E+08  0.00800  3.141E-04    0   0.6138   age135_m52            0.0000     2.8693E+00     3.5201  -0.4494   104.1330
 29      0.0000     0.0000E+00    0.0000E+00    1.434000E+09  0.00800  1.719E-04    0   0.5853   age139_m52            0.0000     3.4346E+00     3.8228  -1.0000   100.7243
 30      0.0000     0.0000E+00    0.0000E+00    2.500000E+09  0.00800  7.872E-05    0   0.5600   age150_m52            0.0000     9.5153E+00     6.2420  -1.0000    87.3857
 31      0.0000     0.0000E+00    0.0000E+00    4.250000E+09  0.00800  4.336E-05    0   0.5426   age158_m52            0.0000     1.0196E+01     6.3600  -1.0000    85.9886
 32      0.0000     0.0000E+00    0.0000E+00    6.250000E+09  0.00800  3.159E-05    0   0.5319   age166_m52            0.0000     1.9251E+01     9.0006  -1.0000    78.6740
 33      0.0000     0.0000E+00    0.0000E+00    1.300000E+10  0.00800  1.361E-05    0   0.5073   age193_m52            0.0000     5.0158E+01    15.4049  -1.0000    63.0926
 34      0.0000     0.0000E+00    0.0000E+00    1.800000E+10  0.00800  9.886E-06    0   0.4990   age213_m52            0.0000     5.8841E+01    16.6735  -1.0000    59.6891
 35      0.6112     1.5408E-02    2.6830E-02    1.000000E+06  0.02000  1.544E-02    0   1.0000   age020_m62            0.0000     5.5348E+00     4.8332   2.0856    87.1958
 36      0.0026     2.6637E-05    4.5724E-05    3.160000E+06  0.02000  3.762E-02    0   0.9858   age045_m62            0.0000     5.5409E+00     4.8272   2.0267    87.8721
 37      0.0000     0.0000E+00    0.0000E+00    5.010000E+06  0.02000  3.296E-02    0   0.9342   age055_m62            0.0000     3.6017E+00     3.6147   1.6557    91.3745
 38     16.9786     5.7267E-01    8.8362E-01    8.710000E+06  0.02000  1.154E-02    0   0.8861   age067_m62            0.0000     6.2209E+00     5.2277   0.5389   103.1678
 39      0.0000     0.0000E+00    0.0000E+00    1.445000E+07  0.02000  7.663E-03    0   0.8472   age078_m62            0.0000     2.1749E+00     2.9828   0.7800   100.1928
 40      0.0000     0.0000E+00    0.0000E+00    2.512000E+07  0.02000  4.532E-03    0   0.8099   age090_m62            0.0000     2.5869E+00     3.2054   0.7695   100.0926
 41      0.0000     0.0000E+00    0.0000E+00    5.500000E+07  0.02000  2.733E-03    0   0.7595   age110_m62            0.0000     1.0943E+00     2.0282   0.8133    98.4082
 42      0.0000     0.0000E+00    0.0000E+00    1.609000E+08  0.02000  1.369E-03    0   0.6985   age120_m62            0.0000     1.3318E+00     2.2529   0.6736   100.0882
 43      7.5355     3.2543E+00    3.8046E+00    2.861200E+08  0.02000  9.013E-04    0   0.6714   age125_m62            0.0000     1.8162E+00     2.6553   0.4333   102.4690
 44      1.3613     1.0539E+00    1.1835E+00    5.088000E+08  0.02000  5.028E-04    0   0.6449   age130_m62            0.0000     3.0439E+00     3.5426   0.0846   103.7384
 45      0.0000     0.0000E+00    0.0000E+00    9.047900E+08  0.02000  2.428E-04    0   0.6179   age135_m62            0.0000     3.6890E+00     3.9160  -0.4853   102.3242
 46      0.0013     3.9585E-03    4.0724E-03    1.434000E+09  0.02000  1.263E-04    0   0.5908   age139_m62            0.0000     4.9235E+00     4.4293  -0.9206   100.3660
 47      0.0000     0.0000E+00    0.0000E+00    2.500000E+09  0.02000  5.985E-05    0   0.5673   age150_m62            0.0000     1.1500E+01     6.7221  -1.0000    87.6522
 48      0.0000     0.0000E+00    0.0000E+00    4.250000E+09  0.02000  3.271E-05    0   0.5468   age158_m62            0.0000     2.6020E+01    10.5002  -1.0000    75.9622
 49      0.0000     0.0000E+00    0.0000E+00    1.000000E+10  0.02000  1.360E-05    0   0.5167   age181_m62            0.0000     4.9732E+01    15.0478  -1.0000    64.5251
 50      0.0000     0.0000E+00    0.0000E+00    1.800000E+10  0.02000  7.124E-06    0   0.5013   age213_m62            0.0000     6.6613E+01    17.5926  -1.0000    58.0285
 51      1.9031     2.8578E-02    4.9754E-02    1.000000E+06  0.05000  2.592E-02    0   0.9998   age020_m72            0.0000     5.7422E+00     4.9596   2.0755    87.2817
 52      0.0000     0.0000E+00    0.0000E+00    3.160000E+06  0.05000  4.845E-02    0   0.9577   age045_m72            0.0000     5.0004E+00     4.4261   1.9157    88.8052
 53      0.0000     0.0000E+00    0.0000E+00    5.010000E+06  0.05000  3.072E-02    0   0.9147   age055_m72            0.0000     2.9901E+00     3.5851   1.3931    95.0314
 54      0.0000     0.0000E+00    0.0000E+00    6.610000E+06  0.05000  1.455E-02    0   0.8877   age061_m72            0.0000     1.5556E+01     7.8848   0.5701   105.3033
 55      0.0000     0.0000E+00    0.0000E+00    1.000000E+07  0.05000  9.074E-03    0   0.8524   age070_m72            0.0000     5.3572E+00     4.5103   1.5831    94.6057
 56      0.0000     0.0000E+00    0.0000E+00    2.512000E+07  0.05000  4.250E-03    0   0.7902   age090_m72            0.0000     3.2613E+00     3.4381   1.2771    96.6137
 57      0.0000     0.0000E+00    0.0000E+00    4.000000E+07  0.05000  3.087E-03    0   0.7618   age104_m72            0.0000     3.2669E+00     3.3518   1.0431    98.5633
 58      0.0104     2.3800E-03    2.9409E-03    1.015200E+08  0.05000  1.700E-03    0   0.7096   age116_m72            0.0000     1.4486E+00     2.3455   0.8048   100.2455
 59      8.4106     4.4335E+00    5.1208E+00    2.861200E+08  0.05000  7.384E-04    0   0.6633   age125_m72            0.0000     2.3365E+00     3.0469   0.3159   103.1456
 60     25.7749     2.6270E+01    2.9148E+01    5.088000E+08  0.05000  3.819E-04    0   0.6372   age130_m72            0.0000     3.3657E+00     3.8492  -0.1518   103.5501
 61      2.9821     6.9256E+00    7.3685E+00    9.047900E+08  0.05000  1.676E-04    0   0.6110   age135_m72            0.0000     7.0656E+00     5.4807  -0.8092    99.8485
 62      0.0000     0.0000E+00    0.0000E+00    1.434000E+09  0.05000  8.837E-05    0   0.5874   age139_m72            0.0000     1.2382E+01     7.0175  -1.0000    88.8995
 63      0.8357     7.6841E+00    7.4904E+00    2.500000E+09  0.05000  4.233E-05    0   0.5598   age150_m72            0.0000     2.6928E+01    10.6168  -1.0000    76.5729
 64      0.0000     0.0000E+00    0.0000E+00    6.250000E+09  0.05000  1.435E-05    0   0.5249   age166_m72            0.0000     5.7538E+01    16.2949  -1.0000    61.4086
 65      0.0000     0.0000E+00    0.0000E+00    1.300000E+10  0.05000  6.513E-06    0   0.5036   age193_m72            0.0000     8.1429E+01    19.5810  -1.0000    54.3003
 66      0.0000     0.0000E+00    0.0000E+00    1.800000E+10  0.05000  4.527E-06    0   0.4945   age213_m72            0.0000     9.6245E+01    21.3451  -1.0000    50.1616


## Synthesis Results - Average & Chains ##

# j      x_j: min, <> & last-chain-values for 1 ...  7 chains
  1      1.8325      1.4544      1.2465      1.6058      1.3575      1.7979      1.3965      1.6018      1.5640
  2      0.0000      0.2129      0.1336      0.0000      0.3012      0.3659      0.0000      0.1648      0.1443
  3      0.0000      0.1757      0.0000      0.1865      0.0000      0.0000      0.4207      0.0000      0.0000
  4      0.0000      0.1507      0.0000      0.0000      0.0000      0.0000      0.0000      0.2296      0.0000
  5      0.1166      0.3563      0.3203      1.2505      0.0000      0.2831      0.0457      0.0000      0.2799
  6      0.0138      0.2605      0.4770      0.4161      0.0257      0.4185      0.9488      0.3832      0.5424
  7      0.0000      0.8171      1.4392      0.2888      0.5838      0.4495      0.6788      0.6827      0.0000
  8      4.0979      1.8678      1.6934      1.7200      1.8600      1.2955      1.9253      1.7518      2.8294
  9      0.4981      0.3455      0.0269      0.4580      1.4678      0.3483      0.0849      0.0000      0.6222
 10      0.1121      0.2841      0.6820      0.4636      0.0000      0.0000      0.3659      0.0000      0.0000
 11      0.0000      0.5037      0.0000      0.0000      0.8851      0.0000      0.3124      0.0000      0.0000
 12      0.0000      0.5222      0.5352      0.0000      0.0000      0.0000      0.1674      0.0331      0.0000
 13      0.0000      0.2108      0.0000      0.0000      0.5290      0.0000      0.6127      0.7557      0.4487
 14      2.4476      0.9174      0.8787      1.5279      1.0830      0.9386      1.1946      0.7506      0.8396
 15      0.0000      0.0550      0.1625      0.1253      0.0000      0.2036      0.0434      0.0000      0.0000
 16      0.0000      0.0196      0.0300      0.0000      0.0000      0.0000      0.0000      0.0000      0.0000
 17      1.2721      0.6632      0.8698      0.7275      0.4036      0.5907      0.6615      1.0310      0.6474
 18      4.7537      3.4570      3.3333      3.4970      3.6752      3.3497      3.7046      3.6229      4.0265
 19      1.1753      1.3324      1.0860      1.1176      1.8060      1.6536      1.5256      0.8595      1.9393
 20      0.0000      0.3025      0.6597      0.1969      0.0000      0.5902      0.9695      0.0000      0.1307
 21     18.7114     20.9885     20.4675     20.3594     20.8007     21.1031     20.4259     20.9300     21.2395
 22      0.0000      0.2289      0.0000      0.3089      0.0000      0.3464      0.0000      0.0000      0.0000
 23      0.0000      0.1711      0.0000      0.2297      0.0831      0.0000      0.0000      0.0000      0.0000
 24      0.4801      1.0501      1.2554      1.5790      1.1999      1.6709      0.9916      1.2351      0.8002
 25      0.0000      0.5678      0.0000      0.1755      0.6603      0.1428      1.7380      0.9036      0.0000
 26      0.0000      0.5048      0.5565      0.0000      0.2878      0.8263      0.0000      0.1898      0.5150
 27      0.0000      0.6473      0.6470      0.1237      0.0000      0.0000      0.0000      0.0000      0.0000
 28      0.0000      0.0868      0.0127      0.0000      0.0000      0.0000      0.0164      0.0000      0.0000
 29      0.0000      0.0308      0.0000      0.0000      0.0000      0.0000      0.0000      0.0000      0.0000
 30      0.0000      0.0305      0.0000      0.0000      0.0000      0.0000      0.0000      0.0000      0.0002
 31      0.0000      0.0215      0.0000      0.0000      0.0000      0.0000      0.0000      0.0816      0.3282
 32      0.0000      0.0293      0.0000      0.0000      0.0000      0.0000      0.0000      0.0000      0.0000
 33      0.0000      0.0627      0.0000      0.0000      0.1455      0.0771      0.0000      0.0000      0.0434
 34      0.0000      0.0033      0.0000      0.0000      0.0000      0.0000      0.0019      0.0000      0.0000
 35      0.6112      0.2075      0.4966      0.3227      0.3644      0.4422      0.0000      0.0000      0.0000
 36      0.0026      0.0792      0.0000      0.3774      0.0000      0.0000      0.0000      0.0000      0.0000
 37      0.0000      0.1784      0.6532      0.0000      0.7277      0.1123      0.1048      0.6453      0.0000
 38     16.9786     16.2885     17.1626     16.7239     16.6992     16.9092     15.9436     17.0240     16.0288
 39      0.0000      0.2926      0.3044      0.0000      0.0000      0.0000      0.0433      0.7889      0.0700
 40      0.0000      0.2058      0.0919      0.0973      0.0000      0.0086      0.0000      0.0000      0.0000
 41      0.0000      0.2962      0.7525      0.0000      0.0833      0.1900      0.0000      0.8027      0.3696
 42      0.0000      0.6805      0.0000      0.0000      0.5867      0.5779      0.5227      1.8952      0.0000
 43      7.5355      2.5390      2.2100      1.9602      3.3094      2.1682      3.3731      2.5557      6.6223
 44      1.3613      4.1691      4.0661      5.0588      3.6471      4.2150      2.9963      4.0050      1.7946
 45      0.0000      0.0954      0.0000      0.0000      0.0000      0.0000      0.5192      0.0424      0.0000
 46      0.0013      0.7516      0.5927      0.3704      0.6928      0.6420      0.8081      0.7248      1.0069
