###################################################################
## OUTPUT of StarlightChains_v04.for    [Cid@UFSC - 01/Apr/2007] ##
###################################################################

## Some input info
2013di.txt                               [arq_obs]
Base.CB07.vall.4m                        [arq_base]
Masks.EmLines.NEW.gm                     [arq_masks]
StCv04.C11.config                        [arq_config]
   66                                    [N_base]
    0                                    [N_YAV_components = # of components with extra extinction!]
    0                                    [i_FitPowerLaw (1/0 = Yes/No)]
-9.99                                    [alpha_PowerLaw]
CCM                                      [red_law_option]
 1.458241                                [q_norm = A(l_norm)/A(V)]

## (Re)Sampling Parameters
 3741.00                                 [l_ini (A)]
 7218.00                                 [l_fin (A)]
    1.00                                 [dl    (A)]     (OBS: dl_cushion =    50.00 A)

## Normalization info
 4020.00                                 [l_norm (A) - for base]
 4010.00                                 [llow_norm (A) - window for f_obs]
 4060.00                                 [lupp_norm (A) - window for f_obs]
1.996397E-17                             [fobs_norm (in input units)]

## S/N
 3691.00                                 [llow_SN (A) - window for S/N]
 7268.00                                 [lupp_SN (A) - window for S/N]
   7.573                                 [S/N in S/N window]
   7.903                                 [S/N in norm. window]
   9.115                                 [S/N_err in S/N window]
   9.513                                 [S/N_err in norm. window]
  1.0000                                 [fscale_chi2]

## etc...
    -2007406                             [idum_orig]
  2380                                   [NOl_eff]
  2380                                   [Nl_eff]
     0    NSIGMA                         [Ntot_cliped & clip_method]
  1281420                                [Nglobal_steps]
   7                                     [N_chains]
  24                                     [NEX0s_base = N_base in EX0s-fits]
 0   0   1        0   2.0   1.596E+01    [Clip-Bug, RC-Crash & Burn-In warning-flags, n_censored_weights, wei_nsig_threshold & wei_limit]
    12     12.283     11.772      0.511  [idt_all, wdt_TotTime, wdt_UsrTime & wdt_SysTime (sec)]

## Synthesis Results - Best model ##

 4.84855E-01                             [chi2/Nl_eff]
     6.80532                             [adev (%)]

   109.02375                             [sum-of-x (%)]
 4.66525E-17                             [Flux_tot (units of input spectrum!)]
 2.15011E-13                             [Mini_tot (???)]
 1.24669E-13                             [Mcor_tot (???)]

-224.75                                  [v0_min  (km/s)]
 167.21                                  [vd_min  (km/s)]
 0.5676                                  [AV_min  (mag)]
 0.0000                                  [YAV_min (mag)]

# j     x_j(%)      Mini_j(%)     Mcor_j(%)     age_j(yr)     Z_j      (L/M)_j    YAV?  Mstars   component_j        a/Fe...       SSP_chi2r SSP_adev(%)   SSP_AV   SSP_x(%)
  1      1.7691     3.2184E-02    5.5506E-02    1.000000E+06  0.00400  1.094E-02    0   1.0000   age020_m42            0.0000     6.9594E-01     8.6216   2.9357    93.0353
  2      0.0000     0.0000E+00    0.0000E+00    3.160000E+06  0.00400  4.007E-02    0   0.9999   age045_m42            0.0000     6.0404E-01     7.6341   2.2181    99.0285
  3      0.0000     0.0000E+00    0.0000E+00    5.010000E+06  0.00400  2.539E-02    0   0.9488   age055_m42            0.0000     6.3212E-01     8.0199   2.5328    96.8389
  4      0.0000     0.0000E+00    0.0000E+00    6.610000E+06  0.00400  2.620E-02    0   0.9220   age061_m42            0.0000     5.8851E-01     7.5412   2.1390    99.4892
  5      0.0000     0.0000E+00    0.0000E+00    1.000000E+07  0.00400  1.322E-02    0   0.8862   age070_m42            0.0000     5.7130E-01     7.9090   1.8056   103.9842
  6      0.0000     0.0000E+00    0.0000E+00    1.445000E+07  0.00400  7.883E-03    0   0.8571   age078_m42            0.0000     5.8936E-01     8.0898   2.1359   101.2137
  7      0.0000     0.0000E+00    0.0000E+00    2.512000E+07  0.00400  5.251E-03    0   0.8174   age090_m42            0.0000     5.7834E-01     8.0039   1.6672   104.9675
  8      0.0139     7.5951E-04    1.0284E-03    4.000000E+07  0.00400  3.649E-03    0   0.7851   age104_m42            0.0000     5.6142E-01     7.7727   1.4457   105.5514
  9      2.2053     1.4167E-01    1.8640E-01    5.500000E+07  0.00400  3.098E-03    0   0.7629   age110_m42            0.0000     5.4803E-01     7.3946   1.6229   104.4399
 10      0.0000     0.0000E+00    0.0000E+00    1.015200E+08  0.00400  2.228E-03    0   0.7207   age116_m42            0.0000     5.4644E-01     7.2040   1.6594   103.8856
 11     11.0031     2.0035E+00    2.2971E+00    2.861200E+08  0.00400  1.093E-03    0   0.6648   age125_m42            0.0000     5.4121E-01     7.1989   1.0719   107.8459
 12     19.4859     5.8785E+00    6.4531E+00    5.088000E+08  0.00400  6.597E-04    0   0.6365   age130_m42            0.0000     5.2168E-01     6.9202   1.0874   107.5182
 13      0.0086     8.0377E-03    8.0374E-03    1.434000E+09  0.00400  2.132E-04    0   0.5798   age139_m42            0.0000     5.0224E-01     6.8377   0.1355   108.6652
 14      0.0000     0.0000E+00    0.0000E+00    4.250000E+09  0.00400  5.895E-05    0   0.5377   age158_m42            0.0000     5.4237E-01     7.2247  -0.2653   102.6164
 15      0.0000     0.0000E+00    0.0000E+00    7.500000E+09  0.00400  3.510E-05    0   0.5212   age171_m42            0.0000     5.7568E-01     7.4303  -0.4361   101.1553
 16      0.0000     0.0000E+00    0.0000E+00    1.300000E+10  0.00400  2.005E-05    0   0.5034   age193_m42            0.0000     6.1473E-01     7.6684  -0.5851    99.8880
 17      0.0000     0.0000E+00    0.0000E+00    1.800000E+10  0.00400  1.525E-05    0   0.4967   age213_m42            0.0000     6.1192E-01     7.6797  -0.6126    99.6399
 18      0.0000     0.0000E+00    0.0000E+00    1.000000E+06  0.00800  1.238E-02    0   1.0000   age020_m52            0.0000     6.9643E-01     8.6284   2.9320    93.2137
 19      0.0000     0.0000E+00    0.0000E+00    3.160000E+06  0.00800  3.074E-02    0   0.9966   age045_m52            0.0000     6.9307E-01     8.5574   2.8589    93.8849
 20      0.0000     0.0000E+00    0.0000E+00    5.010000E+06  0.00800  2.668E-02    0   0.9443   age055_m52            0.0000     6.4025E-01     8.1523   2.6119    96.1197
 21      4.3814     4.0822E-02    6.4610E-02    6.610000E+06  0.00800  2.136E-02    0   0.9177   age061_m52            0.0000     5.4523E-01     7.8395   1.3127   104.8110
 22      0.0000     0.0000E+00    0.0000E+00    1.000000E+07  0.00800  1.215E-02    0   0.8827   age070_m52            0.0000     5.9017E-01     8.2353   1.9691   104.5025
 23      0.0000     0.0000E+00    0.0000E+00    1.445000E+07  0.00800  8.717E-03    0   0.8552   age078_m52            0.0000     5.7778E-01     8.0037   2.1006   102.6447
 24      0.0000     0.0000E+00    0.0000E+00    2.512000E+07  0.00800  5.592E-03    0   0.8162   age090_m52            0.0000     5.7545E-01     7.9965   1.7274   106.3800
 25      0.0000     0.0000E+00    0.0000E+00    4.000000E+07  0.00800  3.896E-03    0   0.7841   age104_m52            0.0000     5.5561E-01     7.6783   1.6517   106.6230
 26      0.0000     0.0000E+00    0.0000E+00    1.015200E+08  0.00800  2.148E-03    0   0.7226   age116_m52            0.0000     5.3442E-01     7.2505   1.6151   105.2631
 27      2.9082     5.8317E-01    6.7215E-01    2.861200E+08  0.00800  9.925E-04    0   0.6683   age125_m52            0.0000     5.1341E-01     6.8871   1.1506   108.5852
 28      0.0000     0.0000E+00    0.0000E+00    9.047900E+08  0.00800  3.141E-04    0   0.6138   age135_m52            0.0000     5.1187E-01     6.8665   0.3920   111.0612
 29      4.6934     5.4338E+00    5.4852E+00    1.434000E+09  0.00800  1.719E-04    0   0.5853   age139_m52            0.0000     5.2527E-01     7.0045  -0.1818   108.4560
 30      0.0000     0.0000E+00    0.0000E+00    2.500000E+09  0.00800  7.872E-05    0   0.5600   age150_m52            0.0000     5.7723E-01     7.3179  -0.4074   103.5800
 31      4.3503     1.9968E+01    1.8686E+01    4.250000E+09  0.00800  4.336E-05    0   0.5426   age158_m52            0.0000     5.8894E-01     7.4196  -0.4202   102.4969
 32      0.0000     0.0000E+00    0.0000E+00    6.250000E+09  0.00800  3.159E-05    0   0.5319   age166_m52            0.0000     6.4965E-01     7.7605  -0.5979   101.3889
 33      0.0000     0.0000E+00    0.0000E+00    1.300000E+10  0.00800  1.361E-05    0   0.5073   age193_m52            0.0000     7.6770E-01     8.5102  -1.0000    97.8343
 34      0.0000     0.0000E+00    0.0000E+00    1.800000E+10  0.00800  9.886E-06    0   0.4990   age213_m52            0.0000     8.8432E-01     9.2324  -1.0000    92.8585
 35      0.1551     1.9996E-03    3.4486E-03    1.000000E+06  0.02000  1.544E-02    0   1.0000   age020_m62            0.0000     7.0056E-01     8.6603   2.9284    93.4160
 36      0.0000     0.0000E+00    0.0000E+00    3.160000E+06  0.02000  3.762E-02    0   0.9858   age045_m62            0.0000     7.0376E-01     8.6552   2.8699    94.1161
 37      0.0000     0.0000E+00    0.0000E+00    5.010000E+06  0.02000  3.296E-02    0   0.9342   age055_m62            0.0000     6.2063E-01     7.8003   2.5004    97.6943
 38      0.0000     0.0000E+00    0.0000E+00    8.710000E+06  0.02000  1.154E-02    0   0.8861   age067_m62            0.0000     8.9879E-01    10.7781   1.3232   112.2622
 39      0.0000     0.0000E+00    0.0000E+00    1.445000E+07  0.02000  7.663E-03    0   0.8472   age078_m62            0.0000     6.3705E-01     8.7746   1.5845   108.3708
 40      0.0000     0.0000E+00    0.0000E+00    2.512000E+07  0.02000  4.532E-03    0   0.8099   age090_m62            0.0000     6.6231E-01     8.8965   1.5713   108.3442
 41      0.0000     0.0000E+00    0.0000E+00    5.500000E+07  0.02000  2.733E-03    0   0.7595   age110_m62            0.0000     5.5093E-01     7.6903   1.6334   105.8937
 42      0.0000     0.0000E+00    0.0000E+00    1.609000E+08  0.02000  1.369E-03    0   0.6985   age120_m62            0.0000     5.2842E-01     7.0918   1.5027   107.3242
 43      0.0120     2.6454E-03    3.0632E-03    2.861200E+08  0.02000  9.013E-04    0   0.6714   age125_m62            0.0000     5.2282E-01     6.9272   1.2675   109.6400
 44      3.2320     1.2793E+00    1.4229E+00    5.088000E+08  0.02000  5.028E-04    0   0.6449   age130_m62            0.0000     5.2318E-01     6.8734   0.9282   110.6432
 45     25.8753     2.1209E+01    2.2602E+01    9.047900E+08  0.02000  2.428E-04    0   0.6179   age135_m62            0.0000     5.2239E-01     6.8976   0.3641   108.8929
 46      4.9836     7.8530E+00    8.0016E+00    1.434000E+09  0.02000  1.263E-04    0   0.5908   age139_m62            0.0000     5.6028E-01     7.1894  -0.0663   106.6110
 47      0.0000     0.0000E+00    0.0000E+00    2.500000E+09  0.02000  5.985E-05    0   0.5673   age150_m62            0.0000     6.4636E-01     7.7107  -0.3970   103.5149
 48      0.0000     0.0000E+00    0.0000E+00    4.250000E+09  0.02000  3.271E-05    0   0.5468   age158_m62            0.0000     7.7311E-01     8.5013  -0.6625   100.8553
 49      0.0000     0.0000E+00    0.0000E+00    1.000000E+10  0.02000  1.360E-05    0   0.5167   age181_m62            0.0000     9.4237E-01     9.5243  -0.9675    98.5353
 50      0.6710     1.8746E+01    1.6207E+01    1.800000E+10  0.02000  7.124E-06    0   0.5013   age213_m62            0.0000     1.1343E+00    10.6395  -1.0000    90.4462
 51      0.0000     0.0000E+00    0.0000E+00    1.000000E+06  0.05000  2.592E-02    0   0.9998   age020_m72            0.0000     7.1178E-01     8.7700   2.9179    93.5249
 52      0.0000     0.0000E+00    0.0000E+00    3.160000E+06  0.05000  4.845E-02    0   0.9577   age045_m72            0.0000     6.7986E-01     8.3388   2.7612    95.0030
 53      0.1563     1.0125E-03    1.5972E-03    5.010000E+06  0.05000  3.072E-02    0   0.9147   age055_m72            0.0000     6.2139E-01     8.4696   2.2048   102.6953
 54      0.0000     0.0000E+00    0.0000E+00    6.610000E+06  0.05000  1.455E-02    0   0.8877   age061_m72            0.0000     1.4100E+00    12.9681   1.3288   115.4870
 55      3.4761     7.6240E-02    1.1208E-01    1.000000E+07  0.05000  9.074E-03    0   0.8524   age070_m72            0.0000     7.2864E-01     8.8389   2.3880   102.4638
 56      4.9357     2.3113E-01    3.1499E-01    2.512000E+07  0.05000  4.250E-03    0   0.7902   age090_m72            0.0000     6.4355E-01     8.3274   2.0856   104.4299
 57      0.0000     0.0000E+00    0.0000E+00    4.000000E+07  0.05000  3.087E-03    0   0.7618   age104_m72            0.0000     6.5999E-01     8.3636   1.8499   106.5326
 58      0.0000     0.0000E+00    0.0000E+00    1.015200E+08  0.05000  1.700E-03    0   0.7096   age116_m72            0.0000     5.4736E-01     7.3429   1.6275   107.7252
 59      1.0400     2.8031E-01    3.2066E-01    2.861200E+08  0.05000  7.384E-04    0   0.6633   age125_m72            0.0000     5.1631E-01     6.8594   1.1546   110.1822
 60      0.0000     0.0000E+00    0.0000E+00    5.088000E+08  0.05000  3.819E-04    0   0.6372   age130_m72            0.0000     5.3046E-01     6.9601   0.6984   110.1793
 61     13.6670     1.6229E+01    1.7102E+01    9.047900E+08  0.05000  1.676E-04    0   0.6110   age135_m72            0.0000     6.3697E-01     7.5964   0.0557   105.7045
 62      0.0000     0.0000E+00    0.0000E+00    1.434000E+09  0.05000  8.837E-05    0   0.5874   age139_m72            0.0000     6.7934E-01     7.9104  -0.3939   104.8452
 63      0.0000     0.0000E+00    0.0000E+00    2.500000E+09  0.05000  4.233E-05    0   0.5598   age150_m72            0.0000     8.1876E-01     8.7493  -0.6525   101.2419
 64      0.0000     0.0000E+00    0.0000E+00    6.250000E+09  0.05000  1.435E-05    0   0.5249   age166_m72            0.0000     1.0109E+00     9.9387  -1.0000    95.4112
 65      0.0000     0.0000E+00    0.0000E+00    1.300000E+10  0.05000  6.513E-06    0   0.5036   age193_m72            0.0000     1.3961E+00    11.8223  -1.0000    85.0400
 66      0.0000     0.0000E+00    0.0000E+00    1.800000E+10  0.05000  4.527E-06    0   0.4945   age213_m72            0.0000     1.7419E+00    13.2014  -1.0000    78.8725


## Synthesis Results - Average & Chains ##

# j      x_j: min, <> & last-chain-values for 1 ...  7 chains
  1      1.7691      0.5014      0.0000      1.1584      0.1039      3.0267      0.0000      0.0000      0.4777
  2      0.0000      0.5275      0.5195      0.1166      0.0000      0.0000      0.9101      0.0000      0.0000
  3      0.0000      0.2239      0.0000      0.0000      0.0000      0.0000      2.1819      0.2099      0.0000
  4      0.0000      0.7616      0.7898      0.0000      0.0000      0.0000      0.0000      0.0000      2.4590
  5      0.0000      0.4393      0.0000      0.0000      0.0000      0.0000      0.3314      0.0000      0.0000
  6      0.0000      0.3110      0.0000      2.0012      0.0000      0.0000      0.0000      0.0000      0.3687
  7      0.0000      2.1350      2.7158      3.6570      4.9180      0.0000      2.1107      3.4976      1.3918
  8      0.0139      0.6824      2.5529      0.0000      0.0000      1.9880      0.4051      0.6774      0.8544
  9      2.2053      0.5564      0.0000      0.0000      0.0000      3.5674      1.5552      0.1993      1.1635
 10      0.0000      0.5009      0.0000      0.0000      0.0000      0.0000      0.0000      0.3928      0.0589
 11     11.0031      5.4660      3.8377      7.6163      7.5156      4.4074      2.7806      9.4872      7.3539
 12     19.4859      8.6977     16.4338      7.9567      8.8836     13.0703     12.4442      8.7696     16.4888
 13      0.0086      2.2613      3.9665      3.3713      2.6558      1.4359      2.8372      1.1168      0.3774
 14      0.0000      1.5340      0.0000      1.5396      2.8305      2.5727      2.4701      0.0000      2.2984
 15      0.0000      0.4141      0.0000      0.0616      0.0000      0.7627      0.0000      0.0000      0.0000
 16      0.0000      0.1510      0.0000      0.0000      0.5239      0.0000      0.0000      0.0007      0.0565
 17      0.0000      0.2228      0.3641      0.0000      0.0000      0.0000      0.0000      0.9374      0.2365
 18      0.0000      0.3752      1.4545      1.6085      0.0000      0.0000      1.1028      0.0000      0.2643
 19      0.0000      0.3396      0.0000      0.1162      1.2082      0.0000      0.0000      0.0000      0.0000
 20      0.0000      0.2903      0.0000      0.0000      0.6447      0.0000      0.0000      0.0000      0.0000
 21      4.3814      2.3317      5.6784      1.0479      3.7364      0.8905      7.5011      1.2504      1.3810
 22      0.0000      0.4704      0.1702      0.3287      0.0729      0.0000      0.0000      1.6008      0.0645
 23      0.0000      0.7417      0.0000      0.7036      0.0022      0.0000      0.0000      0.6293      0.0000
 24      0.0000      0.6034      0.0000      0.0000      0.0000      0.0714      0.8087      0.0000      0.0000
 25      0.0000      0.4875      0.0000      0.0000      0.0000      0.0000      0.0000      1.3315      1.7690
 26      0.0000      0.6234      0.0000      0.4060      0.3550      0.0000      2.1384      0.0000      1.5664
 27      2.9082      3.7656      8.4288      6.6886      3.1273      6.5058      2.0891      4.3973      2.6878
 28      0.0000      4.6742      0.9241      0.0000      0.0000      0.0000      6.3192      2.6073      0.1058
 29      4.6934      4.7759      6.8032      7.0114      3.6785      7.2348      2.3900      2.6804      6.0102
 30      0.0000      0.3403      0.0000      0.1437      0.0961      0.0417      1.5286      1.2668      0.0000
 31      4.3503      1.6833      1.7348      1.0786      2.4137      3.2653      1.2845      4.6990      3.0041
 32      0.0000      0.4414      1.4907      0.0000      0.2764      0.0000      0.6943      1.0499      0.8155
 33      0.0000      0.1650      0.0000      0.0000      0.0000      0.0000      0.0000      0.1387      0.3155
 34      0.0000      0.0676      0.0000      0.2109      0.0000      0.0000      0.5642      0.0000      0.0000
 35      0.1551      0.3656      0.0000      0.3429      0.8492      0.9170      0.0000      0.4679      0.0000
 36      0.0000      0.2340      0.0000      0.0000      0.0000      0.0000      0.1675      0.0537      0.0000
 37      0.0000      0.7304      0.0000      1.2302      0.0000      0.0000      0.0000      4.2165      0.5150
 38      0.0000      0.5503      0.0000      0.0000      0.0000      0.0032      0.0000      0.3039      0.2306
 39      0.0000      0.8908      0.0000      0.5701      2.0970      0.0000      0.0000      0.4083      0.0000
 40      0.0000      0.8761      1.0403      1.9470      0.4835      0.0000      0.0000      0.0000      1.5594
 41      0.0000      0.8542      0.7525      0.0000      0.8449      0.6973      4.7082      3.7427      0.0961
 42      0.0000      2.7874      1.3758      2.9483      3.2872      1.7147      0.6467      1.3386      1.3899
 43      0.0120      1.3249      2.8704      0.1243      0.0000      1.5305      1.0541      0.0000      5.5863
 44      3.2320      3.2482      4.9518      3.6378      4.1925     10.7701      5.4962      4.3253      4.2936
 45     25.8753     21.6094     14.1881     33.4771     25.7328     13.7158     23.6429     25.4540     22.3902
 46      4.9836      3.8309      6.4961      3.4713      4.6921      3.6022      2.7453      3.9669      3.9328
