###################################################################
## OUTPUT of StarlightChains_v04.for    [Cid@UFSC - 01/Apr/2007] ##
###################################################################

## Some input info
2013cf.txt                               [arq_obs]
Base.CB07.vall.4m                        [arq_base]
Masks.EmLines.NEW.gm                     [arq_masks]
StCv04.C11.config                        [arq_config]
   66                                    [N_base]
    0                                    [N_YAV_components = # of components with extra extinction!]
    0                                    [i_FitPowerLaw (1/0 = Yes/No)]
-9.99                                    [alpha_PowerLaw]
CCM                                      [red_law_option]
 1.458241                                [q_norm = A(l_norm)/A(V)]

## (Re)Sampling Parameters
 3741.00                                 [l_ini (A)]
 7218.00                                 [l_fin (A)]
    1.00                                 [dl    (A)]     (OBS: dl_cushion =    50.00 A)

## Normalization info
 4020.00                                 [l_norm (A) - for base]
 4010.00                                 [llow_norm (A) - window for f_obs]
 4060.00                                 [lupp_norm (A) - window for f_obs]
4.860857E-17                             [fobs_norm (in input units)]

## S/N
 3691.00                                 [llow_SN (A) - window for S/N]
 7268.00                                 [lupp_SN (A) - window for S/N]
   7.342                                 [S/N in S/N window]
   7.917                                 [S/N in norm. window]
   9.959                                 [S/N_err in S/N window]
  10.739                                 [S/N_err in norm. window]
  1.0000                                 [fscale_chi2]

## etc...
    -2007405                             [idum_orig]
  2383                                   [NOl_eff]
  2369                                   [Nl_eff]
    14    NSIGMA                         [Ntot_cliped & clip_method]
   840980                                [Nglobal_steps]
   7                                     [N_chains]
  14                                     [NEX0s_base = N_base in EX0s-fits]
 0   0   1       58   2.0   1.828E+01    [Clip-Bug, RC-Crash & Burn-In warning-flags, n_censored_weights, wei_nsig_threshold & wei_limit]
    12     11.431     10.927      0.504  [idt_all, wdt_TotTime, wdt_UsrTime & wdt_SysTime (sec)]

## Synthesis Results - Best model ##

 5.26696E-01                             [chi2/Nl_eff]
     5.65365                             [adev (%)]

   101.59423                             [sum-of-x (%)]
 5.30461E-17                             [Flux_tot (units of input spectrum!)]
 5.24131E-13                             [Mini_tot (???)]
 2.94823E-13                             [Mcor_tot (???)]

-208.84                                  [v0_min  (km/s)]
 373.24                                  [vd_min  (km/s)]
 0.0533                                  [AV_min  (mag)]
 0.0000                                  [YAV_min (mag)]

# j     x_j(%)      Mini_j(%)     Mcor_j(%)     age_j(yr)     Z_j      (L/M)_j    YAV?  Mstars   component_j        a/Fe...       SSP_chi2r SSP_adev(%)   SSP_AV   SSP_x(%)
  1      0.0000     0.0000E+00    0.0000E+00    1.000000E+06  0.00400  1.094E-02    0   1.0000   age020_m42            0.0000     1.3360E+00     8.0533   3.2550    78.1783
  2      0.0000     0.0000E+00    0.0000E+00    3.160000E+06  0.00400  4.007E-02    0   0.9999   age045_m42            0.0000     1.0631E+00     7.1334   2.4707    86.0393
  3      0.0000     0.0000E+00    0.0000E+00    5.010000E+06  0.00400  2.539E-02    0   0.9488   age055_m42            0.0000     1.1948E+00     7.5683   2.8183    82.7545
  4      0.0000     0.0000E+00    0.0000E+00    6.610000E+06  0.00400  2.620E-02    0   0.9220   age061_m42            0.0000     1.0853E+00     7.1730   2.3939    86.3335
  5      0.0000     0.0000E+00    0.0000E+00    1.000000E+07  0.00400  1.322E-02    0   0.8862   age070_m42            0.0000     1.2716E+00     7.9197   2.1167    87.6937
  6      0.0000     0.0000E+00    0.0000E+00    1.445000E+07  0.00400  7.883E-03    0   0.8571   age078_m42            0.0000     1.3298E+00     8.1203   2.4606    84.7887
  7      0.0000     0.0000E+00    0.0000E+00    2.512000E+07  0.00400  5.251E-03    0   0.8174   age090_m42            0.0000     1.3009E+00     8.0486   1.9823    88.3257
  8      0.0000     0.0000E+00    0.0000E+00    4.000000E+07  0.00400  3.649E-03    0   0.7851   age104_m42            0.0000     1.2103E+00     7.7227   1.7412    89.7023
  9      0.0000     0.0000E+00    0.0000E+00    5.500000E+07  0.00400  3.098E-03    0   0.7629   age110_m42            0.0000     1.1131E+00     7.2410   1.8832    90.3671
 10      0.0000     0.0000E+00    0.0000E+00    1.015200E+08  0.00400  2.228E-03    0   0.7207   age116_m42            0.0000     1.0698E+00     6.9888   1.8942    91.0400
 11      0.0000     0.0000E+00    0.0000E+00    2.861200E+08  0.00400  1.093E-03    0   0.6648   age125_m42            0.0000     1.0829E+00     7.2385   1.3008    94.7903
 12      0.0000     0.0000E+00    0.0000E+00    5.088000E+08  0.00400  6.597E-04    0   0.6365   age130_m42            0.0000     9.6896E-01     6.7488   1.2726    96.5919
 13      0.0000     0.0000E+00    0.0000E+00    1.434000E+09  0.00400  2.132E-04    0   0.5798   age139_m42            0.0000     6.7919E-01     5.9579   0.2658   100.2854
 14     15.7552     2.6625E+01    2.5451E+01    4.250000E+09  0.00400  5.895E-05    0   0.5377   age158_m42            0.0000     5.4408E-01     5.6187  -0.1694    96.3305
 15      8.9816     2.5491E+01    2.3620E+01    7.500000E+09  0.00400  3.510E-05    0   0.5212   age171_m42            0.0000     5.5741E-01     5.7283  -0.3638    96.0854
 16      0.0000     0.0000E+00    0.0000E+00    1.300000E+10  0.00400  2.005E-05    0   0.5034   age193_m42            0.0000     5.9779E-01     5.9532  -0.5314    95.7798
 17      0.0000     0.0000E+00    0.0000E+00    1.800000E+10  0.00400  1.525E-05    0   0.4967   age213_m42            0.0000     5.9827E-01     5.9357  -0.5515    95.1785
 18      1.1578     9.3168E-03    1.6563E-02    1.000000E+06  0.00800  1.238E-02    0   1.0000   age020_m52            0.0000     1.3360E+00     8.0482   3.2513    78.3304
 19      0.0000     0.0000E+00    0.0000E+00    3.160000E+06  0.00800  3.074E-02    0   0.9966   age045_m52            0.0000     1.3152E+00     7.9523   3.1716    79.1487
 20      0.0000     0.0000E+00    0.0000E+00    5.010000E+06  0.00800  2.668E-02    0   0.9443   age055_m52            0.0000     1.2328E+00     7.6766   2.9083    81.6911
 21      0.0000     0.0000E+00    0.0000E+00    6.610000E+06  0.00800  2.136E-02    0   0.9177   age061_m52            0.0000     1.1154E+00     7.4737   1.6128    88.8944
 22      0.0000     0.0000E+00    0.0000E+00    1.000000E+07  0.00800  1.215E-02    0   0.8827   age070_m52            0.0000     1.3967E+00     8.4411   2.3053    87.0089
 23      0.0000     0.0000E+00    0.0000E+00    1.445000E+07  0.00800  8.717E-03    0   0.8552   age078_m52            0.0000     1.3058E+00     8.0398   2.4199    86.2112
 24      0.0000     0.0000E+00    0.0000E+00    2.512000E+07  0.00800  5.592E-03    0   0.8162   age090_m52            0.0000     1.3072E+00     8.0896   2.0413    89.5724
 25      0.0000     0.0000E+00    0.0000E+00    4.000000E+07  0.00800  3.896E-03    0   0.7841   age104_m52            0.0000     1.2081E+00     7.7135   1.9380    91.0522
 26      0.0000     0.0000E+00    0.0000E+00    1.015200E+08  0.00800  2.148E-03    0   0.7226   age116_m52            0.0000     1.0588E+00     7.0961   1.8604    91.7789
 27      0.0000     0.0000E+00    0.0000E+00    2.861200E+08  0.00800  9.925E-04    0   0.6683   age125_m52            0.0000     9.5690E-01     6.6391   1.3347    97.6401
 28      0.0000     0.0000E+00    0.0000E+00    9.047900E+08  0.00800  3.141E-04    0   0.6138   age135_m52            0.0000     6.2476E-01     6.0140   0.4734   105.0946
 29      0.0000     0.0000E+00    0.0000E+00    1.434000E+09  0.00800  1.719E-04    0   0.5853   age139_m52            0.0000     5.8408E-01     5.9168  -0.0918   102.1526
 30      0.0000     0.0000E+00    0.0000E+00    2.500000E+09  0.00800  7.872E-05    0   0.5600   age150_m52            0.0000     5.6024E-01     5.8486  -0.3614    99.6999
 31      0.0000     0.0000E+00    0.0000E+00    4.250000E+09  0.00800  4.336E-05    0   0.5426   age158_m52            0.0000     5.7344E-01     5.8868  -0.3753    98.7090
 32      0.0000     0.0000E+00    0.0000E+00    6.250000E+09  0.00800  3.159E-05    0   0.5319   age166_m52            0.0000     6.3492E-01     6.2447  -0.5913    99.4809
 33      0.0000     0.0000E+00    0.0000E+00    1.300000E+10  0.00800  1.361E-05    0   0.5073   age193_m52            0.0000     8.1106E-01     6.7613  -1.0000    96.6833
 34      0.0000     0.0000E+00    0.0000E+00    1.800000E+10  0.00800  9.886E-06    0   0.4990   age213_m52            0.0000     1.0909E+00     7.4797  -1.0000    92.1070
 35      0.0000     0.0000E+00    0.0000E+00    1.000000E+06  0.02000  1.544E-02    0   1.0000   age020_m62            0.0000     1.3459E+00     8.0801   3.2491    78.4418
 36      0.0000     0.0000E+00    0.0000E+00    3.160000E+06  0.02000  3.762E-02    0   0.9858   age045_m62            0.0000     1.3494E+00     8.0642   3.1878    79.1382
 37      0.0000     0.0000E+00    0.0000E+00    5.010000E+06  0.02000  3.296E-02    0   0.9342   age055_m62            0.0000     1.1376E+00     7.3241   2.7657    84.3259
 38      0.0000     0.0000E+00    0.0000E+00    8.710000E+06  0.02000  1.154E-02    0   0.8861   age067_m62            0.0000     2.3239E+00    11.8159   1.7791    87.7366
 39      0.0000     0.0000E+00    0.0000E+00    1.445000E+07  0.02000  7.663E-03    0   0.8472   age078_m62            0.0000     1.5798E+00     9.2724   1.9482    88.9381
 40      0.0000     0.0000E+00    0.0000E+00    2.512000E+07  0.02000  4.532E-03    0   0.8099   age090_m62            0.0000     1.6492E+00     9.4946   1.9380    88.7676
 41      0.0000     0.0000E+00    0.0000E+00    5.500000E+07  0.02000  2.733E-03    0   0.7595   age110_m62            0.0000     1.2313E+00     7.7670   1.9262    90.1183
 42      0.0000     0.0000E+00    0.0000E+00    1.609000E+08  0.02000  1.369E-03    0   0.6985   age120_m62            0.0000     1.0804E+00     6.9836   1.7274    94.5397
 43      0.0000     0.0000E+00    0.0000E+00    2.861200E+08  0.02000  9.013E-04    0   0.6714   age125_m62            0.0000     1.0161E+00     6.6494   1.4448    98.8984
 44      0.0000     0.0000E+00    0.0000E+00    5.088000E+08  0.02000  5.028E-04    0   0.6449   age130_m62            0.0000     8.0835E-01     6.2602   1.0231   103.9768
 45     32.1886     1.3207E+01    1.4508E+01    9.047900E+08  0.02000  2.428E-04    0   0.6179   age135_m62            0.0000     5.5954E-01     5.7891   0.4192   104.3774
 46     42.4773     3.3504E+01    3.5190E+01    1.434000E+09  0.02000  1.263E-04    0   0.5908   age139_m62            0.0000     5.3412E-01     5.7475  -0.0224   102.7455
 47      0.0000     0.0000E+00    0.0000E+00    2.500000E+09  0.02000  5.985E-05    0   0.5673   age150_m62            0.0000     6.1342E-01     6.1477  -0.3920   101.6593
 48      0.0000     0.0000E+00    0.0000E+00    4.250000E+09  0.02000  3.271E-05    0   0.5468   age158_m62            0.0000     7.7012E-01     6.8492  -0.7120   101.6747
 49      0.0000     0.0000E+00    0.0000E+00    1.000000E+10  0.02000  1.360E-05    0   0.5167   age181_m62            0.0000     1.1069E+00     7.8193  -1.0000    99.1186
 50      0.0000     0.0000E+00    0.0000E+00    1.800000E+10  0.02000  7.124E-06    0   0.5013   age213_m62            0.0000     1.6949E+00     8.9684  -1.0000    90.1089
 51      0.0000     0.0000E+00    0.0000E+00    1.000000E+06  0.05000  2.592E-02    0   0.9998   age020_m72            0.0000     1.3804E+00     8.1968   3.2454    78.2576
 52      0.0000     0.0000E+00    0.0000E+00    3.160000E+06  0.05000  4.845E-02    0   0.9577   age045_m72            0.0000     1.2598E+00     7.7517   3.0539    80.8871
 53      0.0000     0.0000E+00    0.0000E+00    5.010000E+06  0.05000  3.072E-02    0   0.9147   age055_m72            0.0000     1.5093E+00     8.9119   2.5557    84.9190
 54      0.0000     0.0000E+00    0.0000E+00    6.610000E+06  0.05000  1.455E-02    0   0.8877   age061_m72            0.0000     3.2510E+00    14.3117   1.8307    88.0756
 55      0.0000     0.0000E+00    0.0000E+00    1.000000E+07  0.05000  9.074E-03    0   0.8524   age070_m72            0.0000     1.6735E+00     9.4385   2.7429    84.6563
 56      0.0000     0.0000E+00    0.0000E+00    2.512000E+07  0.05000  4.250E-03    0   0.7902   age090_m72            0.0000     1.4991E+00     8.8565   2.4131    87.4004
 57      0.0000     0.0000E+00    0.0000E+00    4.000000E+07  0.05000  3.087E-03    0   0.7618   age104_m72            0.0000     1.5241E+00     8.9165   2.1701    89.4324
 58      0.0000     0.0000E+00    0.0000E+00    1.015200E+08  0.05000  1.700E-03    0   0.7096   age116_m72            0.0000     1.1803E+00     7.4312   1.8773    93.6983
 59      0.0000     0.0000E+00    0.0000E+00    2.861200E+08  0.05000  7.384E-04    0   0.6633   age125_m72            0.0000     9.3073E-01     6.4565   1.2884   101.5712
 60      0.0000     0.0000E+00    0.0000E+00    5.088000E+08  0.05000  3.819E-04    0   0.6372   age130_m72            0.0000     6.6236E-01     5.9975   0.7636   105.0610
 61      0.0027     1.6241E-03    1.7641E-03    9.047900E+08  0.05000  1.676E-04    0   0.6110   age135_m72            0.0000     5.9218E-01     6.0704   0.0570   104.0024
 62      1.0311     1.1623E+00    1.2138E+00    1.434000E+09  0.05000  8.837E-05    0   0.5874   age139_m72            0.0000     6.3816E-01     6.3173  -0.4056   103.8257
 63      0.0000     0.0000E+00    0.0000E+00    2.500000E+09  0.05000  4.233E-05    0   0.5598   age150_m72            0.0000     8.4816E-01     7.1804  -0.7225   103.0853
 64      0.0000     0.0000E+00    0.0000E+00    6.250000E+09  0.05000  1.435E-05    0   0.5249   age166_m72            0.0000     1.2819E+00     8.1689  -1.0000    94.8211
 65      0.0000     0.0000E+00    0.0000E+00    1.300000E+10  0.05000  6.513E-06    0   0.5036   age193_m72            0.0000     2.2796E+00    10.1275  -1.0000    84.8551
 66      0.0000     0.0000E+00    0.0000E+00    1.800000E+10  0.05000  4.527E-06    0   0.4945   age213_m72            0.0000     3.0448E+00    11.5299  -1.0000    78.7903


## Synthesis Results - Average & Chains ##

# j      x_j: min, <> & last-chain-values for 1 ...  7 chains
  1      0.0000      0.2725      0.0000      0.8237      1.1336      0.0000      1.9157      0.0000      0.0000
  2      0.0000      0.3019      1.2304      0.4049      0.0000      0.0000      0.1468      0.0000      0.1131
  3      0.0000      0.1622      0.0000      0.4399      0.2804      0.0000      1.4187      0.6625      0.5200
  4      0.0000      0.4259      0.0071      0.9713      0.0000      0.0000      0.0000      0.0000      0.0000
  5      0.0000      0.3748      0.9919      0.0000      1.4077      0.1365      0.0000      0.0000      0.4697
  6      0.0000      0.2464      0.0000      0.2820      0.0870      0.0000      1.1692      0.0000      0.0000
  7      0.0000      0.1158      0.0000      0.0000      0.0000      0.0000      0.0000      0.0000      0.0000
  8      0.0000      0.4332      0.0000      0.0000      0.0000      0.2279      0.0000      1.8681      0.0000
  9      0.0000      0.1624      0.0708      0.0000      0.0000      0.0000      0.0000      0.0000      0.0000
 10      0.0000      0.2286      0.0000      0.0000      1.0096      0.0000      0.0000      0.2068      0.0511
 11      0.0000      0.1908      0.0000      0.1444      0.0000      0.0000      0.5342      0.0000      0.0000
 12      0.0000      0.2503      0.0000      0.0000      0.0000      0.0000      0.0000      0.9551      0.3491
 13      0.0000      1.6816      0.0000      0.0000      0.0000      1.7252      0.1291      0.0000      1.9580
 14     15.7552      3.9560      5.5633      3.5004      5.3910      8.4082      2.0513      3.5403      3.8715
 15      8.9816      1.3127      1.1936      2.0313      1.3485      0.9376      0.0000      2.6694      1.2729
 16      0.0000      0.7165      1.2107      0.0000      0.0000      0.0000      1.2679      1.0110      0.0671
 17      0.0000      0.3898      1.1462      0.0000      0.9246      0.0000      0.0000      0.7432      0.6967
 18      1.1578      0.1286      0.0000      0.0000      0.3229      0.7781      0.0000      0.0000      0.0000
 19      0.0000      0.2733      0.0000      0.0000      0.4102      0.0000      0.0000      0.0000      0.0000
 20      0.0000      0.2207      0.0000      0.7278      0.0000      0.0000      0.0000      0.0000      0.0000
 21      0.0000      0.2550      0.0000      1.1606      0.0000      0.0000      0.0000      0.0000      0.0000
 22      0.0000      0.1614      0.0000      1.0053      0.0000      0.0000      0.0000      0.9779      0.0000
 23      0.0000      0.0994      0.0000      0.0000      0.0000      0.0000      0.0000      0.6926      0.0000
 24      0.0000      0.1208      1.0945      0.0000      0.0000      1.3334      0.1538      0.0000      0.0000
 25      0.0000      0.1699      0.0000      0.0000      0.0000      0.0000      0.0000      0.0000      0.0000
 26      0.0000      0.2561      0.0000      0.0000      0.0000      1.3890      0.0000      0.0000      0.0000
 27      0.0000      0.2407      0.0000      0.0000      0.0000      0.0000      0.0000      0.0000      0.0000
 28      0.0000      2.4316      1.3254      2.2197      3.6258      3.5280      0.9064      1.2074      4.0254
 29      0.0000      0.9330      0.5118      0.0000      0.0000      0.0000      0.0000      0.0000      0.0000
 30      0.0000      0.6775      0.0000      0.0000      0.0000      0.0000      1.1111      0.0000      0.0000
 31      0.0000      1.2951      0.0000      3.3269      0.0000      0.0000      1.3005      0.0282      1.7521
 32      0.0000      0.3468      1.2293      0.0000      0.0000      0.0000      0.0000      0.0000      0.0000
 33      0.0000      0.1012      0.6840      0.0000      0.0000      0.0000      0.0000      0.0000      0.0000
 34      0.0000      0.1396      0.0000      0.0000      1.0533      0.0000      0.0000      0.0000      0.0000
 35      0.0000      0.0920      0.0000      0.6123      0.0000      0.0000      1.2193      0.0000      0.0211
 36      0.0000      0.3072      0.0000      0.0000      0.0000      0.7769      0.0000      1.6184      1.0276
 37      0.0000      0.1888      0.0000      0.0000      0.0000      1.2731      0.0000      0.0000      0.0000
 38      0.0000      0.1967      0.6667      0.0000      0.6378      0.0000      0.0000      0.0000      0.0000
 39      0.0000      0.2429      0.0000      0.0000      0.0000      0.0000      0.0000      0.0000      0.6013
 40      0.0000      0.1494      0.0000      0.0000      0.0000      0.0000      0.0000      0.0000      0.0000
 41      0.0000      0.1602      0.0000      0.0000      0.0000      0.0000      0.0000      0.0000      0.0000
 42      0.0000      0.3108      0.0000      0.0000      0.0000      0.0000      0.0000      0.0915      0.4688
 43      0.0000      0.1757      1.5847      0.0000      0.0404      0.0000      0.0000      0.0000      0.2161
 44      0.0000      0.3189      0.0000      0.0000      0.0000      0.0820      0.8163      0.1705      0.0000
 45     32.1886     25.3746     30.2221     29.1126     29.0182     18.8101     26.9509     30.2834     25.5523
 46     42.4773     21.2840     20.6529     22.8724     20.8379     27.8215     27.3534     23.8640     24.7118
