###################################################################
## OUTPUT of StarlightChains_v04.for    [Cid@UFSC - 01/Apr/2007] ##
###################################################################

## Some input info
2014az.txt                               [arq_obs]
Base.CB07.vall.4m                        [arq_base]
Masks.EmLines.NEW.gm                     [arq_masks]
StCv04.C11.config                        [arq_config]
   66                                    [N_base]
    0                                    [N_YAV_components = # of components with extra extinction!]
    0                                    [i_FitPowerLaw (1/0 = Yes/No)]
-9.99                                    [alpha_PowerLaw]
CCM                                      [red_law_option]
 1.458241                                [q_norm = A(l_norm)/A(V)]

## (Re)Sampling Parameters
 3741.00                                 [l_ini (A)]
 7218.00                                 [l_fin (A)]
    1.00                                 [dl    (A)]     (OBS: dl_cushion =    50.00 A)

## Normalization info
 4020.00                                 [l_norm (A) - for base]
 4010.00                                 [llow_norm (A) - window for f_obs]
 4060.00                                 [lupp_norm (A) - window for f_obs]
6.356383E-17                             [fobs_norm (in input units)]

## S/N
 3691.00                                 [llow_SN (A) - window for S/N]
 7268.00                                 [lupp_SN (A) - window for S/N]
   4.035                                 [S/N in S/N window]
   5.842                                 [S/N in norm. window]
   3.913                                 [S/N_err in S/N window]
   5.666                                 [S/N_err in norm. window]
  1.0000                                 [fscale_chi2]

## etc...
    -2007418                             [idum_orig]
  2384                                   [NOl_eff]
  2384                                   [Nl_eff]
     0    NSIGMA                         [Ntot_cliped & clip_method]
  1009610                                [Nglobal_steps]
   7                                     [N_chains]
  22                                     [NEX0s_base = N_base in EX0s-fits]
 0   0   1      137   2.0   1.071E+01    [Clip-Bug, RC-Crash & Burn-In warning-flags, n_censored_weights, wei_nsig_threshold & wei_limit]
    10     10.581     10.088      0.493  [idt_all, wdt_TotTime, wdt_UsrTime & wdt_SysTime (sec)]

## Synthesis Results - Best model ##

 3.41803E-01                             [chi2/Nl_eff]
    13.26601                             [adev (%)]

    98.63171                             [sum-of-x (%)]
 5.36659E-17                             [Flux_tot (units of input spectrum!)]
 5.77714E-13                             [Mini_tot (???)]
 3.03666E-13                             [Mcor_tot (???)]

  51.40                                  [v0_min  (km/s)]
 173.50                                  [vd_min  (km/s)]
-0.1158                                  [AV_min  (mag)]
 0.0000                                  [YAV_min (mag)]

# j     x_j(%)      Mini_j(%)     Mcor_j(%)     age_j(yr)     Z_j      (L/M)_j    YAV?  Mstars   component_j        a/Fe...       SSP_chi2r SSP_adev(%)   SSP_AV   SSP_x(%)
  1      9.1889     7.9107E-02    1.5050E-01    1.000000E+06  0.00400  1.094E-02    0   1.0000   age020_m42            0.0000     4.0337E-01    14.2207   2.0961    88.6775
  2      0.0000     0.0000E+00    0.0000E+00    3.160000E+06  0.00400  4.007E-02    0   0.9999   age045_m42            0.0000     3.8261E-01    13.7085   1.4155    92.6200
  3      0.0000     0.0000E+00    0.0000E+00    5.010000E+06  0.00400  2.539E-02    0   0.9488   age055_m42            0.0000     3.8712E-01    13.8820   1.7161    91.2806
  4      0.0000     0.0000E+00    0.0000E+00    6.610000E+06  0.00400  2.620E-02    0   0.9220   age061_m42            0.0000     3.8123E-01    13.6901   1.3466    92.6739
  5      0.0000     0.0000E+00    0.0000E+00    1.000000E+07  0.00400  1.322E-02    0   0.8862   age070_m42            0.0000     3.6579E-01    13.5404   1.0792    94.3027
  6      0.0000     0.0000E+00    0.0000E+00    1.445000E+07  0.00400  7.883E-03    0   0.8571   age078_m42            0.0000     3.7308E-01    13.6876   1.3931    92.5024
  7      0.0000     0.0000E+00    0.0000E+00    2.512000E+07  0.00400  5.251E-03    0   0.8174   age090_m42            0.0000     3.6535E-01    13.5289   0.9559    94.5618
  8      0.0000     0.0000E+00    0.0000E+00    4.000000E+07  0.00400  3.649E-03    0   0.7851   age104_m42            0.0000     3.6269E-01    13.4616   0.7326    95.0943
  9      0.0000     0.0000E+00    0.0000E+00    5.500000E+07  0.00400  3.098E-03    0   0.7629   age110_m42            0.0000     3.7313E-01    13.5129   0.8878    94.8595
 10      0.0000     0.0000E+00    0.0000E+00    1.015200E+08  0.00400  2.228E-03    0   0.7207   age116_m42            0.0000     3.8384E-01    13.5725   0.9112    94.8074
 11      0.0000     0.0000E+00    0.0000E+00    2.861200E+08  0.00400  1.093E-03    0   0.6648   age125_m42            0.0000     3.8219E-01    13.5244   0.3615    96.9227
 12      0.0000     0.0000E+00    0.0000E+00    5.088000E+08  0.00400  6.597E-04    0   0.6365   age130_m42            0.0000     3.9700E-01    13.6027   0.3517    97.5168
 13      1.9213     8.4874E-01    9.3620E-01    1.434000E+09  0.00400  2.132E-04    0   0.5798   age139_m42            0.0000     3.9869E-01    13.5967  -0.6204    99.0903
 14      0.0000     0.0000E+00    0.0000E+00    4.250000E+09  0.00400  5.895E-05    0   0.5377   age158_m42            0.0000     4.2617E-01    14.2219  -1.0000    94.4305
 15      0.0000     0.0000E+00    0.0000E+00    7.500000E+09  0.00400  3.510E-05    0   0.5212   age171_m42            0.0000     5.1969E-01    15.6597  -1.0000    89.3915
 16      8.4723     3.9798E+01    3.8114E+01    1.300000E+10  0.00400  2.005E-05    0   0.5034   age193_m42            0.0000     6.6076E-01    17.5311  -1.0000    84.9225
 17      3.4515     2.1316E+01    2.0143E+01    1.800000E+10  0.00400  1.525E-05    0   0.4967   age213_m42            0.0000     6.7678E-01    17.7506  -1.0000    83.9856
 18      0.0000     0.0000E+00    0.0000E+00    1.000000E+06  0.00800  1.238E-02    0   1.0000   age020_m52            0.0000     4.0355E-01    14.2207   2.0916    88.8791
 19      0.0000     0.0000E+00    0.0000E+00    3.160000E+06  0.00800  3.074E-02    0   0.9966   age045_m52            0.0000     4.0208E-01    14.1780   2.0171    89.5652
 20      7.1030     2.5074E-02    4.5045E-02    5.010000E+06  0.00800  2.668E-02    0   0.9443   age055_m52            0.0000     3.8893E-01    13.9340   1.7929    90.7496
 21      0.0000     0.0000E+00    0.0000E+00    6.610000E+06  0.00800  2.136E-02    0   0.9177   age061_m52            0.0000     3.5000E-01    13.3757   0.5645    95.9413
 22      0.0000     0.0000E+00    0.0000E+00    1.000000E+07  0.00800  1.215E-02    0   0.8827   age070_m52            0.0000     3.6645E-01    13.6038   1.2570    94.2682
 23      7.5162     8.1208E-02    1.3213E-01    1.445000E+07  0.00800  8.717E-03    0   0.8552   age078_m52            0.0000     3.6885E-01    13.6080   1.3621    93.6075
 24      0.9351     1.5749E-02    2.4455E-02    2.512000E+07  0.00800  5.592E-03    0   0.8162   age090_m52            0.0000     3.6387E-01    13.4868   1.0236    95.4687
 25      0.0000     0.0000E+00    0.0000E+00    4.000000E+07  0.00800  3.896E-03    0   0.7841   age104_m52            0.0000     3.6530E-01    13.4556   0.9423    95.8313
 26      0.1456     6.3825E-03    8.7742E-03    1.015200E+08  0.00800  2.148E-03    0   0.7226   age116_m52            0.0000     3.7232E-01    13.4761   0.8816    95.5210
 27      0.0000     0.0000E+00    0.0000E+00    2.861200E+08  0.00800  9.925E-04    0   0.6683   age125_m52            0.0000     3.9523E-01    13.5822   0.4183    98.2984
 28      0.0000     0.0000E+00    0.0000E+00    9.047900E+08  0.00800  3.141E-04    0   0.6138   age135_m52            0.0000     4.3209E-01    14.0057  -0.3743   101.5591
 29      3.0263     1.6581E+00    1.8463E+00    1.434000E+09  0.00800  1.719E-04    0   0.5853   age139_m52            0.0000     4.1818E-01    13.8844  -0.9718   100.2898
 30      0.0000     0.0000E+00    0.0000E+00    2.500000E+09  0.00800  7.872E-05    0   0.5600   age150_m52            0.0000     5.2155E-01    15.5849  -1.0000    92.1372
 31      0.0000     0.0000E+00    0.0000E+00    4.250000E+09  0.00800  4.336E-05    0   0.5426   age158_m52            0.0000     5.3874E-01    15.7745  -1.0000    90.9616
 32      2.6027     7.7598E+00    7.8523E+00    6.250000E+09  0.00800  3.159E-05    0   0.5319   age166_m52            0.0000     7.2292E-01    18.1134  -1.0000    85.8685
 33      0.0000     0.0000E+00    0.0000E+00    1.300000E+10  0.00800  1.361E-05    0   0.5073   age193_m52            0.0000     1.3887E+00    24.6953  -1.0000    73.1341
 34      0.0000     0.0000E+00    0.0000E+00    1.800000E+10  0.00800  9.886E-06    0   0.4990   age213_m52            0.0000     1.6241E+00    26.3653  -1.0000    69.9357
 35      7.9277     4.8358E-02    9.2000E-02    1.000000E+06  0.02000  1.544E-02    0   1.0000   age020_m62            0.0000     4.0454E-01    14.2399   2.0865    89.1540
 36      0.0000     0.0000E+00    0.0000E+00    3.160000E+06  0.02000  3.762E-02    0   0.9858   age045_m62            0.0000     4.0405E-01    14.2272   2.0244    89.9990
 37      0.0000     0.0000E+00    0.0000E+00    5.010000E+06  0.02000  3.296E-02    0   0.9342   age055_m62            0.0000     3.8588E-01    13.8163   1.6808    92.1653
 38      0.5389     4.3983E-03    7.4145E-03    8.710000E+06  0.02000  1.154E-02    0   0.8861   age067_m62            0.0000     3.9244E-01    14.2357   0.7212    96.8814
 39      8.8796     1.0913E-01    1.7590E-01    1.445000E+07  0.02000  7.663E-03    0   0.8472   age078_m62            0.0000     3.6066E-01    13.6050   0.9118    96.1987
 40      0.0444     9.2285E-04    1.4219E-03    2.512000E+07  0.02000  4.532E-03    0   0.8099   age090_m62            0.0000     3.6590E-01    13.6651   0.9116    95.6438
 41      0.0000     0.0000E+00    0.0000E+00    5.500000E+07  0.02000  2.733E-03    0   0.7595   age110_m62            0.0000     3.6287E-01    13.4363   0.9200    95.4220
 42      2.7730     1.9077E-01    2.5351E-01    1.609000E+08  0.02000  1.369E-03    0   0.6985   age120_m62            0.0000     3.8467E-01    13.5141   0.7729    97.1781
 43      0.0000     0.0000E+00    0.0000E+00    2.861200E+08  0.02000  9.013E-04    0   0.6714   age125_m62            0.0000     4.0718E-01    13.7147   0.5324    99.3179
 44      0.0000     0.0000E+00    0.0000E+00    5.088000E+08  0.02000  5.028E-04    0   0.6449   age130_m62            0.0000     4.3959E-01    14.0705   0.1589   101.4091
 45     10.4178     4.0411E+00    4.7504E+00    9.047900E+08  0.02000  2.428E-04    0   0.6179   age135_m62            0.0000     4.4298E-01    14.1333  -0.4435   101.2766
 46      0.0000     0.0000E+00    0.0000E+00    1.434000E+09  0.02000  1.263E-04    0   0.5908   age139_m62            0.0000     4.5922E-01    14.2934  -0.9010   100.3171
 47      0.0000     0.0000E+00    0.0000E+00    2.500000E+09  0.02000  5.985E-05    0   0.5673   age150_m62            0.0000     5.7924E-01    16.0983  -1.0000    92.6635
 48      0.0000     0.0000E+00    0.0000E+00    4.250000E+09  0.02000  3.271E-05    0   0.5468   age158_m62            0.0000     8.9481E-01    19.7752  -1.0000    84.0206
 49      0.0000     0.0000E+00    0.0000E+00    1.000000E+10  0.02000  1.360E-05    0   0.5167   age181_m62            0.0000     1.4589E+00    24.6689  -1.0000    74.3873
 50      0.0000     0.0000E+00    0.0000E+00    1.800000E+10  0.02000  7.124E-06    0   0.5013   age213_m62            0.0000     1.8991E+00    27.6754  -1.0000    68.2718
 51      0.0000     0.0000E+00    0.0000E+00    1.000000E+06  0.05000  2.592E-02    0   0.9998   age020_m72            0.0000     4.0893E-01    14.3097   2.0755    89.3263
 52      0.0000     0.0000E+00    0.0000E+00    3.160000E+06  0.05000  4.845E-02    0   0.9577   age045_m72            0.0000     3.9707E-01    14.0822   1.9180    90.6703
 53      2.4700     7.5726E-03    1.3178E-02    5.010000E+06  0.05000  3.072E-02    0   0.9147   age055_m72            0.0000     3.7374E-01    13.8001   1.4776    93.4345
 54      6.1187     3.9606E-02    6.6888E-02    6.610000E+06  0.05000  1.455E-02    0   0.8877   age061_m72            0.0000     4.4379E-01    15.2940   0.7865    97.5159
 55      3.3276     3.4538E-02    5.6009E-02    1.000000E+07  0.05000  9.074E-03    0   0.8524   age070_m72            0.0000     3.8689E-01    14.1091   1.6704    92.9874
 56      0.0000     0.0000E+00    0.0000E+00    2.512000E+07  0.05000  4.250E-03    0   0.7902   age090_m72            0.0000     3.7565E-01    13.7730   1.3849    93.8288
 57      0.0000     0.0000E+00    0.0000E+00    4.000000E+07  0.05000  3.087E-03    0   0.7618   age104_m72            0.0000     3.7569E-01    13.7254   1.1679    94.8749
 58      0.0000     0.0000E+00    0.0000E+00    1.015200E+08  0.05000  1.700E-03    0   0.7096   age116_m72            0.0000     3.8186E-01    13.5352   0.9175    96.7889
 59      0.0000     0.0000E+00    0.0000E+00    2.861200E+08  0.05000  7.384E-04    0   0.6633   age125_m72            0.0000     4.2582E-01    13.8809   0.4035   100.2955
 60      0.0000     0.0000E+00    0.0000E+00    5.088000E+08  0.05000  3.819E-04    0   0.6372   age130_m72            0.0000     4.4149E-01    14.0999  -0.1003   102.0341
 61      0.0000     0.0000E+00    0.0000E+00    9.047900E+08  0.05000  1.676E-04    0   0.6110   age135_m72            0.0000     4.9254E-01    14.6552  -0.8240   101.2439
 62      6.4078     6.8292E+00    7.6317E+00    1.434000E+09  0.05000  8.837E-05    0   0.5874   age139_m72            0.0000     6.0027E-01    16.2248  -1.0000    93.8614
 63      4.1707     9.2795E+00    9.8827E+00    2.500000E+09  0.05000  4.233E-05    0   0.5598   age150_m72            0.0000     9.2542E-01    19.9493  -1.0000    84.6699
 64      1.1925     7.8269E+00    7.8160E+00    6.250000E+09  0.05000  1.435E-05    0   0.5249   age166_m72            0.0000     1.6452E+00    26.0285  -1.0000    71.5357
 65      0.0000     0.0000E+00    0.0000E+00    1.300000E+10  0.05000  6.513E-06    0   0.5036   age193_m72            0.0000     2.2759E+00    29.9027  -1.0000    64.8103
 66      0.0000     0.0000E+00    0.0000E+00    1.800000E+10  0.05000  4.527E-06    0   0.4945   age213_m72            0.0000     2.6784E+00    31.9370  -1.0000    60.5375


## Synthesis Results - Average & Chains ##

# j      x_j: min, <> & last-chain-values for 1 ...  7 chains
  1      9.1889      0.7046      3.9445      1.8497      0.0000      2.0779      2.6904      1.5648      0.0000
  2      0.0000      0.7968      0.0000      0.0000      3.0207      0.0000      0.0000      0.0000      0.0000
  3      0.0000      0.5353      0.5288      0.0000      0.0000      0.0000      0.0000      0.0000      0.0000
  4      0.0000      1.3455      0.0000      1.2912      5.9241      0.0000      0.0000      0.0000      0.0820
  5      0.0000      0.8019      0.0000      0.0000      0.0000      0.0000      0.0000      0.0000      1.3789
  6      0.0000      0.6056      0.0000      0.0000      1.7483      0.0000      0.0000      0.0000      0.0000
  7      0.0000      1.0297      0.0000      0.0000      1.3312      0.0000      4.6920      0.0000      0.0000
  8      0.0000      2.1747      0.0000      0.6936      0.0000      0.0000      0.0000      5.3606      0.0000
  9      0.0000      1.2219      0.0000      0.0000      0.6212      0.0000      0.0000      0.0000      0.0000
 10      0.0000      0.8897      0.0000      0.0000      0.3986      0.0000      0.0000      0.0000      0.0000
 11      0.0000      1.3403      0.0000      0.0000      0.0000      0.0000      0.0000      0.0000      0.0000
 12      0.0000      1.5602      0.0000      0.0000      0.0000      1.3144      0.0000      0.1478      0.0000
 13      1.9213      3.1227      8.8591      0.4240      3.6619      6.3008      1.5359      0.3812     15.0385
 14      0.0000      1.1656      0.0000      0.5835      0.0000      0.8165      2.3659      0.3253      0.0000
 15      0.0000      0.3125      0.0000      1.8117      0.0000      0.7287      0.0000      0.0000      0.0768
 16      8.4723      0.5379      1.0142      0.0000      0.5614      0.0000      0.0000      0.0000      0.0000
 17      3.4515      0.2952      2.5306      0.0000      0.0000      0.3333      0.0000      0.8812      0.0000
 18      0.0000      0.7635      0.0000      0.0000      0.0000      0.0000      0.0000      0.0000      4.0721
 19      0.0000      0.6639      0.0000      0.0000      0.0000      5.0345      0.0000      1.2228      0.9137
 20      7.1030      1.6921     13.9943      0.0000      0.0000      0.0000      0.0000      4.1611      0.0000
 21      0.0000     16.4276      0.0000     37.6295     20.4439     18.4426     18.5761     20.9676     29.5853
 22      0.0000      0.7447      0.0000      0.0000      0.0000      0.0506      0.5778      0.0000      0.0083
 23      7.5162      1.0558      0.7736      0.0000      0.0000      7.3793      0.0000      4.3767      0.0000
 24      0.9351      1.1887      1.7161      0.0000      0.0000      3.0501      0.0000      0.0000      0.0000
 25      0.0000      1.1414      0.2662      0.0000      0.0000      0.0000      0.0000      0.0000      5.1656
 26      0.1456      1.3647      2.9719      0.4805      0.0000      2.4590      2.0925      0.0000      0.0000
 27      0.0000      1.5214      0.2719      0.6482      0.0000      0.0000      0.0000      0.0000      0.0000
 28      0.0000      2.5454      0.0000      3.0746      6.8646      3.6850      3.7055      1.8314      7.3457
 29      3.0263      0.8039      3.3987      1.5477      0.0000      0.3043      0.0000      1.0840      0.0000
 30      0.0000      0.3908      0.0000      1.0163      0.0000      0.0000      1.3287      0.0000      0.0000
 31      0.0000      0.2177      0.3162      2.3286      0.0000      0.0000      1.5506      0.0000      0.0000
 32      2.6027      0.2540      2.6616      0.0000      1.7014      1.8394      0.0000      1.9021      0.0000
 33      0.0000      0.1428      0.0000      0.0000      0.0000      0.0000      0.0000      0.0000      0.0000
 34      0.0000      0.0793      0.0000      0.0000      0.0000      0.0000      0.0000      0.0000      0.0000
 35      7.9277      1.2469      0.9104      0.0000      0.0360      0.0000      3.1782      1.0285      5.4070
 36      0.0000      1.0846      0.0000      5.0876      0.0000      2.0437      0.0000      3.2219      0.1158
 37      0.0000      0.4583      0.0000      0.0000      2.9820      0.0000      0.0000      1.4520      3.5703
 38      0.5389      6.8440      3.2969      1.9133     16.2334      2.3290     13.2549      2.4483      0.0000
 39      8.8796      3.0237      2.7506      3.9879      3.5587     11.6371      1.9636      0.0000      0.0000
 40      0.0444      2.5701     10.3450      1.8163      5.0726      0.0000      0.0000      0.0000      0.0000
 41      0.0000      1.8210      0.0000      0.0000      0.1294      0.0000      0.0000      1.2300      3.4828
 42      2.7730      0.7373      4.6244      0.0000      0.0000      0.0000      0.0000      0.0000      0.0000
 43      0.0000      1.0024      0.0000      0.0000      0.0000      0.0000      0.0000      0.4018      0.0000
 44      0.0000      2.9409      0.0000      0.0000      1.7834      0.0000      0.0000      7.2044      1.6275
 45     10.4178      3.7703      9.7139      6.9515      1.4207     12.3161      8.3019      0.0000      0.0000
 46      0.0000      1.0516      0.0000      3.5251      0.2134      2.9583      1.5293      0.0000      0.4935
