###################################################################
## OUTPUT of StarlightChains_v04.for    [Cid@UFSC - 01/Apr/2007] ##
###################################################################

## Some input info
2014J.txt                                [arq_obs]
Base.CB07.vall.4m                        [arq_base]
Masks.EmLines.NEW.gm                     [arq_masks]
StCv04.C11.config                        [arq_config]
   66                                    [N_base]
    0                                    [N_YAV_components = # of components with extra extinction!]
    0                                    [i_FitPowerLaw (1/0 = Yes/No)]
-9.99                                    [alpha_PowerLaw]
CCM                                      [red_law_option]
 1.458241                                [q_norm = A(l_norm)/A(V)]

## (Re)Sampling Parameters
 3741.00                                 [l_ini (A)]
 7218.00                                 [l_fin (A)]
    1.00                                 [dl    (A)]     (OBS: dl_cushion =    50.00 A)

## Normalization info
 4020.00                                 [l_norm (A) - for base]
 4010.00                                 [llow_norm (A) - window for f_obs]
 4060.00                                 [lupp_norm (A) - window for f_obs]
4.341028E-13                             [fobs_norm (in input units)]

## S/N
 3691.00                                 [llow_SN (A) - window for S/N]
 7268.00                                 [lupp_SN (A) - window for S/N]
   7.618                                 [S/N in S/N window]
   7.497                                 [S/N in norm. window]
  10.000                                 [S/N_err in S/N window]
   9.840                                 [S/N_err in norm. window]
  1.0000                                 [fscale_chi2]

## etc...
    -2007422                             [idum_orig]
  2395                                   [NOl_eff]
  2395                                   [Nl_eff]
     0    NSIGMA                         [Ntot_cliped & clip_method]
   958510                                [Nglobal_steps]
   7                                     [N_chains]
  16                                     [NEX0s_base = N_base in EX0s-fits]
 0   0   1      105   2.0   1.507E+01    [Clip-Bug, RC-Crash & Burn-In warning-flags, n_censored_weights, wei_nsig_threshold & wei_limit]
    13     12.642     12.146      0.495  [idt_all, wdt_TotTime, wdt_UsrTime & wdt_SysTime (sec)]

## Synthesis Results - Best model ##

 1.10288E-01                             [chi2/Nl_eff]
     2.63350                             [adev (%)]

    98.77451                             [sum-of-x (%)]
 1.93329E-12                             [Flux_tot (units of input spectrum!)]
 1.59835E-08                             [Mini_tot (???)]
 8.40055E-09                             [Mcor_tot (???)]

 -87.22                                  [v0_min  (km/s)]
 150.99                                  [vd_min  (km/s)]
 1.1213                                  [AV_min  (mag)]
 0.0000                                  [YAV_min (mag)]

# j     x_j(%)      Mini_j(%)     Mcor_j(%)     age_j(yr)     Z_j      (L/M)_j    YAV?  Mstars   component_j        a/Fe...       SSP_chi2r SSP_adev(%)   SSP_AV   SSP_x(%)
  1      0.0000     0.0000E+00    0.0000E+00    1.000000E+06  0.00400  1.094E-02    0   1.0000   age020_m42            0.0000     9.9040E-01     7.3469   3.5108    78.7858
  2      0.0000     0.0000E+00    0.0000E+00    3.160000E+06  0.00400  4.007E-02    0   0.9999   age045_m42            0.0000     5.1996E-01     5.6574   2.7420    85.9182
  3      0.0000     0.0000E+00    0.0000E+00    5.010000E+06  0.00400  2.539E-02    0   0.9488   age055_m42            0.0000     6.9731E-01     6.3138   3.0817    83.0405
  4      0.0000     0.0000E+00    0.0000E+00    6.610000E+06  0.00400  2.620E-02    0   0.9220   age061_m42            0.0000     4.7615E-01     5.3286   2.6666    86.1842
  5      0.0000     0.0000E+00    0.0000E+00    1.000000E+07  0.00400  1.322E-02    0   0.8862   age070_m42            0.0000     4.6558E-01     4.7353   2.3903    87.7235
  6      0.0000     0.0000E+00    0.0000E+00    1.445000E+07  0.00400  7.883E-03    0   0.8571   age078_m42            0.0000     5.9048E-01     5.2774   2.7288    85.0361
  7      0.0000     0.0000E+00    0.0000E+00    2.512000E+07  0.00400  5.251E-03    0   0.8174   age090_m42            0.0000     4.4265E-01     4.5624   2.2578    88.3085
  8      0.0000     0.0000E+00    0.0000E+00    4.000000E+07  0.00400  3.649E-03    0   0.7851   age104_m42            0.0000     3.6745E-01     4.2201   2.0221    89.4191
  9      0.0000     0.0000E+00    0.0000E+00    5.500000E+07  0.00400  3.098E-03    0   0.7629   age110_m42            0.0000     3.0773E-01     4.0076   2.1655    89.8828
 10      0.0000     0.0000E+00    0.0000E+00    1.015200E+08  0.00400  2.228E-03    0   0.7207   age116_m42            0.0000     2.7811E-01     3.9107   2.1774    90.4261
 11      0.0000     0.0000E+00    0.0000E+00    2.861200E+08  0.00400  1.093E-03    0   0.6648   age125_m42            0.0000     2.0572E-01     3.4787   1.5959    93.6319
 12      0.0000     0.0000E+00    0.0000E+00    5.088000E+08  0.00400  6.597E-04    0   0.6365   age130_m42            0.0000     1.8772E-01     3.3847   1.5749    94.9602
 13     21.4397     1.2314E+01    1.3585E+01    1.434000E+09  0.00400  2.132E-04    0   0.5798   age139_m42            0.0000     1.6153E-01     3.2312   0.5961    97.2996
 14      0.0000     0.0000E+00    0.0000E+00    4.250000E+09  0.00400  5.895E-05    0   0.5377   age158_m42            0.0000     4.5575E-01     5.1315   0.1771    92.6712
 15      0.0000     0.0000E+00    0.0000E+00    7.500000E+09  0.00400  3.510E-05    0   0.5212   age171_m42            0.0000     5.9885E-01     5.7981  -0.0085    91.9756
 16      0.0000     0.0000E+00    0.0000E+00    1.300000E+10  0.00400  2.005E-05    0   0.5034   age193_m42            0.0000     7.5089E-01     6.4360  -0.1705    91.3627
 17      0.0000     0.0000E+00    0.0000E+00    1.800000E+10  0.00400  1.525E-05    0   0.4967   age213_m42            0.0000     7.3586E-01     6.3723  -0.1924    90.9094
 18      0.0000     0.0000E+00    0.0000E+00    1.000000E+06  0.00800  1.238E-02    0   1.0000   age020_m52            0.0000     9.9170E-01     7.3583   3.5071    78.9388
 19      0.0000     0.0000E+00    0.0000E+00    3.160000E+06  0.00800  3.074E-02    0   0.9966   age045_m52            0.0000     9.5204E-01     7.2601   3.4272    79.7643
 20      0.0000     0.0000E+00    0.0000E+00    5.010000E+06  0.00800  2.668E-02    0   0.9443   age055_m52            0.0000     7.5468E-01     6.4869   3.1705    82.0559
 21      0.0000     0.0000E+00    0.0000E+00    6.610000E+06  0.00800  2.136E-02    0   0.9177   age061_m52            0.0000     5.1627E-01     5.0232   1.8965    88.5115
 22      0.0000     0.0000E+00    0.0000E+00    1.000000E+07  0.00800  1.215E-02    0   0.8827   age070_m52            0.0000     5.5248E-01     5.0806   2.5771    87.1749
 23      0.0000     0.0000E+00    0.0000E+00    1.445000E+07  0.00800  8.717E-03    0   0.8552   age078_m52            0.0000     5.4415E-01     5.0450   2.6904    86.3748
 24      0.0000     0.0000E+00    0.0000E+00    2.512000E+07  0.00800  5.592E-03    0   0.8162   age090_m52            0.0000     4.1535E-01     4.4011   2.3186    89.4852
 25      0.0000     0.0000E+00    0.0000E+00    4.000000E+07  0.00800  3.896E-03    0   0.7841   age104_m52            0.0000     3.3329E-01     4.0468   2.2217    90.5944
 26      0.0000     0.0000E+00    0.0000E+00    1.015200E+08  0.00800  2.148E-03    0   0.7226   age116_m52            0.0000     2.6317E-01     3.8120   2.1486    90.9786
 27      0.0000     0.0000E+00    0.0000E+00    2.861200E+08  0.00800  9.925E-04    0   0.6683   age125_m52            0.0000     1.6109E-01     3.1143   1.6379    95.9388
 28      1.3432     5.2368E-01    6.1159E-01    9.047900E+08  0.00800  3.141E-04    0   0.6138   age135_m52            0.0000     2.1946E-01     3.7049   0.8231   100.7837
 29      0.0000     0.0000E+00    0.0000E+00    1.434000E+09  0.00800  1.719E-04    0   0.5853   age139_m52            0.0000     3.2337E-01     4.5123   0.2588    98.0308
 30      0.0000     0.0000E+00    0.0000E+00    2.500000E+09  0.00800  7.872E-05    0   0.5600   age150_m52            0.0000     5.7233E-01     5.7562  -0.0015    95.1222
 31      0.0000     0.0000E+00    0.0000E+00    4.250000E+09  0.00800  4.336E-05    0   0.5426   age158_m52            0.0000     6.4115E-01     6.0131  -0.0126    94.0451
 32      0.0000     0.0000E+00    0.0000E+00    6.250000E+09  0.00800  3.159E-05    0   0.5319   age166_m52            0.0000     8.3118E-01     6.7791  -0.2176    94.2026
 33      0.0000     0.0000E+00    0.0000E+00    1.300000E+10  0.00800  1.361E-05    0   0.5073   age193_m52            0.0000     1.1372E+00     7.8647  -0.6866    93.6760
 34      3.8912     4.8199E+01    4.5762E+01    1.800000E+10  0.00800  9.886E-06    0   0.4990   age213_m52            0.0000     1.3840E+00     8.6982  -0.7960    93.3019
 35      0.0000     0.0000E+00    0.0000E+00    1.000000E+06  0.02000  1.544E-02    0   1.0000   age020_m62            0.0000     1.0055E+00     7.4096   3.5048    79.0628
 36      0.0000     0.0000E+00    0.0000E+00    3.160000E+06  0.02000  3.762E-02    0   0.9858   age045_m62            0.0000     9.9322E-01     7.4088   3.4427    79.7995
 37      0.0000     0.0000E+00    0.0000E+00    5.010000E+06  0.02000  3.296E-02    0   0.9342   age055_m62            0.0000     6.1003E-01     6.0461   3.0309    84.4996
 38      7.3584     7.8084E-02    1.3165E-01    8.710000E+06  0.02000  1.154E-02    0   0.8861   age067_m62            0.0000     1.0794E+00     7.8347   2.0495    88.4740
 39      0.0000     0.0000E+00    0.0000E+00    1.445000E+07  0.02000  7.663E-03    0   0.8472   age078_m62            0.0000     6.2643E-01     5.4919   2.2254    89.0241
 40      0.0000     0.0000E+00    0.0000E+00    2.512000E+07  0.02000  4.532E-03    0   0.8099   age090_m62            0.0000     6.1805E-01     5.5106   2.2144    88.8978
 41      0.0000     0.0000E+00    0.0000E+00    5.500000E+07  0.02000  2.733E-03    0   0.7595   age110_m62            0.0000     3.6950E-01     4.1986   2.2085    89.7664
 42      0.0000     0.0000E+00    0.0000E+00    1.609000E+08  0.02000  1.369E-03    0   0.6985   age120_m62            0.0000     2.1544E-01     3.3902   2.0185    93.5541
 43     14.3609     1.9512E+00    2.4925E+00    2.861200E+08  0.02000  9.013E-04    0   0.6714   age125_m62            0.0000     1.7081E-01     3.1341   1.7463    97.2551
 44      9.1730     2.2341E+00    2.7413E+00    5.088000E+08  0.02000  5.028E-04    0   0.6449   age130_m62            0.0000     2.1915E-01     3.7924   1.3516   100.7010
 45      0.0000     0.0000E+00    0.0000E+00    9.047900E+08  0.02000  2.428E-04    0   0.6179   age135_m62            0.0000     3.2904E-01     4.4055   0.7746    99.7390
 46      0.0000     0.0000E+00    0.0000E+00    1.434000E+09  0.02000  1.263E-04    0   0.5908   age139_m62            0.0000     4.9094E-01     5.2205   0.3414    97.8111
 47      0.0000     0.0000E+00    0.0000E+00    2.500000E+09  0.02000  5.985E-05    0   0.5673   age150_m62            0.0000     7.7162E-01     6.5461  -0.0184    96.2483
 48      0.0000     0.0000E+00    0.0000E+00    4.250000E+09  0.02000  3.271E-05    0   0.5468   age158_m62            0.0000     1.0985E+00     7.8766  -0.3255    95.5696
 49      0.0000     0.0000E+00    0.0000E+00    1.000000E+10  0.02000  1.360E-05    0   0.5167   age181_m62            0.0000     1.5627E+00     9.3143  -0.6773    95.3679
 50      0.0000     0.0000E+00    0.0000E+00    1.800000E+10  0.02000  7.124E-06    0   0.5013   age213_m62            0.0000     1.9467E+00    10.4417  -0.8866    94.6213
 51      0.0000     0.0000E+00    0.0000E+00    1.000000E+06  0.05000  2.592E-02    0   0.9998   age020_m72            0.0000     1.0561E+00     7.5351   3.5003    78.9308
 52      0.0000     0.0000E+00    0.0000E+00    3.160000E+06  0.05000  4.845E-02    0   0.9577   age045_m72            0.0000     8.4706E-01     6.9792   3.3134    81.3403
 53      0.0000     0.0000E+00    0.0000E+00    5.010000E+06  0.05000  3.072E-02    0   0.9147   age055_m72            0.0000     7.5285E-01     6.2343   2.8247    85.1594
 54      0.0000     0.0000E+00    0.0000E+00    6.610000E+06  0.05000  1.455E-02    0   0.8877   age061_m72            0.0000     1.6915E+00    10.4021   2.0984    88.9355
 55      0.0000     0.0000E+00    0.0000E+00    1.000000E+07  0.05000  9.074E-03    0   0.8524   age070_m72            0.0000     8.7735E-01     7.1691   3.0060    84.9556
 56      0.0000     0.0000E+00    0.0000E+00    2.512000E+07  0.05000  4.250E-03    0   0.7902   age090_m72            0.0000     5.8930E-01     5.7517   2.6867    87.3606
 57      0.0000     0.0000E+00    0.0000E+00    4.000000E+07  0.05000  3.087E-03    0   0.7618   age104_m72            0.0000     5.1267E-01     5.4001   2.4487    89.2365
 58      4.6421     3.3439E-01    4.5147E-01    1.015200E+08  0.05000  1.700E-03    0   0.7096   age116_m72            0.0000     2.4011E-01     3.5530   2.1655    92.9253
 59     35.5131     5.8895E+00    7.4328E+00    2.861200E+08  0.05000  7.384E-04    0   0.6633   age125_m72            0.0000     1.8108E-01     3.3341   1.6032    99.1327
 60      0.0000     0.0000E+00    0.0000E+00    5.088000E+08  0.05000  3.819E-04    0   0.6372   age130_m72            0.0000     2.6485E-01     4.1035   1.1080   100.9605
 61      0.0000     0.0000E+00    0.0000E+00    9.047900E+08  0.05000  1.676E-04    0   0.6110   age135_m72            0.0000     6.4821E-01     6.0294   0.4269    98.6041
 62      0.0000     0.0000E+00    0.0000E+00    1.434000E+09  0.05000  8.837E-05    0   0.5874   age139_m72            0.0000     8.2777E-01     6.6970  -0.0242    97.9015
 63      0.0000     0.0000E+00    0.0000E+00    2.500000E+09  0.05000  4.233E-05    0   0.5598   age150_m72            0.0000     1.2122E+00     8.2815  -0.3305    96.5906
 64      0.0000     0.0000E+00    0.0000E+00    6.250000E+09  0.05000  1.435E-05    0   0.5249   age166_m72            0.0000     1.6738E+00     9.7314  -0.7754    95.0504
 65      0.0000     0.0000E+00    0.0000E+00    1.300000E+10  0.05000  6.513E-06    0   0.5036   age193_m72            0.0000     2.1945E+00    11.0070  -1.0000    93.9868
 66      1.0527     2.8476E+01    2.6792E+01    1.800000E+10  0.05000  4.527E-06    0   0.4945   age213_m72            0.0000     2.6459E+00    11.7046  -1.0000    88.1758


## Synthesis Results - Average & Chains ##

# j      x_j: min, <> & last-chain-values for 1 ...  7 chains
  1      0.0000      0.1046      0.0000      0.0000      0.7636      0.0000      0.0432      0.1669      0.0000
  2      0.0000      0.1948      0.0000      0.0000      0.0472      0.0000      0.0000      0.0663      1.0421
  3      0.0000      0.1349      0.0000      0.5802      0.0000      0.0000      0.0000      0.1461      0.0000
  4      0.0000      0.2846      0.0000      0.0000      0.0000      0.1527      0.0000      0.0000      0.0000
  5      0.0000      0.3279      0.7364      0.0000      0.0000      1.0584      0.0000      0.0000      0.0000
  6      0.0000      0.1988      0.0000      0.0000      0.0385      0.0000      0.0000      0.5315      0.0000
  7      0.0000      0.4989      0.0000      0.0600      0.0000      0.0000      0.0000      0.0000      0.0000
  8      0.0000      0.4600      0.0000      0.0000      0.0000      0.0000      0.0000      0.0000      0.0000
  9      0.0000      0.4201      1.8923      0.0000      0.7651      0.0000      0.0000      0.0000      0.0000
 10      0.0000      0.5966      0.0000      0.0000      0.3636      0.0000      2.6213      3.2393      0.0000
 11      0.0000      1.2223      0.0000      0.0000      0.5459      0.0000      0.0000      0.0639      0.9635
 12      0.0000      1.1811      0.0476      0.6564      0.0000      0.0000      1.5210      0.0000      0.0000
 13     21.4397     17.2910     19.5094     17.0881     19.1281     17.9542     16.0598     17.1925     19.1047
 14      0.0000      0.1793      0.0452      0.0000      0.0000      0.0000      0.0000      0.0984      0.0000
 15      0.0000      0.6936      0.0260      0.0000      0.8295      0.0000      0.0000      0.0000      0.0000
 16      0.0000      0.2042      0.3132      1.7125      0.0000      0.0000      0.0000      0.0000      0.0000
 17      0.0000      0.1126      0.0000      0.0000      0.4038      0.0000      0.0000      0.0000      0.6779
 18      0.0000      0.1456      0.2783      0.0000      0.0000      0.0000      0.0000      0.0000      0.0000
 19      0.0000      0.0949      0.0220      0.0000      0.0000      0.0000      0.0000      0.0000      0.0000
 20      0.0000      0.1873      0.0000      0.5521      0.0000      1.0629      0.0000      0.1426      0.0000
 21      0.0000      0.2105      0.0000      0.0000      0.0000      0.0000      0.0000      0.0000      0.0000
 22      0.0000      0.3127      0.3973      2.9342      0.0000      0.0000      0.0000      0.0000      0.0000
 23      0.0000      0.1704      0.0000      0.0000      0.0000      0.0000      0.0000      0.0000      0.0000
 24      0.0000      0.2979      0.0000      0.1548      0.0000      0.0000      0.8272      0.0000      0.9354
 25      0.0000      0.5853      0.0000      1.8589      0.0000      1.3154      3.4741      0.0000      0.0000
 26      0.0000      0.6104      2.2624      0.0000      0.0000      0.0000      0.0000      0.6072      1.2927
 27      0.0000      6.8462      0.8319      7.7172      9.7929      8.0372      2.7931      6.6399      7.5971
 28      1.3432     12.3712     12.9920     11.9476     12.2994     10.2629     10.6208     12.7615     10.2271
 29      0.0000      1.0271      0.0000      0.3344      1.2802      1.7442      0.4885      0.7039      2.9937
 30      0.0000      0.1707      0.0000      0.0000      0.0000      0.0008      0.0000      0.0000      0.0000
 31      0.0000      0.2041      0.0000      0.0000      0.0000      0.0000      0.0000      0.0000      0.0000
 32      0.0000      0.0724      0.0000      0.0000      0.0000      0.1004      0.0000      0.0000      0.6781
 33      0.0000      0.7196      0.6281      2.3617      0.0000      0.5109      0.0000      1.5810      0.0000
 34      3.8912      0.4052      0.8679      0.2338      0.0000      0.7302      1.4787      0.9895      0.3015
 35      0.0000      0.0863      0.0000      0.0000      0.0000      0.0000      0.0000      0.0000      0.3198
 36      0.0000      0.1043      0.0000      0.0000      0.3339      0.0000      0.0000      0.0000      0.0000
 37      0.0000      0.1683      0.0000      0.0000      0.0000      0.0000      0.6452      1.9422      0.0000
 38      7.3584      1.1123      0.5148      0.0000      4.2370      3.1215      0.0000      1.5258      2.8761
 39      0.0000      0.4789      0.0000      2.1230      0.7674      0.0000      0.0000      0.4625      0.0000
 40      0.0000      0.4661      0.0000      0.0000      0.0000      0.0000      0.9481      0.3301      2.3369
 41      0.0000      0.4798      0.0000      0.0000      0.0000      0.0000      0.0000      0.0000      0.0000
 42      0.0000      0.9806      2.6024      1.9092      1.6163      0.0000      0.0000      0.0000      0.0000
 43     14.3609      6.2355      5.4223      7.9460      4.1050      8.3443      7.9468      6.2607      5.3201
 44      9.1730     13.3035     15.7059     11.7377      8.3628     14.2482     18.1412     15.2375     20.3542
 45      0.0000      0.5954      0.4714      0.0066      0.0000      0.0000      0.0000      0.0000      0.0000
 46      0.0000      0.2264      0.0000      0.0000      0.0000      0.0000      0.0000      0.0000      0.0000
