###################################################################
## OUTPUT of StarlightChains_v04.for    [Cid@UFSC - 01/Apr/2007] ##
###################################################################

## Some input info
2014V.txt                                [arq_obs]
Base.CB07.vall.4m                        [arq_base]
Masks.EmLines.NEW.gm                     [arq_masks]
StCv04.C11.config                        [arq_config]
   66                                    [N_base]
    0                                    [N_YAV_components = # of components with extra extinction!]
    0                                    [i_FitPowerLaw (1/0 = Yes/No)]
-9.99                                    [alpha_PowerLaw]
CCM                                      [red_law_option]
 1.458241                                [q_norm = A(l_norm)/A(V)]

## (Re)Sampling Parameters
 3741.00                                 [l_ini (A)]
 7218.00                                 [l_fin (A)]
    1.00                                 [dl    (A)]     (OBS: dl_cushion =    50.00 A)

## Normalization info
 4020.00                                 [l_norm (A) - for base]
 4010.00                                 [llow_norm (A) - window for f_obs]
 4060.00                                 [lupp_norm (A) - window for f_obs]
9.780945E-17                             [fobs_norm (in input units)]

## S/N
 3691.00                                 [llow_SN (A) - window for S/N]
 7268.00                                 [lupp_SN (A) - window for S/N]
   4.330                                 [S/N in S/N window]
   6.265                                 [S/N in norm. window]
  15.149                                 [S/N_err in S/N window]
  21.916                                 [S/N_err in norm. window]
  1.0000                                 [fscale_chi2]

## etc...
    -2007423                             [idum_orig]
  2384                                   [NOl_eff]
  2380                                   [Nl_eff]
     4    NSIGMA                         [Ntot_cliped & clip_method]
  2270310                                [Nglobal_steps]
   7                                     [N_chains]
  30                                     [NEX0s_base = N_base in EX0s-fits]
 0   0   1        0   2.0   4.385E+01    [Clip-Bug, RC-Crash & Burn-In warning-flags, n_censored_weights, wei_nsig_threshold & wei_limit]
    17     16.971     16.475      0.497  [idt_all, wdt_TotTime, wdt_UsrTime & wdt_SysTime (sec)]

## Synthesis Results - Best model ##

 3.72892E-01                             [chi2/Nl_eff]
     3.05486                             [adev (%)]

   105.05968                             [sum-of-x (%)]
 1.05181E-16                             [Flux_tot (units of input spectrum!)]
 7.99055E-13                             [Mini_tot (???)]
 4.15593E-13                             [Mcor_tot (???)]

 -25.75                                  [v0_min  (km/s)]
 138.45                                  [vd_min  (km/s)]
 0.0174                                  [AV_min  (mag)]
 0.0000                                  [YAV_min (mag)]

# j     x_j(%)      Mini_j(%)     Mcor_j(%)     age_j(yr)     Z_j      (L/M)_j    YAV?  Mstars   component_j        a/Fe...       SSP_chi2r SSP_adev(%)   SSP_AV   SSP_x(%)
  1      1.9795     2.2670E-02    4.3588E-02    1.000000E+06  0.00400  1.094E-02    0   1.0000   age020_m42            0.0000     1.7087E+00     6.3765   2.0577    87.5726
  2      0.0065     2.0294E-05    3.9015E-05    3.160000E+06  0.00400  4.007E-02    0   0.9999   age045_m42            0.0000     1.3692E+00     5.9009   1.3542    92.7923
  3      0.0000     0.0000E+00    0.0000E+00    5.010000E+06  0.00400  2.539E-02    0   0.9488   age055_m42            0.0000     1.4451E+00     5.9418   1.6622    90.9666
  4      0.0000     0.0000E+00    0.0000E+00    6.610000E+06  0.00400  2.620E-02    0   0.9220   age061_m42            0.0000     1.2505E+00     5.6704   1.2780    93.1738
  5      0.0000     0.0000E+00    0.0000E+00    1.000000E+07  0.00400  1.322E-02    0   0.8862   age070_m42            0.0000     7.4288E-01     4.2333   0.9555    97.2839
  6      0.0000     0.0000E+00    0.0000E+00    1.445000E+07  0.00400  7.883E-03    0   0.8571   age078_m42            0.0000     8.7780E-01     4.5238   1.2822    94.7491
  7      0.0000     0.0000E+00    0.0000E+00    2.512000E+07  0.00400  5.251E-03    0   0.8174   age090_m42            0.0000     6.7151E-01     4.0410   0.8195    98.1907
  8      0.0000     0.0000E+00    0.0000E+00    4.000000E+07  0.00400  3.649E-03    0   0.7851   age104_m42            0.0000     6.6043E-01     4.0732   0.5987    98.6965
  9      0.0000     0.0000E+00    0.0000E+00    5.500000E+07  0.00400  3.098E-03    0   0.7629   age110_m42            0.0000     8.2878E-01     4.6903   0.7751    97.5467
 10      0.0000     0.0000E+00    0.0000E+00    1.015200E+08  0.00400  2.228E-03    0   0.7207   age116_m42            0.0000     9.4588E-01     5.1161   0.8099    97.0218
 11      0.0000     0.0000E+00    0.0000E+00    2.861200E+08  0.00400  1.093E-03    0   0.6648   age125_m42            0.0000     7.3842E-01     4.5458   0.2337   100.4526
 12      0.0000     0.0000E+00    0.0000E+00    5.088000E+08  0.00400  6.597E-04    0   0.6365   age130_m42            0.0000     9.0292E-01     5.1530   0.2471   100.1003
 13      0.0000     0.0000E+00    0.0000E+00    1.434000E+09  0.00400  2.132E-04    0   0.5798   age139_m42            0.0000     9.0345E-01     5.3130  -0.7082   101.3610
 14      0.0000     0.0000E+00    0.0000E+00    4.250000E+09  0.00400  5.895E-05    0   0.5377   age158_m42            0.0000     1.4297E+00     6.7777  -1.0000    91.3892
 15      0.0000     0.0000E+00    0.0000E+00    7.500000E+09  0.00400  3.510E-05    0   0.5212   age171_m42            0.0000     2.1888E+00     8.2685  -1.0000    83.8168
 16      0.0000     0.0000E+00    0.0000E+00    1.300000E+10  0.00400  2.005E-05    0   0.5034   age193_m42            0.0000     3.2017E+00     9.9157  -1.0000    77.5817
 17      0.0000     0.0000E+00    0.0000E+00    1.800000E+10  0.00400  1.525E-05    0   0.4967   age213_m42            0.0000     3.3430E+00    10.1636  -1.0000    76.4709
 18      0.0000     0.0000E+00    0.0000E+00    1.000000E+06  0.00800  1.238E-02    0   1.0000   age020_m52            0.0000     1.7094E+00     6.3805   2.0546    87.7209
 19      0.0000     0.0000E+00    0.0000E+00    3.160000E+06  0.00800  3.074E-02    0   0.9966   age045_m52            0.0000     1.6930E+00     6.3697   1.9801    88.4083
 20      0.0109     5.1138E-05    9.2845E-05    5.010000E+06  0.00800  2.668E-02    0   0.9443   age055_m52            0.0000     1.4457E+00     5.9346   1.7407    90.3126
 21      0.0000     0.0000E+00    0.0000E+00    6.610000E+06  0.00800  2.136E-02    0   0.9177   age061_m52            0.0000     7.0341E-01     4.1239   0.4572    98.2622
 22      0.8847     9.1234E-03    1.5484E-02    1.000000E+07  0.00800  1.215E-02    0   0.8827   age070_m52            0.0000     6.6531E-01     3.9461   1.1213    97.7550
 23      0.0000     0.0000E+00    0.0000E+00    1.445000E+07  0.00800  8.717E-03    0   0.8552   age078_m52            0.0000     8.0340E-01     4.3537   1.2475    96.1004
 24      0.0000     0.0000E+00    0.0000E+00    2.512000E+07  0.00800  5.592E-03    0   0.8162   age090_m52            0.0000     6.0535E-01     3.8614   0.8824    99.4414
 25      0.0000     0.0000E+00    0.0000E+00    4.000000E+07  0.00800  3.896E-03    0   0.7841   age104_m52            0.0000     6.3459E-01     4.0261   0.8079    99.5786
 26      0.0000     0.0000E+00    0.0000E+00    1.015200E+08  0.00800  2.148E-03    0   0.7226   age116_m52            0.0000     7.9027E-01     4.6024   0.7683    98.2873
 27      0.0216     2.7263E-03    3.5031E-03    2.861200E+08  0.00800  9.925E-04    0   0.6683   age125_m52            0.0000     8.5074E-01     5.0133   0.3112   101.0959
 28      0.0000     0.0000E+00    0.0000E+00    9.047900E+08  0.00800  3.141E-04    0   0.6138   age135_m52            0.0000     1.0972E+00     5.8633  -0.4466   103.2947
 29      0.0000     0.0000E+00    0.0000E+00    1.434000E+09  0.00800  1.719E-04    0   0.5853   age139_m52            0.0000     1.1256E+00     5.9361  -1.0000   100.0697
 30      0.0000     0.0000E+00    0.0000E+00    2.500000E+09  0.00800  7.872E-05    0   0.5600   age150_m52            0.0000     2.1159E+00     8.1916  -1.0000    86.8660
 31      0.0000     0.0000E+00    0.0000E+00    4.250000E+09  0.00800  4.336E-05    0   0.5426   age158_m52            0.0000     2.2320E+00     8.3463  -1.0000    85.4746
 32      0.0000     0.0000E+00    0.0000E+00    6.250000E+09  0.00800  3.159E-05    0   0.5319   age166_m52            0.0000     3.4941E+00    10.3743  -1.0000    78.2583
 33      1.4676     1.3511E+01    1.3178E+01    1.300000E+10  0.00800  1.361E-05    0   0.5073   age193_m52            0.0000     7.7417E+00    15.9445  -1.0000    62.9150
 34      1.7336     2.1972E+01    2.1080E+01    1.800000E+10  0.00800  9.886E-06    0   0.4990   age213_m52            0.0000     8.9496E+00    17.1357  -1.0000    59.5373
 35      2.4532     1.9907E-02    3.8276E-02    1.000000E+06  0.02000  1.544E-02    0   1.0000   age020_m62            0.0000     1.7212E+00     6.4059   2.0504    87.9292
 36      2.7580     9.1854E-03    1.7410E-02    3.160000E+06  0.02000  3.762E-02    0   0.9858   age045_m62            0.0000     1.7241E+00     6.4364   1.9911    88.6197
 37      0.0000     0.0000E+00    0.0000E+00    5.010000E+06  0.02000  3.296E-02    0   0.9342   age055_m62            0.0000     1.4354E+00     6.0420   1.6311    91.7064
 38     46.7370     5.0743E-01    8.6451E-01    8.710000E+06  0.02000  1.154E-02    0   0.8861   age067_m62            0.0000     5.8003E-01     4.0325   0.4911   105.1121
 39      0.5672     9.2732E-03    1.5105E-02    1.445000E+07  0.02000  7.663E-03    0   0.8472   age078_m62            0.0000     4.8618E-01     3.4451   0.7453   101.2690
 40      0.0253     6.9957E-04    1.0894E-03    2.512000E+07  0.02000  4.532E-03    0   0.8099   age090_m62            0.0000     4.8798E-01     3.5000   0.7354   101.1655
 41      0.0000     0.0000E+00    0.0000E+00    5.500000E+07  0.02000  2.733E-03    0   0.7595   age110_m62            0.0000     6.2402E-01     3.9838   0.7884    98.9387
 42      0.0000     0.0000E+00    0.0000E+00    1.609000E+08  0.02000  1.369E-03    0   0.6985   age120_m62            0.0000     8.0080E-01     4.7885   0.6596   100.0713
 43      0.0000     0.0000E+00    0.0000E+00    2.861200E+08  0.02000  9.013E-04    0   0.6714   age125_m62            0.0000     9.0969E-01     5.2318   0.4263   102.1189
 44      0.0000     0.0000E+00    0.0000E+00    5.088000E+08  0.02000  5.028E-04    0   0.6449   age130_m62            0.0000     1.2151E+00     6.2048   0.0863   102.9223
 45      0.0000     0.0000E+00    0.0000E+00    9.047900E+08  0.02000  2.428E-04    0   0.6179   age135_m62            0.0000     1.3246E+00     6.5133  -0.4815   101.4206
 46      1.9523     1.9367E+00    2.1999E+00    1.434000E+09  0.02000  1.263E-04    0   0.5908   age139_m62            0.0000     1.5043E+00     6.8653  -0.9180    99.5386
 47      0.0000     0.0000E+00    0.0000E+00    2.500000E+09  0.02000  5.985E-05    0   0.5673   age150_m62            0.0000     2.4694E+00     8.8243  -1.0000    87.0955
 48      0.0000     0.0000E+00    0.0000E+00    4.250000E+09  0.02000  3.271E-05    0   0.5468   age158_m62            0.0000     4.4792E+00    11.7385  -1.0000    75.5767
 49      0.2858     2.6328E+00    2.6155E+00    1.000000E+10  0.02000  1.360E-05    0   0.5167   age181_m62            0.0000     7.7081E+00    15.6612  -1.0000    64.3030
 50      0.8418     1.4805E+01    1.4270E+01    1.800000E+10  0.02000  7.124E-06    0   0.5013   age213_m62            0.0000     1.0025E+01    18.0122  -1.0000    57.8820
 51      5.6042     2.7090E-02    5.2074E-02    1.000000E+06  0.05000  2.592E-02    0   0.9998   age020_m72            0.0000     1.7408E+00     6.4518   2.0385    88.0870
 52      0.0054     1.4055E-05    2.5880E-05    3.160000E+06  0.05000  4.845E-02    0   0.9577   age045_m72            0.0000     1.6691E+00     6.3888   1.8846    89.3798
 53      0.1521     6.2029E-04    1.0909E-03    5.010000E+06  0.05000  3.072E-02    0   0.9147   age055_m72            0.0000     8.3079E-01     4.3305   1.3593    95.9036
 54      8.8473     7.6185E-02    1.3003E-01    6.610000E+06  0.05000  1.455E-02    0   0.8877   age061_m72            0.0000     1.3816E+00     6.1581   0.5192   107.4960
 55      0.0039     5.3377E-05    8.7480E-05    1.000000E+07  0.05000  9.074E-03    0   0.8524   age070_m72            0.0000     1.1217E+00     5.0233   1.5529    95.3050
 56      0.0000     0.0000E+00    0.0000E+00    2.512000E+07  0.05000  4.250E-03    0   0.7902   age090_m72            0.0000     8.1078E-01     4.3837   1.2497    97.2324
 57      0.0000     0.0000E+00    0.0000E+00    4.000000E+07  0.05000  3.087E-03    0   0.7618   age104_m72            0.0000     7.2801E-01     4.2713   1.0171    99.1577
 58      0.0000     0.0000E+00    0.0000E+00    1.015200E+08  0.05000  1.700E-03    0   0.7096   age116_m72            0.0000     7.1746E-01     4.4534   0.7879   100.3942
 59      5.8087     9.8563E-01    1.2570E+00    2.861200E+08  0.05000  7.384E-04    0   0.6633   age125_m72            0.0000     1.0275E+00     5.6527   0.3140   102.5382
 60     14.6745     4.8143E+00    5.8982E+00    5.088000E+08  0.05000  3.819E-04    0   0.6372   age130_m72            0.0000     1.2956E+00     6.5339  -0.1493   102.7016
 61      4.7686     3.5648E+00    4.1878E+00    9.047900E+08  0.05000  1.676E-04    0   0.6110   age135_m72            0.0000     1.9330E+00     7.8990  -0.8015    98.7673
 62      2.0969     2.9730E+00    3.3576E+00    1.434000E+09  0.05000  8.837E-05    0   0.5874   age139_m72            0.0000     2.5760E+00     9.0147  -1.0000    88.3428
 63      0.0000     0.0000E+00    0.0000E+00    2.500000E+09  0.05000  4.233E-05    0   0.5598   age150_m72            0.0000     4.6078E+00    11.8909  -1.0000    76.1745
 64      0.0000     0.0000E+00    0.0000E+00    6.250000E+09  0.05000  1.435E-05    0   0.5249   age166_m72            0.0000     8.7786E+00    16.8176  -1.0000    61.2313
 65      0.6974     1.3417E+01    1.2991E+01    1.300000E+10  0.05000  6.513E-06    0   0.5036   age193_m72            0.0000     1.2066E+01    19.8806  -1.0000    54.2116
 66      0.6758     1.8704E+01    1.7783E+01    1.800000E+10  0.05000  4.527E-06    0   0.4945   age213_m72            0.0000     1.4114E+01    21.5411  -1.0000    50.1196


## Synthesis Results - Average & Chains ##

# j      x_j: min, <> & last-chain-values for 1 ...  7 chains
  1      1.9795      0.7914      0.6509      0.8291      0.7155      0.9711      2.4385      0.5666      1.0555
  2      0.0065      0.2377      0.5765      0.0693      0.0000      0.0000      0.0000      0.0000      0.0000
  3      0.0000      0.6518      0.0000      1.0168      0.5729      0.2824      0.5511      0.6781      0.0000
  4      0.0000      0.4584      0.2950      0.3035      0.0000      0.0668      1.3417      0.0000      0.0000
  5      0.0000      0.5212      0.0000      0.0000      0.3290      0.0000      0.0000      1.3012      2.7166
  6      0.0000      0.3627      0.6074      0.3594      0.0000      1.6460      0.0000      0.0000      0.0000
  7      0.0000      0.4958      0.3854      0.0000      0.0000      0.0000      0.3179      0.0000      0.0000
  8      0.0000      0.5360      0.0086      0.8524      0.0000      0.0000      0.4909      0.0000      0.0000
  9      0.0000      0.4686      0.3519      0.0000      0.0000      0.0000      0.0000      0.0000      0.8401
 10      0.0000      0.5717      0.3590      0.8149      0.3671      0.0000      0.0000      0.0000      0.0000
 11      0.0000      0.5930      0.1804      0.0000      0.0000      0.0000      0.0000      0.1228      0.0000
 12      0.0000      0.5037      0.0000      0.0000      0.0000      0.0000      0.0000      0.0000      0.3911
 13      0.0000      0.1389      0.0000      0.0000      0.0000      0.0000      0.0000      0.0000      0.0000
 14      0.0000      0.2084      1.1448      0.0000      0.5323      0.1907      0.0000      0.0000      0.0261
 15      0.0000      0.1845      0.0000      0.0000      0.0000      0.7841      0.0000      0.0000      0.0000
 16      0.0000      0.0334      0.0000      0.0000      0.0596      0.0000      0.2476      0.0000      0.0000
 17      0.0000      0.0567      0.0000      0.0000      0.0692      0.0000      0.0000      0.8272      0.0000
 18      0.0000      0.3575      0.0000      0.7427      0.9248      0.0000      0.6818      1.9931      0.0000
 19      0.0000      0.3092      0.0000      0.0000      1.2716      0.0115      0.0000      0.7401      2.9018
 20      0.0109      0.3223      0.4250      0.0000      0.9378      0.4829      0.0000      0.0000      0.0000
 21      0.0000      1.3631      0.0000      0.0000      3.8646      1.8799      1.3154      0.0000      0.0000
 22      0.8847      0.5505      1.2805      0.0000      2.4528      0.6136      0.0000      0.4211      0.0000
 23      0.0000      0.6639      0.0000      0.8412      0.0000      1.0194      1.3884      1.4876      0.0000
 24      0.0000      0.5132      0.0000      1.6842      0.8159      1.0223      0.5141      0.0000      0.0000
 25      0.0000      0.6266      0.0813      2.2285      0.0000      0.0000      0.0000      1.2191      0.0478
 26      0.0000      0.6308      2.7531      0.5000      1.1613      0.0000      1.6155      0.9399      0.6891
 27      0.0216      0.7792      0.8377      0.0000      0.0000      0.0000      0.0000      0.8417      0.0615
 28      0.0000      0.3546      0.0000      0.4347      0.0000      1.0924      0.4548      0.0832      0.0000
 29      0.0000      0.1182      0.0000      0.0000      0.9255      0.0000      0.0000      0.0000      0.3916
 30      0.0000      0.1535      0.6137      0.0000      0.0000      0.0000      0.0000      0.0000      0.0000
 31      0.0000      0.1623      0.0000      0.0000      0.0000      0.0000      0.0000      0.0000      0.8411
 32      0.0000      0.0219      0.2360      0.0000      0.2996      0.0000      0.0000      0.0000      0.0000
 33      1.4676      0.3788      1.0894      0.5367      0.2622      0.4512      0.4940      0.1347      0.0000
 34      1.7336      0.1204      0.8084      0.0000      0.0000      0.2595      0.2618      0.0000      0.0000
 35      2.4532      0.6833      1.7617      1.7352      1.1333      1.1388      0.0000      0.5716      0.5233
 36      2.7580      0.3044      0.6593      0.0000      0.0000      0.0000      0.0000      0.4761      0.0000
 37      0.0000      0.3006      0.0000      0.0000      0.0000      0.0000      0.0000      0.1961      0.8777
 38     46.7370     47.4133     43.8664     49.9828     45.6832     49.6584     49.0526     50.4678     50.5714
 39      0.5672      1.8690      3.8576      1.2742      1.7893      0.2692      1.6003      0.8686      2.7761
 40      0.0253      1.0795      1.7035      1.9301      1.2382      0.0490      0.0000      0.0000      0.2608
 41      0.0000      0.8937      0.0000      0.0000      0.0000      0.0087      0.0000      1.2295      2.2427
 42      0.0000      0.4639      0.0000      0.0000      0.0324      0.9129      0.0000      0.0000      0.0000
 43      0.0000      0.9090      0.0000      0.3615      2.0842      2.4666      0.0000      1.3119      0.0000
 44      0.0000      1.0944      0.0963      2.5979      0.5169      0.6555      3.3571      1.8811      0.0000
 45      0.0000      0.5772      0.0000      0.0000      0.0000      1.4443      1.0467      0.0000      0.5022
 46      1.9523      2.4993      1.6359      3.4210      2.4494      2.6396      2.2779      4.1630      3.3721
