###################################################################
## OUTPUT of StarlightChains_v04.for    [Cid@UFSC - 01/Apr/2007] ##
###################################################################

## Some input info
2014ev.txt                               [arq_obs]
Base.CB07.vall.4m                        [arq_base]
Masks.EmLines.NEW.gm                     [arq_masks]
StCv04.C11.config                        [arq_config]
   66                                    [N_base]
    0                                    [N_YAV_components = # of components with extra extinction!]
    0                                    [i_FitPowerLaw (1/0 = Yes/No)]
-9.99                                    [alpha_PowerLaw]
CCM                                      [red_law_option]
 1.458241                                [q_norm = A(l_norm)/A(V)]

## (Re)Sampling Parameters
 3741.00                                 [l_ini (A)]
 7218.00                                 [l_fin (A)]
    1.00                                 [dl    (A)]     (OBS: dl_cushion =    50.00 A)

## Normalization info
 4020.00                                 [l_norm (A) - for base]
 4010.00                                 [llow_norm (A) - window for f_obs]
 4060.00                                 [lupp_norm (A) - window for f_obs]
1.690727E-17                             [fobs_norm (in input units)]

## S/N
 3691.00                                 [llow_SN (A) - window for S/N]
 7268.00                                 [lupp_SN (A) - window for S/N]
   6.003                                 [S/N in S/N window]
   7.512                                 [S/N in norm. window]
   8.932                                 [S/N_err in S/N window]
  11.179                                 [S/N_err in norm. window]
  1.0000                                 [fscale_chi2]

## etc...
    -2007421                             [idum_orig]
  2233                                   [NOl_eff]
  2233                                   [Nl_eff]
     0    NSIGMA                         [Ntot_cliped & clip_method]
   592620                                [Nglobal_steps]
   7                                     [N_chains]
   9                                     [NEX0s_base = N_base in EX0s-fits]
 0   0   1        1   2.0   2.266E+01    [Clip-Bug, RC-Crash & Burn-In warning-flags, n_censored_weights, wei_nsig_threshold & wei_limit]
    11     11.303     10.808      0.495  [idt_all, wdt_TotTime, wdt_UsrTime & wdt_SysTime (sec)]

## Synthesis Results - Best model ##

 3.43546E-01                             [chi2/Nl_eff]
     4.66103                             [adev (%)]

   109.77425                             [sum-of-x (%)]
 2.17178E-17                             [Flux_tot (units of input spectrum!)]
 5.15606E-14                             [Mini_tot (???)]
 3.21791E-14                             [Mcor_tot (???)]

 -94.95                                  [v0_min  (km/s)]
 172.80                                  [vd_min  (km/s)]
 0.1170                                  [AV_min  (mag)]
 0.0000                                  [YAV_min (mag)]

# j     x_j(%)      Mini_j(%)     Mcor_j(%)     age_j(yr)     Z_j      (L/M)_j    YAV?  Mstars   component_j        a/Fe...       SSP_chi2r SSP_adev(%)   SSP_AV   SSP_x(%)
  1      0.0000     0.0000E+00    0.0000E+00    1.000000E+06  0.00400  1.094E-02    0   1.0000   age020_m42            0.0000     4.7859E-01     6.1961   2.3208    94.4423
  2      0.0000     0.0000E+00    0.0000E+00    3.160000E+06  0.00400  4.007E-02    0   0.9999   age045_m42            0.0000     4.1108E-01     5.2777   1.6083   100.5057
  3      0.0000     0.0000E+00    0.0000E+00    5.010000E+06  0.00400  2.539E-02    0   0.9488   age055_m42            0.0000     4.3202E-01     5.6424   1.9216    98.2940
  4      0.0000     0.0000E+00    0.0000E+00    6.610000E+06  0.00400  2.620E-02    0   0.9220   age061_m42            0.0000     4.1280E-01     5.3295   1.5338   100.8685
  5      0.0000     0.0000E+00    0.0000E+00    1.000000E+07  0.00400  1.322E-02    0   0.8862   age070_m42            0.0000     4.8500E-01     6.0993   1.2291   104.5757
  6      0.0000     0.0000E+00    0.0000E+00    1.445000E+07  0.00400  7.883E-03    0   0.8571   age078_m42            0.0000     4.8366E-01     6.1556   1.5571   101.8035
  7      0.0000     0.0000E+00    0.0000E+00    2.512000E+07  0.00400  5.251E-03    0   0.8174   age090_m42            0.0000     5.1412E-01     6.3118   1.0944   105.4895
  8      0.0000     0.0000E+00    0.0000E+00    4.000000E+07  0.00400  3.649E-03    0   0.7851   age104_m42            0.0000     4.9019E-01     6.0787   0.8706   106.1644
  9      0.0000     0.0000E+00    0.0000E+00    5.500000E+07  0.00400  3.098E-03    0   0.7629   age110_m42            0.0000     4.4730E-01     5.6495   1.0386   105.3163
 10      0.0000     0.0000E+00    0.0000E+00    1.015200E+08  0.00400  2.228E-03    0   0.7207   age116_m42            0.0000     4.3337E-01     5.5602   1.0684   104.9623
 11      0.0000     0.0000E+00    0.0000E+00    2.861200E+08  0.00400  1.093E-03    0   0.6648   age125_m42            0.0000     4.6072E-01     5.8328   0.5064   108.2450
 12      0.0000     0.0000E+00    0.0000E+00    5.088000E+08  0.00400  6.597E-04    0   0.6365   age130_m42            0.0000     4.1981E-01     5.5975   0.5078   108.3416
 13      0.0000     0.0000E+00    0.0000E+00    1.434000E+09  0.00400  2.132E-04    0   0.5798   age139_m42            0.0000     3.8251E-01     5.0956  -0.4600   110.0630
 14      0.0000     0.0000E+00    0.0000E+00    4.250000E+09  0.00400  5.895E-05    0   0.5377   age158_m42            0.0000     3.3827E-01     4.7775  -0.8843   104.6367
 15      0.0000     0.0000E+00    0.0000E+00    7.500000E+09  0.00400  3.510E-05    0   0.5212   age171_m42            0.0000     3.7411E-01     5.1831  -1.0000   100.8736
 16      0.0000     0.0000E+00    0.0000E+00    1.300000E+10  0.00400  2.005E-05    0   0.5034   age193_m42            0.0000     5.2963E-01     6.5818  -1.0000    93.7413
 17      0.0000     0.0000E+00    0.0000E+00    1.800000E+10  0.00400  1.525E-05    0   0.4967   age213_m42            0.0000     5.6014E-01     6.7740  -1.0000    92.4476
 18      0.0000     0.0000E+00    0.0000E+00    1.000000E+06  0.00800  1.238E-02    0   1.0000   age020_m52            0.0000     4.7823E-01     6.2028   2.3172    94.6172
 19      0.0000     0.0000E+00    0.0000E+00    3.160000E+06  0.00800  3.074E-02    0   0.9966   age045_m52            0.0000     4.6658E-01     6.1053   2.2409    95.4153
 20      0.0000     0.0000E+00    0.0000E+00    5.010000E+06  0.00800  2.668E-02    0   0.9443   age055_m52            0.0000     4.3652E-01     5.7769   2.0007    97.5405
 21     39.2638     7.0532E-01    1.0371E+00    6.610000E+06  0.00800  2.136E-02    0   0.9177   age061_m52            0.0000     4.3332E-01     5.8532   0.7275   105.6361
 22      0.0000     0.0000E+00    0.0000E+00    1.000000E+07  0.00800  1.215E-02    0   0.8827   age070_m52            0.0000     5.2152E-01     6.4630   1.4050   104.6983
 23      0.0000     0.0000E+00    0.0000E+00    1.445000E+07  0.00800  8.717E-03    0   0.8552   age078_m52            0.0000     4.7940E-01     6.1073   1.5224   103.2370
 24      0.0000     0.0000E+00    0.0000E+00    2.512000E+07  0.00800  5.592E-03    0   0.8162   age090_m52            0.0000     5.1733E-01     6.3149   1.1611   106.7044
 25      0.0000     0.0000E+00    0.0000E+00    4.000000E+07  0.00800  3.896E-03    0   0.7841   age104_m52            0.0000     4.8896E-01     6.0224   1.0840   107.0036
 26      0.0000     0.0000E+00    0.0000E+00    1.015200E+08  0.00800  2.148E-03    0   0.7226   age116_m52            0.0000     4.3986E-01     5.6308   1.0337   106.0579
 27      0.0000     0.0000E+00    0.0000E+00    2.861200E+08  0.00800  9.925E-04    0   0.6683   age125_m52            0.0000     4.2239E-01     5.6291   0.5736   109.3161
 28      0.0000     0.0000E+00    0.0000E+00    9.047900E+08  0.00800  3.141E-04    0   0.6138   age135_m52            0.0000     3.9231E-01     5.3069  -0.1966   112.2038
 29      0.0000     0.0000E+00    0.0000E+00    1.434000E+09  0.00800  1.719E-04    0   0.5853   age139_m52            0.0000     3.7136E-01     4.9671  -0.7735   109.6992
 30      0.0000     0.0000E+00    0.0000E+00    2.500000E+09  0.00800  7.872E-05    0   0.5600   age150_m52            0.0000     3.8854E-01     5.2860  -1.0000   104.4777
 31      0.0000     0.0000E+00    0.0000E+00    4.250000E+09  0.00800  4.336E-05    0   0.5426   age158_m52            0.0000     3.9942E-01     5.3917  -1.0000   102.8276
 32      0.0000     0.0000E+00    0.0000E+00    6.250000E+09  0.00800  3.159E-05    0   0.5319   age166_m52            0.0000     6.0384E-01     7.2420  -1.0000    94.5407
 33      0.0000     0.0000E+00    0.0000E+00    1.300000E+10  0.00800  1.361E-05    0   0.5073   age193_m52            0.0000     1.7778E+00    13.4321  -1.0000    76.7266
 34      0.0000     0.0000E+00    0.0000E+00    1.800000E+10  0.00800  9.886E-06    0   0.4990   age213_m52            0.0000     2.1468E+00    14.9005  -1.0000    72.7238
 35      0.0000     0.0000E+00    0.0000E+00    1.000000E+06  0.02000  1.544E-02    0   1.0000   age020_m62            0.0000     4.7952E-01     6.2308   2.3126    94.8524
 36      0.0000     0.0000E+00    0.0000E+00    3.160000E+06  0.02000  3.762E-02    0   0.9858   age045_m62            0.0000     4.7159E-01     6.1751   2.2528    95.6236
 37      0.0000     0.0000E+00    0.0000E+00    5.010000E+06  0.02000  3.296E-02    0   0.9342   age055_m62            0.0000     4.1332E-01     5.4102   1.8869    99.2468
 38      0.0000     0.0000E+00    0.0000E+00    8.710000E+06  0.02000  1.154E-02    0   0.8861   age067_m62            0.0000     9.9998E-01     9.4433   0.8130   110.9156
 39      0.0000     0.0000E+00    0.0000E+00    1.445000E+07  0.02000  7.663E-03    0   0.8472   age078_m62            0.0000     6.0399E-01     7.1346   1.0442   107.8965
 40      0.0000     0.0000E+00    0.0000E+00    2.512000E+07  0.02000  4.532E-03    0   0.8099   age090_m62            0.0000     6.4265E-01     7.3250   1.0372   107.7150
 41      0.0000     0.0000E+00    0.0000E+00    5.500000E+07  0.02000  2.733E-03    0   0.7595   age110_m62            0.0000     4.8126E-01     6.0287   1.0646   106.2932
 42      0.0000     0.0000E+00    0.0000E+00    1.609000E+08  0.02000  1.369E-03    0   0.6985   age120_m62            0.0000     4.4967E-01     5.7713   0.9234   108.0694
 43      0.0000     0.0000E+00    0.0000E+00    2.861200E+08  0.02000  9.013E-04    0   0.6714   age125_m62            0.0000     4.5019E-01     5.8970   0.6818   110.6276
 44      0.0000     0.0000E+00    0.0000E+00    5.088000E+08  0.02000  5.028E-04    0   0.6449   age130_m62            0.0000     4.0904E-01     5.6386   0.3286   112.0813
 45     49.4218     7.8103E+01    7.7327E+01    9.047900E+08  0.02000  2.428E-04    0   0.6179   age135_m62            0.0000     3.6780E-01     5.1834  -0.2427   110.5377
 46      0.0017     5.1316E-03    4.8577E-03    1.434000E+09  0.02000  1.263E-04    0   0.5908   age139_m62            0.0000     3.8732E-01     5.2250  -0.6814   108.4931
 47      0.0000     0.0000E+00    0.0000E+00    2.500000E+09  0.02000  5.985E-05    0   0.5673   age150_m62            0.0000     4.5477E-01     5.8496  -1.0000   104.6594
 48      0.0000     0.0000E+00    0.0000E+00    4.250000E+09  0.02000  3.271E-05    0   0.5468   age158_m62            0.0000     8.3657E-01     8.8038  -1.0000    91.3316
 49      0.0000     0.0000E+00    0.0000E+00    1.000000E+10  0.02000  1.360E-05    0   0.5167   age181_m62            0.0000     1.7633E+00    13.3315  -1.0000    78.2122
 50      0.0000     0.0000E+00    0.0000E+00    1.800000E+10  0.02000  7.124E-06    0   0.5013   age213_m62            0.0000     2.4940E+00    16.1120  -1.0000    70.6598
 51      0.0000     0.0000E+00    0.0000E+00    1.000000E+06  0.05000  2.592E-02    0   0.9998   age020_m72            0.0000     4.9020E-01     6.3511   2.3016    94.9793
 52      0.0000     0.0000E+00    0.0000E+00    3.160000E+06  0.05000  4.845E-02    0   0.9577   age045_m72            0.0000     4.4940E-01     5.8627   2.1418    96.6387
 53      0.0000     0.0000E+00    0.0000E+00    5.010000E+06  0.05000  3.072E-02    0   0.9147   age055_m72            0.0000     5.0147E-01     6.4059   1.6585   102.2904
 54      0.0000     0.0000E+00    0.0000E+00    6.610000E+06  0.05000  1.455E-02    0   0.8877   age061_m72            0.0000     1.3290E+00    10.9039   0.8948   111.9142
 55      0.0000     0.0000E+00    0.0000E+00    1.000000E+07  0.05000  9.074E-03    0   0.8524   age070_m72            0.0000     5.2622E-01     6.4619   1.8759   101.0577
 56      0.0000     0.0000E+00    0.0000E+00    2.512000E+07  0.05000  4.250E-03    0   0.7902   age090_m72            0.0000     5.2388E-01     6.3072   1.5549   103.6530
 57      0.0000     0.0000E+00    0.0000E+00    4.000000E+07  0.05000  3.087E-03    0   0.7618   age104_m72            0.0000     5.6021E-01     6.4875   1.3228   105.6986
 58      0.0000     0.0000E+00    0.0000E+00    1.015200E+08  0.05000  1.700E-03    0   0.7096   age116_m72            0.0000     4.8343E-01     5.9933   1.0614   108.0903
 59      0.0000     0.0000E+00    0.0000E+00    2.861200E+08  0.05000  7.384E-04    0   0.6633   age125_m72            0.0000     4.3568E-01     5.8369   0.5643   111.3047
 60     21.0870     2.1187E+01    2.1631E+01    5.088000E+08  0.05000  3.819E-04    0   0.6372   age130_m72            0.0000     3.9036E-01     5.3586   0.0881   111.9338
 61      0.0000     0.0000E+00    0.0000E+00    9.047900E+08  0.05000  1.676E-04    0   0.6110   age135_m72            0.0000     4.3686E-01     5.7179  -0.5783   108.1246
 62      0.0000     0.0000E+00    0.0000E+00    1.434000E+09  0.05000  8.837E-05    0   0.5874   age139_m72            0.0000     4.9478E-01     6.1270  -1.0000   106.1502
 63      0.0000     0.0000E+00    0.0000E+00    2.500000E+09  0.05000  4.233E-05    0   0.5598   age150_m72            0.0000     8.6830E-01     8.9867  -1.0000    92.0313
 64      0.0000     0.0000E+00    0.0000E+00    6.250000E+09  0.05000  1.435E-05    0   0.5249   age166_m72            0.0000     2.0963E+00    14.6355  -1.0000    74.6011
 65      0.0000     0.0000E+00    0.0000E+00    1.300000E+10  0.05000  6.513E-06    0   0.5036   age193_m72            0.0000     3.1700E+00    18.2769  -1.0000    66.3726
 66      0.0000     0.0000E+00    0.0000E+00    1.800000E+10  0.05000  4.527E-06    0   0.4945   age213_m72            0.0000     3.8641E+00    20.2351  -1.0000    61.5374


## Synthesis Results - Average & Chains ##

# j      x_j: min, <> & last-chain-values for 1 ...  7 chains
  1      0.0000      0.1837      0.0000      0.0000      0.0000      1.4899      0.0000      0.0000      0.0000
  2      0.0000      1.1789      0.9894      0.0000      2.7097      4.0720      0.0000      4.0660      2.2386
  3      0.0000      0.3891      1.4778      0.0000      0.0000      1.2768      0.0000      0.0000      0.0000
  4      0.0000      0.6904      0.2087      0.0000      2.2453      0.1532      0.0574      0.0000      0.0000
  5      0.0000      0.3725      0.0000      0.0000      1.0515      0.0000      0.0000      0.0000      2.8278
  6      0.0000      0.1937      0.6542      0.0000      0.0000      0.0000      0.0000      0.0000      0.0029
  7      0.0000      0.6009      0.0000      0.0000      0.0000      0.0000      1.2376      0.0000      1.6113
  8      0.0000      0.5623      0.8205      0.0000      4.3472      0.6164      0.0000      0.0000      0.0347
  9      0.0000      0.9033      0.0000      0.0000      0.0000      0.6171      1.5182      0.6904      0.0000
 10      0.0000      0.4067      0.0000      1.0610      0.0000      0.0000      0.0000      0.0000      0.0000
 11      0.0000      0.7869      0.0000      0.1099      0.0000      0.2554      0.0000      0.0000      0.7046
 12      0.0000      3.1937      0.0000      0.2078      3.8396      0.0000      7.6952      0.0000      2.8813
 13      0.0000      0.1391      0.0000      0.0000      0.0000      0.0000      0.0000      0.0000      0.0000
 14      0.0000      0.2396      0.0000      0.0000      0.0000      0.0000      0.0000      0.0000      0.0000
 15      0.0000      0.0221      0.0000      0.0000      0.0000      0.0000      0.0000      0.0000      0.0000
 16      0.0000      0.0111      0.0000      0.0000      0.0000      0.0000      0.0000      0.0000      0.0000
 17      0.0000      0.0105      0.0000      0.0000      0.0000      0.0000      0.0000      0.0034      0.0000
 18      0.0000      0.2904      0.0000      0.3058      0.0000      0.0000      0.0000      0.0000      0.0000
 19      0.0000      0.4622      0.0000      1.8440      0.0000      1.2050      0.0000      0.0000      1.4664
 20      0.0000      0.4205      0.0000      0.0000      0.1712      0.0000      0.0000      1.2395      0.0000
 21     39.2638     27.5417     35.2033     32.9931     32.1420     32.3998     29.8616     33.0745     37.0565
 22      0.0000      0.1748      0.0000      0.9489      0.0000      0.1703      0.0000      0.0000      0.0000
 23      0.0000      0.3085      0.0000      0.2294      0.0000      0.2630      0.0000      0.0000      0.0000
 24      0.0000      0.2565      0.0000      0.0000      0.0000      0.0000      0.0000      0.0000      0.0000
 25      0.0000      0.4290      0.0000      0.0000      0.0000      1.4211      0.0000      0.0000      0.0000
 26      0.0000      0.5607      0.0000      0.2874      0.0000      0.0407      0.0000      0.5036      0.0000
 27      0.0000      1.2866      1.5657      0.0000      0.0000      0.0000      0.0000      0.9966      0.0000
 28      0.0000      0.5330      0.0000      0.0918      1.3750      0.0000      0.0000      0.0000      0.6468
 29      0.0000      0.1565      0.0000      0.0000      0.0000      0.1084      0.3007      0.0000      0.0000
 30      0.0000      0.0394      0.0000      0.0000      0.0000      0.0000      0.0000      0.0000      0.0000
 31      0.0000      0.0403      0.0000      0.0000      0.0000      0.0000      0.0000      0.0000      0.0000
 32      0.0000      0.0446      0.0000      0.0000      0.1717      0.0000      0.0000      0.0000      0.0000
 33      0.0000      0.0130      0.0000      0.0000      0.0000      0.0000      0.0000      0.0000      0.0000
 34      0.0000      0.0057      0.0000      0.0000      0.0000      0.0000      0.0000      0.0000      0.0000
 35      0.0000      0.2027      0.0000      0.0000      0.0000      0.0000      0.0000      0.0000      0.0000
 36      0.0000      0.2863      1.1961      0.0000      0.0000      0.6206      0.0000      0.1655      0.0000
 37      0.0000      0.4021      0.0000      0.0000      0.0000      0.0000      0.0948      0.0000      0.0000
 38      0.0000      0.0715      0.0000      0.0000      0.0000      0.0000      0.0000      0.0000      0.0000
 39      0.0000      0.1788      0.1860      0.0000      0.0000      0.0000      0.0000      0.0000      0.0000
 40      0.0000      0.2396      0.3374      0.0000      0.1248      0.0000      0.0000      0.9374      0.0000
 41      0.0000      0.3600      0.5942      1.1818      0.6794      0.0000      0.0000      0.0000      0.0000
 42      0.0000      0.4681      0.0000      0.0000      0.0000      0.2425      0.0870      0.5931      0.0000
 43      0.0000      0.5520      0.0000      0.0000      0.0000      0.0000      0.0000      2.5442      0.0000
 44      0.0000     23.1575     23.7993     30.8978     18.3581     23.3355      0.0000     15.5046     14.5698
 45     49.4218      5.9582      4.7832      8.6158      6.5174      6.0341      8.1197      7.3200      6.3322
 46      0.0017      0.2420      0.0000      0.0000      0.0000      1.3340      1.4586      0.0000      0.0000
