###################################################################
## OUTPUT of StarlightChains_v04.for    [Cid@UFSC - 01/Apr/2007] ##
###################################################################

## Some input info
2014aa.txt                               [arq_obs]
Base.CB07.vall.4m                        [arq_base]
Masks.EmLines.NEW.gm                     [arq_masks]
StCv04.C11.config                        [arq_config]
   66                                    [N_base]
    0                                    [N_YAV_components = # of components with extra extinction!]
    0                                    [i_FitPowerLaw (1/0 = Yes/No)]
-9.99                                    [alpha_PowerLaw]
CCM                                      [red_law_option]
 1.458241                                [q_norm = A(l_norm)/A(V)]

## (Re)Sampling Parameters
 3741.00                                 [l_ini (A)]
 7218.00                                 [l_fin (A)]
    1.00                                 [dl    (A)]     (OBS: dl_cushion =    50.00 A)

## Normalization info
 4020.00                                 [l_norm (A) - for base]
 4010.00                                 [llow_norm (A) - window for f_obs]
 4060.00                                 [lupp_norm (A) - window for f_obs]
6.789856E-16                             [fobs_norm (in input units)]

## S/N
 3691.00                                 [llow_SN (A) - window for S/N]
 7268.00                                 [lupp_SN (A) - window for S/N]
   3.906                                 [S/N in S/N window]
   2.449                                 [S/N in norm. window]
  46.217                                 [S/N_err in S/N window]
  28.971                                 [S/N_err in norm. window]
  1.0000                                 [fscale_chi2]

## etc...
    -2007415                             [idum_orig]
  2382                                   [NOl_eff]
  2289                                   [Nl_eff]
    93    NSIGMA                         [Ntot_cliped & clip_method]
  1210230                                [Nglobal_steps]
   7                                     [N_chains]
  12                                     [NEX0s_base = N_base in EX0s-fits]
 0   0   1       12   2.0   9.335E+01    [Clip-Bug, RC-Crash & Burn-In warning-flags, n_censored_weights, wei_nsig_threshold & wei_limit]
    16     15.077     14.582      0.495  [idt_all, wdt_TotTime, wdt_UsrTime & wdt_SysTime (sec)]

## Synthesis Results - Best model ##

 1.55105E+00                             [chi2/Nl_eff]
     3.00026                             [adev (%)]

   122.45927                             [sum-of-x (%)]
 8.12718E-16                             [Flux_tot (units of input spectrum!)]
 6.32667E-11                             [Mini_tot (???)]
 3.23146E-11                             [Mcor_tot (???)]

 -23.52                                  [v0_min  (km/s)]
 237.27                                  [vd_min  (km/s)]
-0.0170                                  [AV_min  (mag)]
 0.0000                                  [YAV_min (mag)]

# j     x_j(%)      Mini_j(%)     Mcor_j(%)     age_j(yr)     Z_j      (L/M)_j    YAV?  Mstars   component_j        a/Fe...       SSP_chi2r SSP_adev(%)   SSP_AV   SSP_x(%)
  1      0.0000     0.0000E+00    0.0000E+00    1.000000E+06  0.00400  1.094E-02    0   1.0000   age020_m42            0.0000     2.8511E+01    13.6145   3.8278   112.6674
  2      0.0000     0.0000E+00    0.0000E+00    3.160000E+06  0.00400  4.007E-02    0   0.9999   age045_m42            0.0000     2.5803E+01    13.2052   3.0663   122.6573
  3      0.0000     0.0000E+00    0.0000E+00    5.010000E+06  0.00400  2.539E-02    0   0.9488   age055_m42            0.0000     2.6859E+01    13.4576   3.3961   119.0082
  4      0.0000     0.0000E+00    0.0000E+00    6.610000E+06  0.00400  2.620E-02    0   0.9220   age061_m42            0.0000     2.5660E+01    13.3815   2.9749   124.0009
  5      0.0000     0.0000E+00    0.0000E+00    1.000000E+07  0.00400  1.322E-02    0   0.8862   age070_m42            0.0000     2.9094E+01    15.7151   2.5839   133.3696
  6      0.0000     0.0000E+00    0.0000E+00    1.445000E+07  0.00400  7.883E-03    0   0.8571   age078_m42            0.0000     2.9948E+01    15.5902   2.9334   128.5438
  7      0.0000     0.0000E+00    0.0000E+00    2.512000E+07  0.00400  5.251E-03    0   0.8174   age090_m42            0.0000     3.0044E+01    16.1645   2.4309   135.6104
  8      0.0000     0.0000E+00    0.0000E+00    4.000000E+07  0.00400  3.649E-03    0   0.7851   age104_m42            0.0000     2.8238E+01    15.7204   2.2085   136.4702
  9      0.0000     0.0000E+00    0.0000E+00    5.500000E+07  0.00400  3.098E-03    0   0.7629   age110_m42            0.0000     2.6162E+01    14.5397   2.4035   133.8520
 10      0.0000     0.0000E+00    0.0000E+00    1.015200E+08  0.00400  2.228E-03    0   0.7207   age116_m42            0.0000     2.4631E+01    13.7154   2.4493   132.5372
 11      0.0000     0.0000E+00    0.0000E+00    2.861200E+08  0.00400  1.093E-03    0   0.6648   age125_m42            0.0000     2.6333E+01    14.6875   1.8124   141.1284
 12      0.0000     0.0000E+00    0.0000E+00    5.088000E+08  0.00400  6.597E-04    0   0.6365   age130_m42            0.0000     2.1770E+01    13.0490   1.8485   139.2943
 13      0.0000     0.0000E+00    0.0000E+00    1.434000E+09  0.00400  2.132E-04    0   0.5798   age139_m42            0.0000     1.2697E+01    11.1630   0.8980   140.7822
 14      0.0000     0.0000E+00    0.0000E+00    4.250000E+09  0.00400  5.895E-05    0   0.5377   age158_m42            0.0000     8.2575E+00     9.1323   0.5459   129.8429
 15      0.0000     0.0000E+00    0.0000E+00    7.500000E+09  0.00400  3.510E-05    0   0.5212   age171_m42            0.0000     6.6226E+00     8.2077   0.3845   127.4492
 16      0.0000     0.0000E+00    0.0000E+00    1.300000E+10  0.00400  2.005E-05    0   0.5034   age193_m42            0.0000     5.5932E+00     7.4734   0.2421   125.4883
 17      0.0000     0.0000E+00    0.0000E+00    1.800000E+10  0.00400  1.525E-05    0   0.4967   age213_m42            0.0000     5.7441E+00     7.6129   0.2147   125.1710
 18      0.0000     0.0000E+00    0.0000E+00    1.000000E+06  0.00800  1.238E-02    0   1.0000   age020_m52            0.0000     2.8371E+01    13.5785   3.8255   112.8104
 19      0.0000     0.0000E+00    0.0000E+00    3.160000E+06  0.00800  3.074E-02    0   0.9966   age045_m52            0.0000     2.7813E+01    13.4074   3.7524   113.6233
 20      0.0000     0.0000E+00    0.0000E+00    5.010000E+06  0.00800  2.668E-02    0   0.9443   age055_m52            0.0000     2.6708E+01    13.5024   3.4797   117.8514
 21      0.0000     0.0000E+00    0.0000E+00    6.610000E+06  0.00800  2.136E-02    0   0.9177   age061_m52            0.0000     2.4393E+01    14.9175   2.0998   133.8678
 22      0.0000     0.0000E+00    0.0000E+00    1.000000E+07  0.00800  1.215E-02    0   0.8827   age070_m52            0.0000     3.1329E+01    16.5474   2.7347   134.8434
 23      0.0000     0.0000E+00    0.0000E+00    1.445000E+07  0.00800  8.717E-03    0   0.8552   age078_m52            0.0000     2.8865E+01    15.5501   2.8905   130.8553
 24      0.0000     0.0000E+00    0.0000E+00    2.512000E+07  0.00800  5.592E-03    0   0.8162   age090_m52            0.0000     2.9539E+01    16.2381   2.4826   138.0227
 25      0.0000     0.0000E+00    0.0000E+00    4.000000E+07  0.00800  3.896E-03    0   0.7841   age104_m52            0.0000     2.8099E+01    15.6615   2.4058   138.4489
 26      0.0000     0.0000E+00    0.0000E+00    1.015200E+08  0.00800  2.148E-03    0   0.7226   age116_m52            0.0000     2.4925E+01    14.3060   2.3866   135.5286
 27      0.0000     0.0000E+00    0.0000E+00    2.861200E+08  0.00800  9.925E-04    0   0.6683   age125_m52            0.0000     2.1145E+01    12.9768   1.9070   140.9711
 28      3.3203     1.1089E-01    1.3326E-01    9.047900E+08  0.00800  3.141E-04    0   0.6138   age135_m52            0.0000     1.2767E+01    10.4065   1.1537   143.9272
 29      0.0000     0.0000E+00    0.0000E+00    1.434000E+09  0.00800  1.719E-04    0   0.5853   age139_m52            0.0000     9.7645E+00     9.7816   0.5911   139.8969
 30      0.0000     0.0000E+00    0.0000E+00    2.500000E+09  0.00800  7.872E-05    0   0.5600   age150_m52            0.0000     5.4462E+00     7.5368   0.4109   130.6561
 31      0.0000     0.0000E+00    0.0000E+00    4.250000E+09  0.00800  4.336E-05    0   0.5426   age158_m52            0.0000     5.4560E+00     7.4357   0.4031   128.9943
 32      0.0000     0.0000E+00    0.0000E+00    6.250000E+09  0.00800  3.159E-05    0   0.5319   age166_m52            0.0000     3.8639E+00     6.1410   0.2389   126.8047
 33      0.0000     0.0000E+00    0.0000E+00    1.300000E+10  0.00800  1.361E-05    0   0.5073   age193_m52            0.0000     2.2944E+00     4.5475  -0.1790   123.1322
 34      0.0000     0.0000E+00    0.0000E+00    1.800000E+10  0.00800  9.886E-06    0   0.4990   age213_m52            0.0000     1.8792E+00     3.6378  -0.2436   120.1499
 35      0.0000     0.0000E+00    0.0000E+00    1.000000E+06  0.02000  1.544E-02    0   1.0000   age020_m62            0.0000     2.8383E+01    13.5850   3.8219   113.0528
 36      0.0000     0.0000E+00    0.0000E+00    3.160000E+06  0.02000  3.762E-02    0   0.9858   age045_m62            0.0000     2.8155E+01    13.4835   3.7657   113.7859
 37      0.0000     0.0000E+00    0.0000E+00    5.010000E+06  0.02000  3.296E-02    0   0.9342   age055_m62            0.0000     2.5492E+01    13.0555   3.3614   120.2165
 38      0.0000     0.0000E+00    0.0000E+00    8.710000E+06  0.02000  1.154E-02    0   0.8861   age067_m62            0.0000     5.2170E+01    22.4373   2.0007   151.4319
 39      0.0000     0.0000E+00    0.0000E+00    1.445000E+07  0.02000  7.663E-03    0   0.8472   age078_m62            0.0000     3.6069E+01    18.2351   2.3112   142.6439
 40      0.0000     0.0000E+00    0.0000E+00    2.512000E+07  0.02000  4.532E-03    0   0.8099   age090_m62            0.0000     3.8083E+01    18.6513   2.2861   143.4802
 41      0.0000     0.0000E+00    0.0000E+00    5.500000E+07  0.02000  2.733E-03    0   0.7595   age110_m62            0.0000     2.7248E+01    15.5189   2.3939   137.1025
 42      0.0000     0.0000E+00    0.0000E+00    1.609000E+08  0.02000  1.369E-03    0   0.6985   age120_m62            0.0000     2.3369E+01    13.7304   2.2683   138.6432
 43      0.0000     0.0000E+00    0.0000E+00    2.861200E+08  0.02000  9.013E-04    0   0.6714   age125_m62            0.0000     2.0057E+01    12.5240   2.0317   141.7719
 44      0.0000     0.0000E+00    0.0000E+00    5.088000E+08  0.02000  5.028E-04    0   0.6449   age130_m62            0.0000     1.4782E+01    10.3889   1.7116   141.7795
 45      0.0000     0.0000E+00    0.0000E+00    9.047900E+08  0.02000  2.428E-04    0   0.6179   age135_m62            0.0000     9.1208E+00     8.8554   1.1633   138.5533
 46      0.0000     0.0000E+00    0.0000E+00    1.434000E+09  0.02000  1.263E-04    0   0.5908   age139_m62            0.0000     6.3032E+00     7.8638   0.7475   134.7553
 47      0.0001     1.7161E-05    1.9060E-05    2.500000E+09  0.02000  5.985E-05    0   0.5673   age150_m62            0.0000     3.9873E+00     6.1206   0.4468   128.9915
 48      0.0000     0.0000E+00    0.0000E+00    4.250000E+09  0.02000  3.271E-05    0   0.5468   age158_m62            0.0000     2.3336E+00     4.3743   0.2057   124.2360
 49     18.7290     1.4446E+01    1.4614E+01    1.000000E+10  0.02000  1.360E-05    0   0.5167   age181_m62            0.0000     1.5784E+00     2.7714  -0.0812   120.3849
 50     32.5053     4.7863E+01    4.6976E+01    1.800000E+10  0.02000  7.124E-06    0   0.5013   age213_m62            0.0000     1.8071E+00     2.3069  -0.2374   116.5899
 51      0.0000     0.0000E+00    0.0000E+00    1.000000E+06  0.05000  2.592E-02    0   0.9998   age020_m72            0.0000     2.8649E+01    13.6630   3.8123   113.1194
 52      0.0000     0.0000E+00    0.0000E+00    3.160000E+06  0.05000  4.845E-02    0   0.9577   age045_m72            0.0000     2.6967E+01    13.1362   3.6488   115.3546
 53      0.0000     0.0000E+00    0.0000E+00    5.010000E+06  0.05000  3.072E-02    0   0.9147   age055_m72            0.0000     3.5080E+01    16.7226   2.9801   131.9112
 54      0.0000     0.0000E+00    0.0000E+00    6.610000E+06  0.05000  1.455E-02    0   0.8877   age061_m72            0.0000     9.6206E+01    27.1914   1.9431   160.8966
 55      0.0000     0.0000E+00    0.0000E+00    1.000000E+07  0.05000  9.074E-03    0   0.8524   age070_m72            0.0000     4.7894E+01    17.7811   3.1467   132.7742
 56      0.0000     0.0000E+00    0.0000E+00    2.512000E+07  0.05000  4.250E-03    0   0.7902   age090_m72            0.0000     3.9283E+01    17.2173   2.8293   136.3308
 57      0.0000     0.0000E+00    0.0000E+00    4.000000E+07  0.05000  3.087E-03    0   0.7618   age104_m72            0.0000     4.0028E+01    17.6027   2.5735   140.4880
 58      0.0000     0.0000E+00    0.0000E+00    1.015200E+08  0.05000  1.700E-03    0   0.7096   age116_m72            0.0000     2.6725E+01    14.8013   2.3761   140.3152
 59      0.0000     0.0000E+00    0.0000E+00    2.861200E+08  0.05000  7.384E-04    0   0.6633   age125_m72            0.0000     1.6643E+01    11.2850   1.9276   141.9118
 60      3.1907     8.7642E-02    1.0934E-01    5.088000E+08  0.05000  3.819E-04    0   0.6372   age130_m72            0.0000     1.0373E+01     9.0096   1.5027   139.7845
 61      2.6095     1.6332E-01    1.9538E-01    9.047900E+08  0.05000  1.676E-04    0   0.6110   age135_m72            0.0000     5.3810E+00     6.4254   0.9079   131.1181
 62      0.8214     9.7501E-02    1.1213E-01    1.434000E+09  0.05000  8.837E-05    0   0.5874   age139_m72            0.0000     3.3414E+00     5.6490   0.4519   130.5392
 63     45.8581     1.1364E+01    1.2455E+01    2.500000E+09  0.05000  4.233E-05    0   0.5598   age150_m72            0.0000     2.0176E+00     3.8219   0.2252   124.1433
 64      1.8854     1.3782E+00    1.4164E+00    6.250000E+09  0.05000  1.435E-05    0   0.5249   age166_m72            0.0000     1.7458E+00     2.5340  -0.1545   118.5898
 65      9.7439     1.5694E+01    1.5473E+01    1.300000E+10  0.05000  6.513E-06    0   0.5036   age193_m72            0.0000     2.4789E+00     2.5612  -0.3678   116.1848
 66      3.7956     8.7951E+00    8.5150E+00    1.800000E+10  0.05000  4.527E-06    0   0.4945   age213_m72            0.0000     3.4905E+00     3.3260  -0.4872   113.7879


## Synthesis Results - Average & Chains ##

# j      x_j: min, <> & last-chain-values for 1 ...  7 chains
  1      0.0000      0.0022      0.0000      0.0000      0.0000      0.0000      0.0000      0.0000      0.0000
  2      0.0000      0.0084      0.0000      0.0000      0.0000      0.0000      0.0000      0.0000      0.0000
  3      0.0000      0.0038      0.0000      0.0000      0.0000      0.0000      0.0000      0.0000      0.0000
  4      0.0000      0.0053      0.0000      0.0000      0.0000      0.0000      0.0000      0.0000      0.0000
  5      0.0000      0.0054      0.0000      0.0000      0.0000      0.0000      0.0000      0.0051      0.0000
  6      0.0000      0.0075      0.0000      0.0000      0.0000      0.0000      0.0000      0.0000      0.0000
  7      0.0000      0.0060      0.0000      0.0000      0.0000      0.0000      0.0000      0.0000      0.0000
  8      0.0000      0.0072      0.0000      0.0000      0.0000      0.0000      0.0000      0.0000      0.0000
  9      0.0000      0.0171      0.0000      0.0000      0.0024      0.0000      0.0000      0.0000      0.0000
 10      0.0000      0.0211      0.0000      0.0000      0.0000      0.0000      0.0000      0.0000      0.0000
 11      0.0000      0.0206      0.0000      0.0026      0.0000      0.0000      0.0000      0.0000      0.0000
 12      0.0000      0.0205      0.0000      0.0665      0.0806      0.0000      0.0000      0.0000      0.0000
 13      0.0000      0.1300      0.2495      0.3912      0.0000      0.0815      0.0000      0.1034      0.0000
 14      0.0000      0.0536      0.1498      0.0551      0.0000      0.0000      0.2570      0.0000      0.1226
 15      0.0000      0.0628      0.0000      0.0403      0.0000      0.0000      0.0000      0.0000      0.0000
 16      0.0000      0.0676      0.0213      0.0000      0.0000      0.0000      0.0000      0.0000      0.0000
 17      0.0000      0.0561      0.0000      0.0000      0.1717      0.0000      0.0000      0.0000      0.0000
 18      0.0000      0.0030      0.0002      0.0000      0.0000      0.0000      0.0404      0.0000      0.0000
 19      0.0000      0.0032      0.0000      0.0000      0.0000      0.0000      0.0000      0.0000      0.0000
 20      0.0000      0.0046      0.0000      0.0000      0.0000      0.0000      0.0000      0.0000      0.0000
 21      0.0000      0.0044      0.0000      0.0000      0.0000      0.0000      0.0000      0.0000      0.0000
 22      0.0000      0.0105      0.0000      0.0000      0.0000      0.0000      0.0000      0.0000      0.0000
 23      0.0000      0.0072      0.0000      0.0000      0.0000      0.0000      0.0000      0.0000      0.0000
 24      0.0000      0.0047      0.0000      0.0000      0.0000      0.0000      0.0000      0.0000      0.0069
 25      0.0000      0.0134      0.0000      0.0000      0.0000      0.0000      0.0000      0.0000      0.0000
 26      0.0000      0.0150      0.1012      0.0000      0.0000      0.0000      0.0000      0.0000      0.0000
 27      0.0000      0.0447      0.0294      0.0284      0.0000      0.0000      0.0000      0.0000      0.0000
 28      3.3203      0.7811      1.1370      1.3025      0.7928      1.0013      0.8993      0.8210      0.6559
 29      0.0000      0.5078      0.5056      0.0000      0.9263      0.8380      0.2792      0.6458      0.7301
 30      0.0000      0.1215      0.0000      0.0000      0.0423      0.1171      0.0798      0.0000      0.0000
 31      0.0000      0.1194      0.0259      0.0000      0.1435      0.0000      0.0000      0.0000      0.0000
 32      0.0000      0.1446      0.2960      0.0703      0.0000      0.0000      0.4110      0.0000      0.0000
 33      0.0000      0.0676      0.0000      0.0000      0.0000      0.0000      0.0000      0.0000      0.0000
 34      0.0000      0.0924      0.0281      0.0000      0.1296      0.0000      0.0000      0.0000      0.0000
 35      0.0000      0.0028      0.0000      0.0000      0.0000      0.0000      0.0000      0.0000      0.0000
 36      0.0000      0.0017      0.0000      0.0000      0.0000      0.0000      0.0000      0.0000      0.0000
 37      0.0000      0.0079      0.0000      0.0000      0.0000      0.0000      0.0000      0.0000      0.0000
 38      0.0000      0.0042      0.0000      0.0000      0.0000      0.0000      0.0000      0.0000      0.0000
 39      0.0000      0.0081      0.0000      0.0000      0.0000      0.0000      0.0000      0.0000      0.0000
 40      0.0000      0.0065      0.0000      0.0114      0.0000      0.0000      0.0087      0.0000      0.0000
 41      0.0000      0.0082      0.0000      0.0000      0.0000      0.0000      0.0000      0.0000      0.0000
 42      0.0000      0.0274      0.0000      0.0000      0.0000      0.0000      0.0000      0.2356      0.0000
 43      0.0000      0.0474      0.0000      0.0000      0.1060      0.0000      0.0908      0.0000      0.0000
 44      0.0000      0.2179      0.3959      0.0000      0.0000      0.3254      0.4677      0.3910      0.0710
 45      0.0000      0.3717      0.5230      0.3266      0.4750      0.5756      0.3080      0.3609      0.6398
 46      0.0000      0.0796      0.0000      0.0135      0.0000      0.0000      0.0000      0.1691      0.0000
