###################################################################
## OUTPUT of StarlightChains_v04.for    [Cid@UFSC - 01/Apr/2007] ##
###################################################################

## Some input info
2014ee.txt                               [arq_obs]
Base.CB07.vall.4m                        [arq_base]
Masks.EmLines.NEW.gm                     [arq_masks]
StCv04.C11.config                        [arq_config]
   66                                    [N_base]
    0                                    [N_YAV_components = # of components with extra extinction!]
    0                                    [i_FitPowerLaw (1/0 = Yes/No)]
-9.99                                    [alpha_PowerLaw]
CCM                                      [red_law_option]
 1.458241                                [q_norm = A(l_norm)/A(V)]

## (Re)Sampling Parameters
 3741.00                                 [l_ini (A)]
 7218.00                                 [l_fin (A)]
    1.00                                 [dl    (A)]     (OBS: dl_cushion =    50.00 A)

## Normalization info
 4020.00                                 [l_norm (A) - for base]
 4010.00                                 [llow_norm (A) - window for f_obs]
 4060.00                                 [lupp_norm (A) - window for f_obs]
9.486613E-17                             [fobs_norm (in input units)]

## S/N
 3691.00                                 [llow_SN (A) - window for S/N]
 7268.00                                 [lupp_SN (A) - window for S/N]
   9.366                                 [S/N in S/N window]
  11.088                                 [S/N in norm. window]
   0.000                                 [S/N_err in S/N window]
   0.000                                 [S/N_err in norm. window]
  1.0000                                 [fscale_chi2]

## etc...
    -2007420                             [idum_orig]
  2199                                   [NOl_eff]
  2038                                   [Nl_eff]
   161    NSIGMA                         [Ntot_cliped & clip_method]
  1378300                                [Nglobal_steps]
   7                                     [N_chains]
  19                                     [NEX0s_base = N_base in EX0s-fits]
 0   0   1        7   2.0   7.028E+01    [Clip-Bug, RC-Crash & Burn-In warning-flags, n_censored_weights, wei_nsig_threshold & wei_limit]
    14     13.821     13.320      0.500  [idt_all, wdt_TotTime, wdt_UsrTime & wdt_SysTime (sec)]

## Synthesis Results - Best model ##

 1.65142E+00                             [chi2/Nl_eff]
     4.19678                             [adev (%)]

   103.23064                             [sum-of-x (%)]
 2.15685E-16                             [Flux_tot (units of input spectrum!)]
 1.43123E-12                             [Mini_tot (???)]
 7.49884E-13                             [Mcor_tot (???)]

-174.18                                  [v0_min  (km/s)]
 187.37                                  [vd_min  (km/s)]
 0.5879                                  [AV_min  (mag)]
 0.0000                                  [YAV_min (mag)]

# j     x_j(%)      Mini_j(%)     Mcor_j(%)     age_j(yr)     Z_j      (L/M)_j    YAV?  Mstars   component_j        a/Fe...       SSP_chi2r SSP_adev(%)   SSP_AV   SSP_x(%)
  1      2.4901     3.3228E-02    6.3419E-02    1.000000E+06  0.00400  1.094E-02    0   1.0000   age020_m42            0.0000     4.6896E+00     6.2112   2.6452    91.1301
  2      0.0000     0.0000E+00    0.0000E+00    3.160000E+06  0.00400  4.007E-02    0   0.9999   age045_m42            0.0000     3.5175E+00     5.5021   1.9535    95.7440
  3      0.0000     0.0000E+00    0.0000E+00    5.010000E+06  0.00400  2.539E-02    0   0.9488   age055_m42            0.0000     3.7643E+00     5.6102   2.2587    94.1210
  4      0.0000     0.0000E+00    0.0000E+00    6.610000E+06  0.00400  2.620E-02    0   0.9220   age061_m42            0.0000     3.3256E+00     5.3592   1.8832    95.8818
  5      0.0000     0.0000E+00    0.0000E+00    1.000000E+07  0.00400  1.322E-02    0   0.8862   age070_m42            0.0000     2.4630E+00     4.6230   1.6133    97.7714
  6      0.0000     0.0000E+00    0.0000E+00    1.445000E+07  0.00400  7.883E-03    0   0.8571   age078_m42            0.0000     2.8311E+00     4.8586   1.9335    95.6309
  7      0.0000     0.0000E+00    0.0000E+00    2.512000E+07  0.00400  5.251E-03    0   0.8174   age090_m42            0.0000     2.3532E+00     4.5326   1.4891    98.0843
  8      0.0006     2.5921E-05    3.8841E-05    4.000000E+07  0.00400  3.649E-03    0   0.7851   age104_m42            0.0000     2.2588E+00     4.5106   1.2633    98.7325
  9      0.0008     3.8086E-05    5.5455E-05    5.500000E+07  0.00400  3.098E-03    0   0.7629   age110_m42            0.0000     2.7046E+00     4.9048   1.4183    98.5285
 10      0.0000     0.0000E+00    0.0000E+00    1.015200E+08  0.00400  2.228E-03    0   0.7207   age116_m42            0.0000     3.1529E+00     5.2470   1.4397    98.5415
 11      1.2070     1.6120E-01    2.0454E-01    2.861200E+08  0.00400  1.093E-03    0   0.6648   age125_m42            0.0000     2.9503E+00     5.1805   0.8915   100.9254
 12      0.0000     0.0000E+00    0.0000E+00    5.088000E+08  0.00400  6.597E-04    0   0.6365   age130_m42            0.0000     3.7235E+00     5.5704   0.8791   101.5964
 13      5.0123     3.4320E+00    3.7979E+00    1.434000E+09  0.00400  2.132E-04    0   0.5798   age139_m42            0.0000     4.0751E+00     5.6461  -0.0992   103.2945
 14      2.2854     5.6595E+00    5.8081E+00    4.250000E+09  0.00400  5.895E-05    0   0.5377   age158_m42            0.0000     5.1447E+00     6.1477  -0.5597    99.9249
 15      0.0000     0.0000E+00    0.0000E+00    7.500000E+09  0.00400  3.510E-05    0   0.5212   age171_m42            0.0000     6.5195E+00     6.6098  -0.7484    99.2487
 16      0.0000     0.0000E+00    0.0000E+00    1.300000E+10  0.00400  2.005E-05    0   0.5034   age193_m42            0.0000     8.1038E+00     7.0691  -0.9156    98.8120
 17      2.8722     2.7494E+01    2.6065E+01    1.800000E+10  0.00400  1.525E-05    0   0.4967   age213_m42            0.0000     7.7784E+00     6.9449  -0.9397    98.3998
 18      5.9312     6.9940E-02    1.3349E-01    1.000000E+06  0.00800  1.238E-02    0   1.0000   age020_m52            0.0000     4.7023E+00     6.2191   2.6415    91.3084
 19      0.0000     0.0000E+00    0.0000E+00    3.160000E+06  0.00800  3.074E-02    0   0.9966   age045_m52            0.0000     4.6123E+00     6.1580   2.5647    92.0557
 20      0.0000     0.0000E+00    0.0000E+00    5.010000E+06  0.00800  2.668E-02    0   0.9443   age055_m52            0.0000     3.8724E+00     5.6850   2.3364    93.4869
 21      0.0000     0.0000E+00    0.0000E+00    6.610000E+06  0.00800  2.136E-02    0   0.9177   age061_m52            0.0000     2.2284E+00     4.5219   1.0981    99.3841
 22      0.0000     0.0000E+00    0.0000E+00    1.000000E+07  0.00800  1.215E-02    0   0.8827   age070_m52            0.0000     2.4600E+00     4.6268   1.7960    97.5944
 23      0.0000     0.0000E+00    0.0000E+00    1.445000E+07  0.00800  8.717E-03    0   0.8552   age078_m52            0.0000     2.6625E+00     4.7439   1.9010    96.8267
 24      0.0000     0.0000E+00    0.0000E+00    2.512000E+07  0.00800  5.592E-03    0   0.8162   age090_m52            0.0000     2.2518E+00     4.4897   1.5580    99.0399
 25      0.0000     0.0000E+00    0.0000E+00    4.000000E+07  0.00800  3.896E-03    0   0.7841   age104_m52            0.0000     2.3112E+00     4.6220   1.4776    99.4430
 26      0.0000     0.0000E+00    0.0000E+00    1.015200E+08  0.00800  2.148E-03    0   0.7226   age116_m52            0.0000     2.7266E+00     4.9751   1.4146    99.1345
 27      3.5529     5.2259E-01    6.6657E-01    2.861200E+08  0.00800  9.925E-04    0   0.6683   age125_m52            0.0000     3.7407E+00     5.5741   0.9451   102.4538
 28     29.0500     1.3501E+01    1.5817E+01    9.047900E+08  0.00800  3.141E-04    0   0.6138   age135_m52            0.0000     5.3852E+00     6.2841   0.1566   105.6916
 29      0.0014     1.2313E-03    1.3755E-03    1.434000E+09  0.00800  1.719E-04    0   0.5853   age139_m52            0.0000     5.1455E+00     6.1795  -0.4362   104.0106
 30      0.0000     0.0000E+00    0.0000E+00    2.500000E+09  0.00800  7.872E-05    0   0.5600   age150_m52            0.0000     7.2272E+00     6.9754  -0.7202   101.5830
 31      0.0000     0.0000E+00    0.0000E+00    4.250000E+09  0.00800  4.336E-05    0   0.5426   age158_m52            0.0000     7.5724E+00     7.0167  -0.7372   100.6983
 32      0.0000     0.0000E+00    0.0000E+00    6.250000E+09  0.00800  3.159E-05    0   0.5319   age166_m52            0.0000     9.9581E+00     7.7442  -0.9412   100.6343
 33      0.0000     0.0000E+00    0.0000E+00    1.300000E+10  0.00800  1.361E-05    0   0.5073   age193_m52            0.0000     2.0474E+01    10.8976  -1.0000    87.9974
 34      3.2338     4.7753E+01    4.5479E+01    1.800000E+10  0.00800  9.886E-06    0   0.4990   age213_m52            0.0000     2.7082E+01    12.5432  -1.0000    84.3288
 35      2.9888     2.8259E-02    5.3934E-02    1.000000E+06  0.02000  1.544E-02    0   1.0000   age020_m62            0.0000     4.7683E+00     6.2610   2.6365    91.5754
 36      0.0000     0.0000E+00    0.0000E+00    3.160000E+06  0.02000  3.762E-02    0   0.9858   age045_m62            0.0000     4.7985E+00     6.2759   2.5735    92.4415
 37      0.0000     0.0000E+00    0.0000E+00    5.010000E+06  0.02000  3.296E-02    0   0.9342   age055_m62            0.0000     3.6836E+00     5.5886   2.2203    95.1464
 38     26.7701     3.3865E-01    5.7272E-01    8.710000E+06  0.02000  1.154E-02    0   0.8861   age067_m62            0.0000     3.4272E+00     5.5155   1.2630   100.4166
 39      0.0000     0.0000E+00    0.0000E+00    1.445000E+07  0.02000  7.663E-03    0   0.8472   age078_m62            0.0000     2.2064E+00     4.5867   1.4544    99.6202
 40      0.0000     0.0000E+00    0.0000E+00    2.512000E+07  0.02000  4.532E-03    0   0.8099   age090_m62            0.0000     2.2567E+00     4.6324   1.4538    99.1111
 41      0.0000     0.0000E+00    0.0000E+00    5.500000E+07  0.02000  2.733E-03    0   0.7595   age110_m62            0.0000     2.2581E+00     4.5407   1.4530    99.0310
 42      0.0000     0.0000E+00    0.0000E+00    1.609000E+08  0.02000  1.369E-03    0   0.6985   age120_m62            0.0000     3.2416E+00     5.2627   1.2986   101.2042
 43      5.2064     8.4328E-01    1.0806E+00    2.861200E+08  0.02000  9.013E-04    0   0.6714   age125_m62            0.0000     4.3318E+00     5.7386   1.0529   103.6612
 44      0.1312     3.8079E-02    4.6870E-02    5.088000E+08  0.02000  5.028E-04    0   0.6449   age130_m62            0.0000     5.9334E+00     6.4958   0.6823   105.7365
 45      0.0000     0.0000E+00    0.0000E+00    9.047900E+08  0.02000  2.428E-04    0   0.6179   age135_m62            0.0000     6.0144E+00     6.6174   0.0932   104.9590
 46      0.0000     0.0000E+00    0.0000E+00    1.434000E+09  0.02000  1.263E-04    0   0.5908   age139_m62            0.0000     6.8372E+00     6.8079  -0.3590   103.5966
 47      0.0000     0.0000E+00    0.0000E+00    2.500000E+09  0.02000  5.985E-05    0   0.5673   age150_m62            0.0000     9.4753E+00     7.6783  -0.7384   102.5426
 48      0.0000     0.0000E+00    0.0000E+00    4.250000E+09  0.02000  3.271E-05    0   0.5468   age158_m62            0.0000     1.3654E+01     8.7937  -1.0000   100.2309
 49      0.0000     0.0000E+00    0.0000E+00    1.000000E+10  0.02000  1.360E-05    0   0.5167   age181_m62            0.0000     2.5245E+01    11.5330  -1.0000    89.3379
 50      0.0000     0.0000E+00    0.0000E+00    1.800000E+10  0.02000  7.124E-06    0   0.5013   age213_m62            0.0000     3.7092E+01    14.1946  -1.0000    82.3523
 51      0.5061     2.8503E-03    5.4389E-03    1.000000E+06  0.05000  2.592E-02    0   0.9998   age020_m72            0.0000     5.0074E+00     6.3773   2.6260    91.6917
 52      0.0000     0.0000E+00    0.0000E+00    3.160000E+06  0.05000  4.845E-02    0   0.9577   age045_m72            0.0000     4.4056E+00     6.0426   2.4642    93.2500
 53      0.0000     0.0000E+00    0.0000E+00    5.010000E+06  0.05000  3.072E-02    0   0.9147   age055_m72            0.0000     2.9839E+00     5.2259   2.0340    96.2386
 54     11.9904     1.2030E-01    2.0382E-01    6.610000E+06  0.05000  1.455E-02    0   0.8877   age061_m72            0.0000     5.1481E+00     7.5186   1.3621   100.7144
 55      0.0000     0.0000E+00    0.0000E+00    1.000000E+07  0.05000  9.074E-03    0   0.8524   age070_m72            0.0000     3.4707E+00     5.9483   2.2432    95.5650
 56      0.0000     0.0000E+00    0.0000E+00    2.512000E+07  0.05000  4.250E-03    0   0.7902   age090_m72            0.0000     2.7608E+00     5.1984   1.9417    96.8774
 57      0.0000     0.0000E+00    0.0000E+00    4.000000E+07  0.05000  3.087E-03    0   0.7618   age104_m72            0.0000     2.6086E+00     5.1236   1.7198    98.1894
 58      0.0000     0.0000E+00    0.0000E+00    1.015200E+08  0.05000  1.700E-03    0   0.7096   age116_m72            0.0000     2.9861E+00     5.1424   1.4488   100.6710
 59      0.0000     0.0000E+00    0.0000E+00    2.861200E+08  0.05000  7.384E-04    0   0.6633   age125_m72            0.0000     5.2026E+00     6.1008   0.9273   104.5362
 60      0.0000     0.0000E+00    0.0000E+00    5.088000E+08  0.05000  3.819E-04    0   0.6372   age130_m72            0.0000     6.0651E+00     6.6142   0.4293   105.9606
 61      0.0000     0.0000E+00    0.0000E+00    9.047900E+08  0.05000  1.676E-04    0   0.6110   age135_m72            0.0000     8.6958E+00     7.6433  -0.2817   104.3799
 62      0.0000     0.0000E+00    0.0000E+00    1.434000E+09  0.05000  8.837E-05    0   0.5874   age139_m72            0.0000     1.0552E+01     7.9320  -0.7338   103.6675
 63      0.0000     0.0000E+00    0.0000E+00    2.500000E+09  0.05000  4.233E-05    0   0.5598   age150_m72            0.0000     1.5087E+01     9.1735  -1.0000   100.9557
 64      0.0000     0.0000E+00    0.0000E+00    6.250000E+09  0.05000  1.435E-05    0   0.5249   age166_m72            0.0000     2.9751E+01    12.6612  -1.0000    86.0318
 65      0.0000     0.0000E+00    0.0000E+00    1.300000E+10  0.05000  6.513E-06    0   0.5036   age193_m72            0.0000     4.8023E+01    16.3912  -1.0000    78.4511
 66      0.0000     0.0000E+00    0.0000E+00    1.800000E+10  0.05000  4.527E-06    0   0.4945   age213_m72            0.0000     6.0459E+01    18.4933  -1.0000    73.5501


## Synthesis Results - Average & Chains ##

# j      x_j: min, <> & last-chain-values for 1 ...  7 chains
  1      2.4901      1.6327      1.8449      2.1708      1.8592      1.7307      2.9482      1.6860      1.3076
  2      0.0000      0.2387      0.0000      0.0000      0.0407      0.0000      0.0000      0.0000      0.0000
  3      0.0000      0.1742      0.0000      0.0000      0.0292      0.0000      0.0000      0.0000      0.0000
  4      0.0000      0.1099      0.0000      0.0000      0.0000      0.3227      0.1638      0.2657      0.0000
  5      0.0000      0.3172      0.2391      0.0000      0.9964      1.2561      0.0000      0.0000      0.1183
  6      0.0000      0.1020      0.0000      0.0000      0.0000      0.0000      0.0000      0.1543      0.6242
  7      0.0000      0.2844      0.0000      0.2139      0.0946      0.0000      0.0000      0.2157      0.2050
  8      0.0006      0.3679      1.2150      0.4375      0.0000      0.6406      0.7378      0.0000      0.0000
  9      0.0008      0.4604      1.8828      0.0000      0.0000      0.8506      0.4319      0.9664      0.5107
 10      0.0000      0.6212      0.3132      0.5897      0.0490      0.0000      1.2183      2.1098      0.5797
 11      1.2070      0.8761      0.0000      1.1789      0.0000      0.6925      0.0000      0.2051      0.0000
 12      0.0000      0.6508      0.0000      1.1428      0.9843      0.3922      0.1368      0.0000      0.0000
 13      5.0123      5.0150      5.7368      4.5965      5.0664      4.9917      4.9268      5.2565      4.5482
 14      2.2854      5.5435      5.1060      5.1300      5.3396      5.7110      4.9152      6.0023      5.5364
 15      0.0000      0.0754      0.0000      0.3018      0.0000      0.0000      0.1705      0.0000      0.0645
 16      0.0000      0.0758      0.2361      0.3808      0.0000      0.0270      0.1557      0.0000      0.0000
 17      2.8722      1.6126      1.7544      1.6771      1.4578      1.7574      1.5080      1.5018      1.7735
 18      5.9312      5.7677      4.4864      6.4372      5.7067      7.6459      5.6686      5.9873      6.4234
 19      0.0000      0.1716      0.6232      0.0000      0.1012      0.2374      0.0000      0.0000      0.5170
 20      0.0000      0.1291      0.1311      0.1343      0.2530      0.0000      0.0000      0.0580      0.5232
 21      0.0000      0.2542      0.0000      0.0000      0.0000      0.0000      0.5831      0.0000      0.0000
 22      0.0000      0.5067      0.0000      0.8375      0.0000      0.2724      0.1746      0.9644      0.5806
 23      0.0000      0.1733      1.0574      0.0000      0.0000      0.0000      0.0000      0.0000      0.0000
 24      0.0000      0.2999      0.0000      0.0601      2.3085      0.0744      0.2533      0.0000      0.0000
 25      0.0000      0.2676      0.0000      0.4615      0.2498      0.0000      0.0000      0.8015      0.5299
 26      0.0000      0.2551      0.0000      0.4720      0.0000      0.1886      0.0000      1.0546      0.0000
 27      3.5529      1.0763      1.8420      0.3069      3.6917      3.7454      3.4139      1.6274      1.0816
 28     29.0500     24.6386     26.8515     25.5895     23.9051     25.0163     26.0056     24.2607     25.3873
 29      0.0014      4.5129      3.7302      3.8629      5.3354      4.6115      4.1747      4.7550      4.3845
 30      0.0000      0.0354      0.0000      0.0000      0.0000      0.0000      0.0000      0.0000      0.0000
 31      0.0000      0.1993      0.0000      0.3266      0.0000      0.0078      0.1486      0.0000      0.0000
 32      0.0000      0.0364      0.0000      0.0000      0.0000      0.0000      0.0000      0.0129      0.0000
 33      0.0000      0.0262      0.0000      0.0980      0.2985      0.0000      0.0000      0.0972      0.0000
 34      3.2338      1.6686      1.5775      1.6377      1.6631      1.9374      1.7942      1.8938      1.9259
 35      2.9888      2.8239      3.0325      2.7325      2.8213      2.8672      2.6455      2.1313      3.4988
 36      0.0000      0.1558      0.0000      0.0000      0.0371      0.0000      0.2669      0.0111      0.0000
 37      0.0000      0.2293      1.1609      0.2451      0.0000      0.0000      0.0000      0.1015      0.3067
 38     26.7701     18.6564     20.8723     18.7328     20.0683     20.2307     20.2069     20.5669     18.8557
 39      0.0000      0.5183      0.3480      0.0000      0.3408      0.0000      0.2608      0.0000      0.0000
 40      0.0000      0.5298      0.0000      0.6003      2.1687      0.0000      0.0000      0.2792      0.3735
 41      0.0000      0.2437      0.3450      0.0000      0.0000      0.0000      0.6519      0.0000      0.0000
 42      0.0000      0.5663      0.0000      2.6585      0.0000      0.0000      0.0123      0.0000      1.1701
 43      5.2064      1.5017      1.3683      1.6000      2.5714      1.1803      1.5609      2.4054      2.7164
 44      0.1312      0.6781      0.8529      0.6155      0.3817      1.7137      0.6681      0.2070      0.2771
 45      0.0000      0.2373      0.0000      0.0000      0.0000      0.0000      0.0000      0.0000      0.0000
 46      0.0000      0.0742      0.0000      0.0362      0.0000      0.0000      0.0000      0.0000      0.0000
