###################################################################
## OUTPUT of StarlightChains_v04.for    [Cid@UFSC - 01/Apr/2007] ##
###################################################################

## Some input info
2014as.txt                               [arq_obs]
Base.CB07.vall.4m                        [arq_base]
Masks.EmLines.NEW.gm                     [arq_masks]
StCv04.C11.config                        [arq_config]
   66                                    [N_base]
    0                                    [N_YAV_components = # of components with extra extinction!]
    0                                    [i_FitPowerLaw (1/0 = Yes/No)]
-9.99                                    [alpha_PowerLaw]
CCM                                      [red_law_option]
 1.458241                                [q_norm = A(l_norm)/A(V)]

## (Re)Sampling Parameters
 3741.00                                 [l_ini (A)]
 7218.00                                 [l_fin (A)]
    1.00                                 [dl    (A)]     (OBS: dl_cushion =    50.00 A)

## Normalization info
 4020.00                                 [l_norm (A) - for base]
 4010.00                                 [llow_norm (A) - window for f_obs]
 4060.00                                 [lupp_norm (A) - window for f_obs]
1.462664E-16                             [fobs_norm (in input units)]

## S/N
 3691.00                                 [llow_SN (A) - window for S/N]
 7268.00                                 [lupp_SN (A) - window for S/N]
   3.848                                 [S/N in S/N window]
   5.783                                 [S/N in norm. window]
  11.819                                 [S/N_err in S/N window]
  17.764                                 [S/N_err in norm. window]
  1.0000                                 [fscale_chi2]

## etc...
    -2007417                             [idum_orig]
  2383                                   [NOl_eff]
  2383                                   [Nl_eff]
     0    NSIGMA                         [Ntot_cliped & clip_method]
  1469230                                [Nglobal_steps]
   7                                     [N_chains]
  25                                     [NEX0s_base = N_base in EX0s-fits]
 0   0   1        0   2.0   3.249E+01    [Clip-Bug, RC-Crash & Burn-In warning-flags, n_censored_weights, wei_nsig_threshold & wei_limit]
    12     11.872     11.365      0.506  [idt_all, wdt_TotTime, wdt_UsrTime & wdt_SysTime (sec)]

## Synthesis Results - Best model ##

 3.33217E-01                             [chi2/Nl_eff]
     3.69881                             [adev (%)]

   102.58611                             [sum-of-x (%)]
 1.80467E-16                             [Flux_tot (units of input spectrum!)]
 2.88172E-13                             [Mini_tot (???)]
 1.71601E-13                             [Mcor_tot (???)]

 -56.49                                  [v0_min  (km/s)]
 270.51                                  [vd_min  (km/s)]
 0.1374                                  [AV_min  (mag)]
 0.0000                                  [YAV_min (mag)]

# j     x_j(%)      Mini_j(%)     Mcor_j(%)     age_j(yr)     Z_j      (L/M)_j    YAV?  Mstars   component_j        a/Fe...       SSP_chi2r SSP_adev(%)   SSP_AV   SSP_x(%)
  1      2.7852     1.5541E-01    2.6099E-01    1.000000E+06  0.00400  1.094E-02    0   1.0000   age020_m42            0.0000     6.5694E-01     5.4361   1.9180    88.5064
  2      7.7113     1.1748E-01    1.9727E-01    3.160000E+06  0.00400  4.007E-02    0   0.9999   age045_m42            0.0000     5.0652E-01     4.6094   1.1665    95.8705
  3      0.0000     0.0000E+00    0.0000E+00    5.010000E+06  0.00400  2.539E-02    0   0.9488   age055_m42            0.0000     5.3711E-01     4.8366   1.4959    93.0652
  4      0.0199     4.6321E-04    7.1719E-04    6.610000E+06  0.00400  2.620E-02    0   0.9220   age061_m42            0.0000     4.9106E-01     4.4663   1.0897    96.2828
  5      0.0000     0.0000E+00    0.0000E+00    1.000000E+07  0.00400  1.322E-02    0   0.8862   age070_m42            0.0000     3.8284E-01     3.8398   0.8017    98.9042
  6      0.0000     0.0000E+00    0.0000E+00    1.445000E+07  0.00400  7.883E-03    0   0.8571   age078_m42            0.0000     4.1339E-01     4.0650   1.1368    95.9653
  7      0.0139     1.6152E-03    2.2172E-03    2.512000E+07  0.00400  5.251E-03    0   0.8174   age090_m42            0.0000     3.8180E-01     3.8062   0.6676    99.7159
  8      0.0000     0.0000E+00    0.0000E+00    4.000000E+07  0.00400  3.649E-03    0   0.7851   age104_m42            0.0000     3.7417E-01     3.7655   0.4367   100.7076
  9      0.0000     0.0000E+00    0.0000E+00    5.500000E+07  0.00400  3.098E-03    0   0.7629   age110_m42            0.0000     4.2697E-01     3.9774   0.5900   100.6304
 10      0.0000     0.0000E+00    0.0000E+00    1.015200E+08  0.00400  2.228E-03    0   0.7207   age116_m42            0.0000     4.9938E-01     4.2441   0.6092   100.8204
 11      0.0000     0.0000E+00    0.0000E+00    2.861200E+08  0.00400  1.093E-03    0   0.6648   age125_m42            0.0000     5.0817E-01     4.2421   0.0317   104.4475
 12      0.0000     0.0000E+00    0.0000E+00    5.088000E+08  0.00400  6.597E-04    0   0.6365   age130_m42            0.0000     6.2911E-01     4.6450   0.0228   105.1470
 13      0.0000     0.0000E+00    0.0000E+00    1.434000E+09  0.00400  2.132E-04    0   0.5798   age139_m42            0.0000     6.6815E-01     4.9544  -0.9469   107.1013
 14      2.0894     2.1637E+01    1.9537E+01    4.250000E+09  0.00400  5.895E-05    0   0.5377   age158_m42            0.0000     1.3819E+00     7.4695  -1.0000    87.7230
 15      0.0000     0.0000E+00    0.0000E+00    7.500000E+09  0.00400  3.510E-05    0   0.5212   age171_m42            0.0000     2.2221E+00     9.7478  -1.0000    80.3541
 16      0.0000     0.0000E+00    0.0000E+00    1.300000E+10  0.00400  2.005E-05    0   0.5034   age193_m42            0.0000     3.1419E+00    11.9257  -1.0000    74.2837
 17      0.0000     0.0000E+00    0.0000E+00    1.800000E+10  0.00400  1.525E-05    0   0.4967   age213_m42            0.0000     3.2623E+00    12.2742  -1.0000    73.1954
 18      3.4267     1.6897E-01    2.8376E-01    1.000000E+06  0.00800  1.238E-02    0   1.0000   age020_m52            0.0000     6.5637E-01     5.4426   1.9143    88.6776
 19      8.3650     1.6612E-01    2.7802E-01    3.160000E+06  0.00800  3.074E-02    0   0.9966   age045_m52            0.0000     6.3897E-01     5.3783   1.8353    89.5641
 20      0.4932     1.1285E-02    1.7896E-02    5.010000E+06  0.00800  2.668E-02    0   0.9443   age055_m52            0.0000     5.4412E-01     4.8972   1.5817    92.0841
 21     39.2216     1.1209E+00    1.7275E+00    6.610000E+06  0.00800  2.136E-02    0   0.9177   age061_m52            0.0000     3.5519E-01     3.8486   0.3093    99.6030
 22      0.0000     0.0000E+00    0.0000E+00    1.000000E+07  0.00800  1.215E-02    0   0.8827   age070_m52            0.0000     3.9176E-01     3.9060   0.9824    98.6757
 23      0.0000     0.0000E+00    0.0000E+00    1.445000E+07  0.00800  8.717E-03    0   0.8552   age078_m52            0.0000     3.9550E-01     3.9580   1.0984    97.4852
 24      0.0000     0.0000E+00    0.0000E+00    2.512000E+07  0.00800  5.592E-03    0   0.8162   age090_m52            0.0000     3.8143E-01     3.7976   0.7289   101.0543
 25      0.0000     0.0000E+00    0.0000E+00    4.000000E+07  0.00800  3.896E-03    0   0.7841   age104_m52            0.0000     3.8569E-01     3.8074   0.6389   101.9426
 26      0.7147     2.0312E-01    2.4648E-01    1.015200E+08  0.00800  2.148E-03    0   0.7226   age116_m52            0.0000     4.3603E-01     3.9872   0.5759   101.7430
 27      0.0061     3.7786E-03    4.2407E-03    2.861200E+08  0.00800  9.925E-04    0   0.6683   age125_m52            0.0000     6.3692E-01     4.6204   0.0865   106.1950
 28      3.6649     7.1228E+00    7.3419E+00    9.047900E+08  0.00800  3.141E-04    0   0.6138   age135_m52            0.0000     8.4557E-01     5.5066  -0.7056   110.1975
 29      2.5681     9.1199E+00    8.9640E+00    1.434000E+09  0.00800  1.719E-04    0   0.5853   age139_m52            0.0000     1.1517E+00     6.6054  -1.0000    96.1574
 30      0.0000     0.0000E+00    0.0000E+00    2.500000E+09  0.00800  7.872E-05    0   0.5600   age150_m52            0.0000     2.2281E+00     9.6144  -1.0000    83.3275
 31      0.0000     0.0000E+00    0.0000E+00    4.250000E+09  0.00800  4.336E-05    0   0.5426   age158_m52            0.0000     2.2984E+00     9.7539  -1.0000    81.9798
 32      0.0000     0.0000E+00    0.0000E+00    6.250000E+09  0.00800  3.159E-05    0   0.5319   age166_m52            0.0000     3.4916E+00    12.3928  -1.0000    74.9406
 33      0.0000     0.0000E+00    0.0000E+00    1.300000E+10  0.00800  1.361E-05    0   0.5073   age193_m52            0.0000     6.8643E+00    18.5707  -1.0000    59.9534
 34      0.0000     0.0000E+00    0.0000E+00    1.800000E+10  0.00800  9.886E-06    0   0.4990   age213_m52            0.0000     7.7840E+00    19.7393  -1.0000    56.6813
 35      0.0000     0.0000E+00    0.0000E+00    1.000000E+06  0.02000  1.544E-02    0   1.0000   age020_m62            0.0000     6.6015E-01     5.4691   1.9106    88.8661
 36      0.0000     0.0000E+00    0.0000E+00    3.160000E+06  0.02000  3.762E-02    0   0.9858   age045_m62            0.0000     6.5623E-01     5.4744   1.8485    89.6860
 37      0.2717     5.0329E-03    7.8957E-03    5.010000E+06  0.02000  3.296E-02    0   0.9342   age055_m62            0.0000     5.3841E-01     4.7881   1.4507    94.4373
 38      7.4398     3.9356E-01    5.8563E-01    8.710000E+06  0.02000  1.154E-02    0   0.8861   age067_m62            0.0000     8.5395E-01     5.7147   0.4305   102.0835
 39      0.9630     7.6717E-02    1.0915E-01    1.445000E+07  0.02000  7.663E-03    0   0.8472   age078_m62            0.0000     4.3993E-01     4.1500   0.6265   101.2322
 40      0.0000     0.0000E+00    0.0000E+00    2.512000E+07  0.02000  4.532E-03    0   0.8099   age090_m62            0.0000     4.7274E-01     4.2792   0.6151   101.1878
 41      0.0000     0.0000E+00    0.0000E+00    5.500000E+07  0.02000  2.733E-03    0   0.7595   age110_m62            0.0000     3.8846E-01     3.8014   0.6235   101.0883
 42      0.0000     0.0000E+00    0.0000E+00    1.609000E+08  0.02000  1.369E-03    0   0.6985   age120_m62            0.0000     5.4596E-01     4.2781   0.4534   104.2400
 43      0.0000     0.0000E+00    0.0000E+00    2.861200E+08  0.02000  9.013E-04    0   0.6714   age125_m62            0.0000     7.3194E-01     4.8225   0.1973   107.4815
 44     10.6142     1.2887E+01    1.3956E+01    5.088000E+08  0.02000  5.028E-04    0   0.6449   age130_m62            0.0000     9.4657E-01     5.5936  -0.1746   109.9110
 45      7.4944     1.8843E+01    1.9552E+01    9.047900E+08  0.02000  2.428E-04    0   0.6179   age135_m62            0.0000     9.1982E-01     5.8312  -0.7500   108.6522
 46      0.0000     0.0000E+00    0.0000E+00    1.434000E+09  0.02000  1.263E-04    0   0.5908   age139_m62            0.0000     1.1381E+00     6.3813  -1.0000    98.9875
 47      2.5122     2.5624E+01    2.4411E+01    2.500000E+09  0.02000  5.985E-05    0   0.5673   age150_m62            0.0000     2.4666E+00     9.9425  -1.0000    83.5735
 48      0.0000     0.0000E+00    0.0000E+00    4.250000E+09  0.02000  3.271E-05    0   0.5468   age158_m62            0.0000     4.3157E+00    13.7628  -1.0000    72.3203
 49      0.0000     0.0000E+00    0.0000E+00    1.000000E+10  0.02000  1.360E-05    0   0.5167   age181_m62            0.0000     6.9343E+00    18.1284  -1.0000    61.3102
 50      0.0000     0.0000E+00    0.0000E+00    1.800000E+10  0.02000  7.124E-06    0   0.5013   age213_m62            0.0000     8.6688E+00    20.5204  -1.0000    55.0682
 51      0.0000     0.0000E+00    0.0000E+00    1.000000E+06  0.05000  2.592E-02    0   0.9998   age020_m72            0.0000     6.7395E-01     5.5360   1.9047    88.7874
 52      0.0000     0.0000E+00    0.0000E+00    3.160000E+06  0.05000  4.845E-02    0   0.9577   age045_m72            0.0000     6.1483E-01     5.2613   1.7238    91.2276
 53      0.5405     1.0741E-02    1.6498E-02    5.010000E+06  0.05000  3.072E-02    0   0.9147   age055_m72            0.0000     4.6316E-01     4.3808   1.2305    96.3979
 54      0.2174     9.1209E-03    1.3597E-02    6.610000E+06  0.05000  1.455E-02    0   0.8877   age061_m72            0.0000     1.5189E+00     7.8177   0.4839   103.1542
 55      0.0000     0.0000E+00    0.0000E+00    1.000000E+07  0.05000  9.074E-03    0   0.8524   age070_m72            0.0000     6.0288E-01     4.9488   1.4214    95.9669
 56      0.0000     0.0000E+00    0.0000E+00    2.512000E+07  0.05000  4.250E-03    0   0.7902   age090_m72            0.0000     4.8182E-01     4.3459   1.1004    98.6855
 57      0.0000     0.0000E+00    0.0000E+00    4.000000E+07  0.05000  3.087E-03    0   0.7618   age104_m72            0.0000     5.0280E-01     4.3779   0.8624   100.8661
 58      0.0000     0.0000E+00    0.0000E+00    1.015200E+08  0.05000  1.700E-03    0   0.7096   age116_m72            0.0000     5.1114E-01     4.1931   0.5933   104.0115
 59      0.0000     0.0000E+00    0.0000E+00    2.861200E+08  0.05000  7.384E-04    0   0.6633   age125_m72            0.0000     8.5354E-01     5.2276   0.0663   108.8343
 60      1.4528     2.3223E+00    2.4850E+00    5.088000E+08  0.05000  3.819E-04    0   0.6372   age130_m72            0.0000     9.4853E-01     5.8244  -0.4173   109.9932
 61      0.0000     0.0000E+00    0.0000E+00    9.047900E+08  0.05000  1.676E-04    0   0.6110   age135_m72            0.0000     1.2660E+00     6.8987  -1.0000   102.9803
 62      0.0000     0.0000E+00    0.0000E+00    1.434000E+09  0.05000  8.837E-05    0   0.5874   age139_m72            0.0000     2.5879E+00    10.1625  -1.0000    84.7734
 63      0.0000     0.0000E+00    0.0000E+00    2.500000E+09  0.05000  4.233E-05    0   0.5598   age150_m72            0.0000     4.4225E+00    13.8144  -1.0000    72.8995
 64      0.0000     0.0000E+00    0.0000E+00    6.250000E+09  0.05000  1.435E-05    0   0.5249   age166_m72            0.0000     7.7097E+00    19.3048  -1.0000    58.3201
 65      0.0000     0.0000E+00    0.0000E+00    1.300000E+10  0.05000  6.513E-06    0   0.5036   age193_m72            0.0000     1.0075E+01    22.3729  -1.0000    51.4840
 66      0.0000     0.0000E+00    0.0000E+00    1.800000E+10  0.05000  4.527E-06    0   0.4945   age213_m72            0.0000     1.1480E+01    24.0172  -1.0000    47.5188


## Synthesis Results - Average & Chains ##

# j      x_j: min, <> & last-chain-values for 1 ...  7 chains
  1      2.7852      0.6054      2.6940      1.8268      1.5795      0.3810      0.0000      0.0000      0.0000
  2      7.7113      0.6924      2.2822      0.0000      0.4259      0.0000      0.0000      0.0000      0.0000
  3      0.0000      0.2373      0.0000      0.0000      0.0000      0.0000      0.4566      0.0000      0.0000
  4      0.0199      0.4859      1.1695      0.2723      0.5933      0.0000      4.0503      0.0000      3.0063
  5      0.0000      0.8768      0.0000      0.4827      2.5212      0.0000      0.0000      0.0000      0.0000
  6      0.0000      0.5729      0.0000      0.0000      0.0370      1.0161      0.8982      2.9698      0.6947
  7      0.0139      1.0657      3.0212      1.3692      0.0000      0.0000      0.0000      0.0000      0.0000
  8      0.0000      1.9838      0.0000      4.0303      2.1388      0.1420      0.0000      0.0000      0.0000
  9      0.0000      0.9407      0.9153      0.0000      2.6757      0.0000      0.0000      0.0000      0.4840
 10      0.0000      0.6431      0.0000      0.0000      0.6194      0.2672      0.0000      0.5272      0.0000
 11      0.0000      1.6903      0.0000      0.8514      0.0000      0.0000      2.1559      2.4327      0.8082
 12      0.0000      1.1474      0.0000      0.0962      0.0000      0.0000      1.6053      2.7311      0.0000
 13      0.0000      0.3273      0.0000      0.0000      1.0553      0.7762      0.0000      0.3125      0.0000
 14      2.0894      0.4194      1.2093      0.0000      0.0000      1.2807      0.9339      2.1649      0.4995
 15      0.0000      0.0635      0.0000      0.0000      0.0000      0.7223      0.0000      0.0000      0.4655
 16      0.0000      0.0560      0.0000      0.0000      0.0000      0.0000      0.0000      0.0000      0.0000
 17      0.0000      0.0268      0.0000      0.0000      0.0000      0.0000      0.0000      0.0000      0.0000
 18      3.4267      0.3486      1.3258      0.3698      1.4632      0.0000      0.0430      0.0000      3.3465
 19      8.3650      4.0585      4.8428      7.4178      4.5562      6.0165      4.7099      5.3632      6.4850
 20      0.4932      2.1897      3.7391      0.0000      2.5943      2.1304      0.0000      1.5432      4.1311
 21     39.2216     40.0644     39.9419     45.3007     39.5493     41.0353     40.7728     40.5250     42.3658
 22      0.0000      0.6856      0.0000      1.3437      0.5272      0.0000      3.4233      2.8526      0.0000
 23      0.0000      0.4776      0.0000      0.0000      0.0000      0.0000      1.2236      0.6239      0.0000
 24      0.0000      0.8474      0.0000      1.2772      0.0000      2.9293      0.0000      0.5741      0.5429
 25      0.0000      0.9182      0.0989      0.0000      1.1162      0.0000      0.0000      0.0523      0.0000
 26      0.7147      0.7987      0.8842      0.0000      0.9642      0.0000      0.0398      0.0472      1.9455
 27      0.0061      1.3948      1.3070      1.0766      0.0000      1.5019      1.6249      0.0000      0.0000
 28      3.6649      0.9360      1.5806      2.1001      0.0000      0.0000      2.4288      0.0000      3.2123
 29      2.5681      0.9362      2.1163      1.5676      0.1651      1.3660      0.4880      2.5906      3.0175
 30      0.0000      0.0965      0.0000      0.3813      0.0000      0.0219      0.0000      0.0000      0.8978
 31      0.0000      0.0326      0.0000      0.0000      0.0000      0.0000      0.5565      0.0000      0.0000
 32      0.0000      0.1014      0.0000      0.4392      0.0000      0.0000      0.0000      0.0000      0.0000
 33      0.0000      0.0214      0.0000      0.3718      0.2506      0.0000      0.0000      0.0000      0.0000
 34      0.0000      0.0185      0.0000      0.0000      0.0000      0.0000      0.1133      0.0885      0.0000
 35      0.0000      0.2638      0.0000      0.0000      0.2733      0.1782      0.6613      0.8326      1.6026
 36      0.0000      0.4117      0.3717      1.8617      1.9633      0.0000      2.1774      0.0000      0.0000
 37      0.2717      0.7444      0.9088      0.0000      0.0000      1.9944      2.1982      0.0000      0.0000
 38      7.4398      4.6134      4.7761      3.3738      4.4208      5.8383      5.9283      0.0000      4.8973
 39      0.9630      2.7743      0.7894      2.3343      0.0000      3.0765      2.2469      9.3481      0.0000
 40      0.0000      1.4950      2.0837      0.0000      0.0000      2.2534      0.0000      0.0000      1.3417
 41      0.0000      0.6685      0.0000      0.2814      0.1723      0.0000      0.0000      0.0000      0.0000
 42      0.0000      0.7967      0.0000      2.1390      0.0000      1.4228      0.2770      0.0000      3.3085
 43      0.0000      0.9563      0.0000      0.0000      0.0000      0.0000      0.0000      0.8637      0.9127
 44     10.6142      6.2677      7.4905      5.7742     12.3532     12.3239      7.5505      3.9210      5.0575
 45      7.4944      4.4928      4.7942      5.1239      4.9891      5.6472      5.7880      7.4042      5.0548
 46      0.0000      0.7202      0.5690      0.0000      1.1448      0.0000      0.0000      1.9092      0.0000
