###################################################################
## OUTPUT of StarlightChains_v04.for    [Cid@UFSC - 01/Apr/2007] ##
###################################################################

## Some input info
2014ac.txt                               [arq_obs]
Base.CB07.vall.4m                        [arq_base]
Masks.EmLines.NEW.gm                     [arq_masks]
StCv04.C11.config                        [arq_config]
   66                                    [N_base]
    0                                    [N_YAV_components = # of components with extra extinction!]
    0                                    [i_FitPowerLaw (1/0 = Yes/No)]
-9.99                                    [alpha_PowerLaw]
CCM                                      [red_law_option]
 1.458241                                [q_norm = A(l_norm)/A(V)]

## (Re)Sampling Parameters
 3741.00                                 [l_ini (A)]
 7218.00                                 [l_fin (A)]
    1.00                                 [dl    (A)]     (OBS: dl_cushion =    50.00 A)

## Normalization info
 4020.00                                 [l_norm (A) - for base]
 4010.00                                 [llow_norm (A) - window for f_obs]
 4060.00                                 [lupp_norm (A) - window for f_obs]
3.844202E-17                             [fobs_norm (in input units)]

## S/N
 3691.00                                 [llow_SN (A) - window for S/N]
 7268.00                                 [lupp_SN (A) - window for S/N]
   8.536                                 [S/N in S/N window]
   9.822                                 [S/N in norm. window]
  15.999                                 [S/N_err in S/N window]
  18.409                                 [S/N_err in norm. window]
  1.0000                                 [fscale_chi2]

## etc...
    -2007416                             [idum_orig]
  2327                                   [NOl_eff]
  2321                                   [Nl_eff]
     6    NSIGMA                         [Ntot_cliped & clip_method]
  1879080                                [Nglobal_steps]
   7                                     [N_chains]
  30                                     [NEX0s_base = N_base in EX0s-fits]
 0   0   1        4   2.0   3.477E+01    [Clip-Bug, RC-Crash & Burn-In warning-flags, n_censored_weights, wei_nsig_threshold & wei_limit]
    16     15.925     15.366      0.559  [idt_all, wdt_TotTime, wdt_UsrTime & wdt_SysTime (sec)]

## Synthesis Results - Best model ##

 4.36130E-01                             [chi2/Nl_eff]
     3.27318                             [adev (%)]

   104.11171                             [sum-of-x (%)]
 5.72034E-17                             [Flux_tot (units of input spectrum!)]
 3.11701E-13                             [Mini_tot (???)]
 1.79016E-13                             [Mcor_tot (???)]

 -52.82                                  [v0_min  (km/s)]
 176.74                                  [vd_min  (km/s)]
 0.2659                                  [AV_min  (mag)]
 0.0000                                  [YAV_min (mag)]

# j     x_j(%)      Mini_j(%)     Mcor_j(%)     age_j(yr)     Z_j      (L/M)_j    YAV?  Mstars   component_j        a/Fe...       SSP_chi2r SSP_adev(%)   SSP_AV   SSP_x(%)
  1      2.1894     3.5277E-02    6.1424E-02    1.000000E+06  0.00400  1.094E-02    0   1.0000   age020_m42            0.0000     1.4859E+00     6.0583   2.8868    84.0920
  2      0.1166     5.1289E-04    8.9294E-04    3.160000E+06  0.00400  4.007E-02    0   0.9999   age045_m42            0.0000     9.9911E-01     4.7462   2.1198    91.8276
  3      0.0000     0.0000E+00    0.0000E+00    5.010000E+06  0.00400  2.539E-02    0   0.9488   age055_m42            0.0000     1.1595E+00     5.2022   2.4546    88.8833
  4      0.0000     0.0000E+00    0.0000E+00    6.610000E+06  0.00400  2.620E-02    0   0.9220   age061_m42            0.0000     9.4950E-01     4.6137   2.0377    92.4479
  5      0.0013     1.6956E-05    2.6164E-05    1.000000E+07  0.00400  1.322E-02    0   0.8862   age070_m42            0.0000     9.7517E-01     4.7237   1.7257    95.8316
  6      0.0000     0.0000E+00    0.0000E+00    1.445000E+07  0.00400  7.883E-03    0   0.8571   age078_m42            0.0000     1.0931E+00     5.0185   2.0687    92.6603
  7      0.0000     0.0000E+00    0.0000E+00    2.512000E+07  0.00400  5.251E-03    0   0.8174   age090_m42            0.0000     9.8842E-01     4.7929   1.5859    96.8334
  8      0.0000     0.0000E+00    0.0000E+00    4.000000E+07  0.00400  3.649E-03    0   0.7851   age104_m42            0.0000     8.7950E-01     4.5398   1.3539    97.8786
  9      0.0000     0.0000E+00    0.0000E+00    5.500000E+07  0.00400  3.098E-03    0   0.7629   age110_m42            0.0000     8.0624E-01     4.3202   1.5151    97.5584
 10      0.0000     0.0000E+00    0.0000E+00    1.015200E+08  0.00400  2.228E-03    0   0.7207   age116_m42            0.0000     7.9556E-01     4.2663   1.5388    97.6093
 11      0.0000     0.0000E+00    0.0000E+00    2.861200E+08  0.00400  1.093E-03    0   0.6648   age125_m42            0.0000     7.7347E-01     4.3451   0.9547   101.5906
 12      0.0000     0.0000E+00    0.0000E+00    5.088000E+08  0.00400  6.597E-04    0   0.6365   age130_m42            0.0000     7.3197E-01     4.2017   0.9519   102.0614
 13     33.8597     2.7995E+01    2.8262E+01    1.434000E+09  0.00400  2.132E-04    0   0.5798   age139_m42            0.0000     5.0134E-01     3.4940  -0.0230   104.1905
 14      0.0000     0.0000E+00    0.0000E+00    4.250000E+09  0.00400  5.895E-05    0   0.5377   age158_m42            0.0000     6.0896E-01     3.8582  -0.4183    97.9664
 15      0.6058     3.0423E+00    2.7610E+00    7.500000E+09  0.00400  3.510E-05    0   0.5212   age171_m42            0.0000     7.4719E-01     4.2583  -0.5891    96.6017
 16      0.0000     0.0000E+00    0.0000E+00    1.300000E+10  0.00400  2.005E-05    0   0.5034   age193_m42            0.0000     9.1744E-01     4.7092  -0.7369    95.3926
 17      0.0000     0.0000E+00    0.0000E+00    1.800000E+10  0.00400  1.525E-05    0   0.4967   age213_m42            0.0000     8.8838E-01     4.6308  -0.7623    95.0541
 18      2.0117     2.8644E-02    4.9874E-02    1.000000E+06  0.00800  1.238E-02    0   1.0000   age020_m52            0.0000     1.4814E+00     6.0585   2.8832    84.2531
 19      1.9303     1.1069E-02    1.9208E-02    3.160000E+06  0.00800  3.074E-02    0   0.9966   age045_m52            0.0000     1.4202E+00     5.9339   2.8027    85.1522
 20      0.5831     3.8523E-03    6.3339E-03    5.010000E+06  0.00800  2.668E-02    0   0.9443   age055_m52            0.0000     1.1922E+00     5.3169   2.5396    87.9533
 21      2.4699     2.0382E-02    3.2569E-02    6.610000E+06  0.00800  2.136E-02    0   0.9177   age061_m52            0.0000     8.6256E-01     4.5080   1.2328    96.5046
 22      0.2189     3.1755E-03    4.8805E-03    1.000000E+07  0.00800  1.215E-02    0   0.8827   age070_m52            0.0000     1.0933E+00     5.0604   1.9070    95.6036
 23      0.3588     7.2551E-03    1.0803E-02    1.445000E+07  0.00800  8.717E-03    0   0.8552   age078_m52            0.0000     1.0263E+00     4.8546   2.0281    94.2312
 24      0.0000     0.0000E+00    0.0000E+00    2.512000E+07  0.00800  5.592E-03    0   0.8162   age090_m52            0.0000     9.5103E-01     4.7190   1.6475    98.1798
 25      0.0000     0.0000E+00    0.0000E+00    4.000000E+07  0.00800  3.896E-03    0   0.7841   age104_m52            0.0000     8.4549E-01     4.4830   1.5594    99.0345
 26      0.0000     0.0000E+00    0.0000E+00    1.015200E+08  0.00800  2.148E-03    0   0.7226   age116_m52            0.0000     7.4227E-01     4.2019   1.5018    98.6680
 27      0.0021     3.7823E-04    4.4012E-04    2.861200E+08  0.00800  9.925E-04    0   0.6683   age125_m52            0.0000     6.8208E-01     4.0943   1.0131   103.1907
 28      0.0000     0.0000E+00    0.0000E+00    9.047900E+08  0.00800  3.141E-04    0   0.6138   age135_m52            0.0000     6.2877E-01     3.9799   0.2296   106.8541
 29      1.0109     1.0366E+00    1.0564E+00    1.434000E+09  0.00800  1.719E-04    0   0.5853   age139_m52            0.0000     5.9958E-01     3.8386  -0.3326   103.8377
 30      0.0000     0.0000E+00    0.0000E+00    2.500000E+09  0.00800  7.872E-05    0   0.5600   age150_m52            0.0000     7.9249E-01     4.3847  -0.5683    99.3825
 31      0.3975     1.6159E+00    1.5267E+00    4.250000E+09  0.00800  4.336E-05    0   0.5426   age158_m52            0.0000     8.3418E-01     4.4761  -0.5790    98.2054
 32      0.0000     0.0000E+00    0.0000E+00    6.250000E+09  0.00800  3.159E-05    0   0.5319   age166_m52            0.0000     1.0739E+00     5.1024  -0.7642    97.4831
 33      0.0000     0.0000E+00    0.0000E+00    1.300000E+10  0.00800  1.361E-05    0   0.5073   age193_m52            0.0000     1.8133E+00     6.9284  -1.0000    87.3579
 34      0.0000     0.0000E+00    0.0000E+00    1.800000E+10  0.00800  9.886E-06    0   0.4990   age213_m52            0.0000     2.4694E+00     8.2404  -1.0000    82.8161
 35      1.0807     1.2338E-02    2.1483E-02    1.000000E+06  0.02000  1.544E-02    0   1.0000   age020_m62            0.0000     1.4920E+00     6.1012   2.8804    84.4009
 36      0.0000     0.0000E+00    0.0000E+00    3.160000E+06  0.02000  3.762E-02    0   0.9858   age045_m62            0.0000     1.4665E+00     6.0654   2.8183    85.2024
 37      0.0000     0.0000E+00    0.0000E+00    5.010000E+06  0.02000  3.296E-02    0   0.9342   age055_m62            0.0000     1.0592E+00     4.9317   2.4086    90.2736
 38      2.0622     3.1500E-02    4.8601E-02    8.710000E+06  0.02000  1.154E-02    0   0.8861   age067_m62            0.0000     2.4297E+00     7.7173   1.3237   100.0875
 39      0.0000     0.0000E+00    0.0000E+00    1.445000E+07  0.02000  7.663E-03    0   0.8472   age078_m62            0.0000     1.2927E+00     5.6020   1.5420    98.5149
 40      0.0000     0.0000E+00    0.0000E+00    2.512000E+07  0.02000  4.532E-03    0   0.8099   age090_m62            0.0000     1.3543E+00     5.7442   1.5284    98.6059
 41      0.0000     0.0000E+00    0.0000E+00    5.500000E+07  0.02000  2.733E-03    0   0.7595   age110_m62            0.0000     8.4667E-01     4.4478   1.5448    98.1736
 42      0.0172     2.2160E-03    2.6951E-03    1.609000E+08  0.02000  1.369E-03    0   0.6985   age120_m62            0.0000     7.3862E-01     4.1852   1.3767   101.2746
 43      0.0000     0.0000E+00    0.0000E+00    2.861200E+08  0.02000  9.013E-04    0   0.6714   age125_m62            0.0000     7.4789E-01     4.2253   1.1173   104.6517
 44      0.0001     4.2231E-05    4.7421E-05    5.088000E+08  0.02000  5.028E-04    0   0.6449   age130_m62            0.0000     7.7168E-01     4.3041   0.7559   106.6906
 45      0.0000     0.0000E+00    0.0000E+00    9.047900E+08  0.02000  2.428E-04    0   0.6179   age135_m62            0.0000     6.7032E-01     4.0650   0.1947   104.8901
 46      0.0000     0.0000E+00    0.0000E+00    1.434000E+09  0.02000  1.263E-04    0   0.5908   age139_m62            0.0000     7.3716E-01     4.2142  -0.2322   102.4774
 47      0.6848     2.0169E+00    1.9922E+00    2.500000E+09  0.02000  5.985E-05    0   0.5673   age150_m62            0.0000     1.0241E+00     5.0054  -0.5676    99.6408
 48      0.0000     0.0000E+00    0.0000E+00    4.250000E+09  0.02000  3.271E-05    0   0.5468   age158_m62            0.0000     1.4527E+00     6.1169  -0.8472    97.6601
 49      0.0000     0.0000E+00    0.0000E+00    1.000000E+10  0.02000  1.360E-05    0   0.5167   age181_m62            0.0000     2.3127E+00     7.8446  -1.0000    89.2585
 50      0.0000     0.0000E+00    0.0000E+00    1.800000E+10  0.02000  7.124E-06    0   0.5013   age213_m62            0.0000     3.4824E+00     9.8289  -1.0000    80.5851
 51      4.3602     2.9652E-02    5.1620E-02    1.000000E+06  0.05000  2.592E-02    0   0.9998   age020_m72            0.0000     1.5389E+00     6.2283   2.8736    84.3385
 52      1.3555     4.9317E-03    8.2237E-03    3.160000E+06  0.05000  4.845E-02    0   0.9577   age045_m72            0.0000     1.3072E+00     5.6243   2.6904    86.8258
 53      0.0000     0.0000E+00    0.0000E+00    5.010000E+06  0.05000  3.072E-02    0   0.9147   age055_m72            0.0000     1.2764E+00     5.6142   2.1760    92.7708
 54      0.0000     0.0000E+00    0.0000E+00    6.610000E+06  0.05000  1.455E-02    0   0.8877   age061_m72            0.0000     3.9484E+00     9.9893   1.3977   100.9607
 55      0.0000     0.0000E+00    0.0000E+00    1.000000E+07  0.05000  9.074E-03    0   0.8524   age070_m72            0.0000     1.4799E+00     6.1256   2.3894    91.8084
 56      0.0011     4.3908E-05    6.0412E-05    2.512000E+07  0.05000  4.250E-03    0   0.7902   age090_m72            0.0000     1.2062E+00     5.4131   2.0445    95.2142
 57      0.0000     0.0000E+00    0.0000E+00    4.000000E+07  0.05000  3.087E-03    0   0.7618   age104_m72            0.0000     1.2101E+00     5.4239   1.7988    97.6680
 58      0.0000     0.0000E+00    0.0000E+00    1.015200E+08  0.05000  1.700E-03    0   0.7096   age116_m72            0.0000     8.0214E-01     4.3971   1.5165   101.1038
 59      1.8559     4.4305E-01    5.1170E-01    2.861200E+08  0.05000  7.384E-04    0   0.6633   age125_m72            0.0000     7.3608E-01     4.2083   0.9920   105.7997
 60     27.3213     1.2611E+01    1.3991E+01    5.088000E+08  0.05000  3.819E-04    0   0.6372   age130_m72            0.0000     6.7944E-01     4.0834   0.5197   106.4540
 61     13.6577     1.4364E+01    1.5282E+01    9.047900E+08  0.05000  1.676E-04    0   0.6110   age135_m72            0.0000     9.4902E-01     4.9142  -0.1273   102.1929
 62      3.5489     7.0789E+00    7.2402E+00    1.434000E+09  0.05000  8.837E-05    0   0.5874   age139_m72            0.0000     1.1187E+00     5.2249  -0.5682   101.1417
 63      0.0000     0.0000E+00    0.0000E+00    2.500000E+09  0.05000  4.233E-05    0   0.5598   age150_m72            0.0000     1.6331E+00     6.5131  -0.8386    98.1212
 64      2.4101     2.9605E+01    2.7057E+01    6.250000E+09  0.05000  1.435E-05    0   0.5249   age166_m72            0.0000     2.7404E+00     8.6786  -1.0000    85.1186
 65      0.0000     0.0000E+00    0.0000E+00    1.300000E+10  0.05000  6.513E-06    0   0.5036   age193_m72            0.0000     4.6200E+00    11.6340  -1.0000    75.6441
 66      0.0000     0.0000E+00    0.0000E+00    1.800000E+10  0.05000  4.527E-06    0   0.4945   age213_m72            0.0000     5.9699E+00    13.5230  -1.0000    70.0798


## Synthesis Results - Average & Chains ##

# j      x_j: min, <> & last-chain-values for 1 ...  7 chains
  1      2.1894      0.8069      1.2933      1.9054      1.5922      1.0479      0.7202      1.6672      1.1389
  2      0.1166      0.5682      0.0000      0.8012      0.8752      0.0000      0.8009      0.0000      2.9650
  3      0.0000      0.1920      0.0000      0.9632      0.1283      0.0000      0.0422      1.1026      0.0844
  4      0.0000      0.2805      0.0000      1.1695      0.8357      0.6023      0.6011      0.0000      0.0000
  5      0.0013      0.5327      0.0000      0.0000      1.0691      1.4641      0.3307      0.6007      0.7160
  6      0.0000      0.2114      0.0000      1.0277      0.1590      0.0000      0.0000      0.0000      0.0000
  7      0.0000      0.3114      0.0000      1.3711      0.5502      0.0000      1.1297      0.0000      0.0000
  8      0.0000      0.4739      0.8052      0.0000      0.3847      0.0000      1.9594      0.0000      0.0199
  9      0.0000      0.4409      0.9319      0.7534      0.0000      0.0000      0.0000      2.3051      0.0000
 10      0.0000      0.8360      0.0000      0.8202      2.4552      1.2690      0.0000      1.0580      0.2092
 11      0.0000      0.6225      0.0000      0.0358      0.0000      0.0000      0.0000      0.0000      0.0000
 12      0.0000      0.7187      0.0000      0.0000      0.0000      0.6083      0.0000      0.1097      0.0000
 13     33.8597     20.0085     20.4837     21.0936     20.1555     21.4085     26.5355     17.7449     22.3901
 14      0.0000      0.3415      0.0000      0.0000      0.0000      0.9274      0.0000      0.0000      0.0000
 15      0.6058      0.3601      0.0000      0.0000      0.4077      0.0000      0.4988      0.0000      1.8640
 16      0.0000      0.3181      0.0000      0.0000      0.0000      0.0000      0.0000      0.4020      0.0000
 17      0.0000      0.1572      0.7963      0.4447      0.0000      0.2373      0.5012      0.0000      0.0000
 18      2.0117      0.7829      1.2675      0.0098      0.3004      1.5702      1.2528      1.8118      0.9834
 19      1.9303      0.6652      1.8654      0.0000      0.0000      0.8555      0.0000      0.0000      0.4492
 20      0.5831      0.4900      2.2548      0.7380      0.0708      0.0000      0.0000      0.0000      0.4088
 21      2.4699      3.0608      1.4183      2.6805      4.6564      3.2769      2.8267      4.6479      2.7715
 22      0.2189      0.2741      0.0000      0.0353      0.0000      0.0000      0.6980      0.0000      0.6301
 23      0.3588      2.4320      1.6858      2.1453      2.3805      1.2930      2.9452      1.7552      1.2210
 24      0.0000      0.4265      0.0000      0.0000      0.0000      0.0000      1.6183      1.1904      0.0000
 25      0.0000      0.3277      0.9994      0.0000      0.6983      0.0000      0.0000      0.2338      0.2230
 26      0.0000      0.3515      0.0000      0.4630      0.1233      0.0000      0.7060      0.2791      0.2934
 27      0.0021      0.7014      1.0813      0.0000      1.0266      0.1693      0.0000      0.0279      1.0551
 28      0.0000      1.8382      0.2840      1.7857      0.0000      0.3413      0.0000      0.0000      1.5016
 29      1.0109      2.0115      2.4548      2.6611      1.3570      1.7344      1.3293      0.5852      2.5006
 30      0.0000      0.3455      0.0000      0.5483      0.0000      0.0000      0.0000      0.0000      0.3115
 31      0.3975      3.5564      3.9309      3.6201      3.7839      3.6435      4.0099      4.4436      3.4638
 32      0.0000      0.0783      0.0000      0.0000      0.0410      0.0000      0.0000      0.0000      0.0000
 33      0.0000      0.0816      0.0000      0.0000      0.5471      0.0110      0.0000      0.0000      0.0000
 34      0.0000      0.0373      0.0000      0.0000      0.0000      0.2582      0.0000      0.0000      0.0000
 35      1.0807      0.4971      0.5584      0.8025      0.0000      0.0000      0.0000      0.0000      1.2746
 36      0.0000      1.0874      0.9768      0.0000      1.6062      3.6043      1.6072      0.5916      0.0000
 37      0.0000      0.3527      0.0000      0.0931      0.0000      0.0000      0.0000      0.6438      0.0000
 38      2.0622      0.9021      0.4021      0.8991      0.8122      1.6688      1.2579      1.7037      1.2911
 39      0.0000      0.5072      0.3400      0.0000      0.4651      0.0000      0.0000      0.0000      0.0000
 40      0.0000      2.0672      1.5562      1.8694      1.9541      4.7987      1.0056      3.6436      0.0000
 41      0.0000      0.3860      0.1522      0.0000      0.0000      0.0000      0.0000      0.0000      0.3066
 42      0.0172      0.5276      0.0000      0.0000      0.0291      0.0000      0.0000      0.0497      0.8294
 43      0.0000      0.4440      0.0000      0.5061      0.0000      1.5874      0.0000      0.0000      0.0000
 44      0.0001      3.0739      5.1725      1.3424      4.2985      1.8021      3.3343      2.6413      1.7903
 45      0.0000      2.4451      0.0300      3.3839      1.0528      0.0000      0.0000      0.0000      1.7486
 46      0.0000      2.7417      3.1193      0.0000      0.0000      3.2245      0.4709      2.4399      0.0000
