###################################################################
## OUTPUT of StarlightChains_v04.for    [Cid@UFSC - 01/Apr/2007] ##
###################################################################

## Some input info
2014cv.txt                               [arq_obs]
Base.CB07.vall.4m                        [arq_base]
Masks.EmLines.NEW.gm                     [arq_masks]
StCv04.C11.config                        [arq_config]
   66                                    [N_base]
    0                                    [N_YAV_components = # of components with extra extinction!]
    0                                    [i_FitPowerLaw (1/0 = Yes/No)]
-9.99                                    [alpha_PowerLaw]
CCM                                      [red_law_option]
 1.458241                                [q_norm = A(l_norm)/A(V)]

## (Re)Sampling Parameters
 3741.00                                 [l_ini (A)]
 7218.00                                 [l_fin (A)]
    1.00                                 [dl    (A)]     (OBS: dl_cushion =    50.00 A)

## Normalization info
 4020.00                                 [l_norm (A) - for base]
 4010.00                                 [llow_norm (A) - window for f_obs]
 4060.00                                 [lupp_norm (A) - window for f_obs]
2.476582E-16                             [fobs_norm (in input units)]

## S/N
 3691.00                                 [llow_SN (A) - window for S/N]
 7268.00                                 [lupp_SN (A) - window for S/N]
   3.989                                 [S/N in S/N window]
   2.644                                 [S/N in norm. window]
  36.929                                 [S/N_err in S/N window]
  24.476                                 [S/N_err in norm. window]
  1.0000                                 [fscale_chi2]

## etc...
    -2007419                             [idum_orig]
  2383                                   [NOl_eff]
  2353                                   [Nl_eff]
    30    NSIGMA                         [Ntot_cliped & clip_method]
  2356830                                [Nglobal_steps]
   7                                     [N_chains]
  33                                     [NEX0s_base = N_base in EX0s-fits]
 0   0   1        9   2.0   4.214E+01    [Clip-Bug, RC-Crash & Burn-In warning-flags, n_censored_weights, wei_nsig_threshold & wei_limit]
    26     25.240     24.743      0.498  [idt_all, wdt_TotTime, wdt_UsrTime & wdt_SysTime (sec)]

## Synthesis Results - Best model ##

 6.97859E-01                             [chi2/Nl_eff]
     1.81586                             [adev (%)]

   105.44775                             [sum-of-x (%)]
 1.05139E-15                             [Flux_tot (units of input spectrum!)]
 4.42236E-11                             [Mini_tot (???)]
 2.23313E-11                             [Mcor_tot (???)]

  29.30                                  [v0_min  (km/s)]
 167.40                                  [vd_min  (km/s)]
 1.0370                                  [AV_min  (mag)]
 0.0000                                  [YAV_min (mag)]

# j     x_j(%)      Mini_j(%)     Mcor_j(%)     age_j(yr)     Z_j      (L/M)_j    YAV?  Mstars   component_j        a/Fe...       SSP_chi2r SSP_adev(%)   SSP_AV   SSP_x(%)
  1      1.4919     3.0745E-03    6.0886E-03    1.000000E+06  0.00400  1.094E-02    0   1.0000   age020_m42            0.0000     9.6625E+00     6.8577   4.0000    98.3984
  2      0.4845     2.7263E-04    5.3985E-04    3.160000E+06  0.00400  4.007E-02    0   0.9999   age045_m42            0.0000     5.4489E+00     4.4198   3.5062    94.9676
  3      0.0000     0.0000E+00    0.0000E+00    5.010000E+06  0.00400  2.539E-02    0   0.9488   age055_m42            0.0000     5.9046E+00     4.7562   3.8123    93.2479
  4      0.0000     0.0000E+00    0.0000E+00    6.610000E+06  0.00400  2.620E-02    0   0.9220   age061_m42            0.0000     4.9650E+00     4.2635   3.4258    95.4766
  5      0.6909     1.1784E-03    2.0680E-03    1.000000E+07  0.00400  1.322E-02    0   0.8862   age070_m42            0.0000     3.6411E+00     3.8806   3.0930    99.7600
  6      1.5973     4.5685E-03    7.7543E-03    1.445000E+07  0.00400  7.883E-03    0   0.8571   age078_m42            0.0000     4.2003E+00     4.1435   3.4213    97.2064
  7      0.0697     2.9912E-04    4.8420E-04    2.512000E+07  0.00400  5.251E-03    0   0.8174   age090_m42            0.0000     3.5134E+00     3.9011   2.9557   100.6259
  8      0.1330     8.2177E-04    1.2777E-03    4.000000E+07  0.00400  3.649E-03    0   0.7851   age104_m42            0.0000     3.2205E+00     3.7239   2.7361   101.1016
  9      0.0000     0.0000E+00    0.0000E+00    5.500000E+07  0.00400  3.098E-03    0   0.7629   age110_m42            0.0000     3.4647E+00     3.7215   2.9165    99.8984
 10      0.0000     0.0000E+00    0.0000E+00    1.015200E+08  0.00400  2.228E-03    0   0.7207   age116_m42            0.0000     3.6539E+00     3.8619   2.9535    99.3419
 11      0.0000     0.0000E+00    0.0000E+00    2.861200E+08  0.00400  1.093E-03    0   0.6648   age125_m42            0.0000     3.2860E+00     3.9766   2.3733   102.9330
 12      0.0000     1.9395E-08    2.4447E-08    5.088000E+08  0.00400  6.597E-04    0   0.6365   age130_m42            0.0000     3.1405E+00     3.9526   2.3917   102.4739
 13      7.8404     8.2913E-01    9.5201E-01    1.434000E+09  0.00400  2.132E-04    0   0.5798   age139_m42            0.0000     1.4220E+00     2.8506   1.4352   103.7359
 14      0.0000     0.0000E+00    0.0000E+00    4.250000E+09  0.00400  5.895E-05    0   0.5377   age158_m42            0.0000     1.7765E+00     3.0784   1.0213    98.6646
 15      0.0000     0.0000E+00    0.0000E+00    7.500000E+09  0.00400  3.510E-05    0   0.5212   age171_m42            0.0000     2.0659E+00     3.4640   0.8486    97.4184
 16      0.0000     0.0000E+00    0.0000E+00    1.300000E+10  0.00400  2.005E-05    0   0.5034   age193_m42            0.0000     2.5311E+00     3.8736   0.6968    96.4015
 17      0.0008     1.2173E-03    1.1973E-03    1.800000E+10  0.00400  1.525E-05    0   0.4967   age213_m42            0.0000     2.4649E+00     3.7785   0.6701    96.1093
 18      2.7051     4.9265E-03    9.7560E-03    1.000000E+06  0.00800  1.238E-02    0   1.0000   age020_m52            0.0000     9.5770E+00     6.8218   4.0000    98.4372
 19      0.0000     0.0000E+00    0.0000E+00    3.160000E+06  0.00800  3.074E-02    0   0.9966   age045_m52            0.0000     8.0208E+00     6.0279   4.0000    96.0676
 20      0.0000     0.0000E+00    0.0000E+00    5.010000E+06  0.00800  2.668E-02    0   0.9443   age055_m52            0.0000     5.9228E+00     4.8743   3.8899    92.6184
 21      0.0000     0.0000E+00    0.0000E+00    6.610000E+06  0.00800  2.136E-02    0   0.9177   age061_m52            0.0000     2.7685E+00     3.4332   2.5949   100.8107
 22      7.4977     1.3913E-02    2.4321E-02    1.000000E+07  0.00800  1.215E-02    0   0.8827   age070_m52            0.0000     3.6741E+00     4.0601   3.2572   100.2479
 23      3.8940     1.0072E-02    1.7057E-02    1.445000E+07  0.00800  8.717E-03    0   0.8552   age078_m52            0.0000     3.8275E+00     3.9722   3.3851    98.5997
 24      2.7129     1.0938E-02    1.7679E-02    2.512000E+07  0.00800  5.592E-03    0   0.8162   age090_m52            0.0000     3.1963E+00     3.8064   3.0185   101.8754
 25      2.4822     1.4365E-02    2.2305E-02    4.000000E+07  0.00800  3.896E-03    0   0.7841   age104_m52            0.0000     3.0981E+00     3.7003   2.9467   101.9530
 26      0.0245     2.5729E-04    3.6819E-04    1.015200E+08  0.00800  2.148E-03    0   0.7226   age116_m52            0.0000     3.2223E+00     3.6759   2.9106   100.6350
 27      0.0000     0.0000E+00    0.0000E+00    2.861200E+08  0.00800  9.925E-04    0   0.6683   age125_m52            0.0000     2.7623E+00     3.7948   2.4560   103.4508
 28      3.4310     2.4628E-01    2.9936E-01    9.047900E+08  0.00800  3.141E-04    0   0.6138   age135_m52            0.0000     1.9514E+00     3.4120   1.7006   105.7171
 29      0.0000     0.0000E+00    0.0000E+00    1.434000E+09  0.00800  1.719E-04    0   0.5853   age139_m52            0.0000     1.4621E+00     2.9268   1.1190   103.7078
 30      0.0000     0.0000E+00    0.0000E+00    2.500000E+09  0.00800  7.872E-05    0   0.5600   age150_m52            0.0000     2.1025E+00     3.6750   0.8810    99.6125
 31      0.0000     0.0000E+00    0.0000E+00    4.250000E+09  0.00800  4.336E-05    0   0.5426   age158_m52            0.0000     2.2566E+00     3.7711   0.8664    98.6612
 32      0.0000     0.0000E+00    0.0000E+00    6.250000E+09  0.00800  3.159E-05    0   0.5319   age166_m52            0.0000     3.0453E+00     4.4637   0.6862    97.7649
 33     20.6991     3.4290E+01    3.4448E+01    1.300000E+10  0.00800  1.361E-05    0   0.5073   age193_m52            0.0000     4.3878E+00     5.4515   0.2452    96.0048
 34     12.0185     2.7409E+01    2.7086E+01    1.800000E+10  0.00800  9.886E-06    0   0.4990   age213_m52            0.0000     5.7869E+00     6.3104   0.1616    94.5707
 35      0.0000     0.0000E+00    0.0000E+00    1.000000E+06  0.02000  1.544E-02    0   1.0000   age020_m62            0.0000     9.5375E+00     6.8060   4.0000    98.5055
 36      0.0000     0.0000E+00    0.0000E+00    3.160000E+06  0.02000  3.762E-02    0   0.9858   age045_m62            0.0000     8.3935E+00     6.2317   4.0000    96.7989
 37      0.0000     0.0000E+00    0.0000E+00    5.010000E+06  0.02000  3.296E-02    0   0.9342   age055_m62            0.0000     5.6933E+00     4.6633   3.7798    94.0774
 38      7.7500     1.5142E-02    2.6570E-02    8.710000E+06  0.02000  1.154E-02    0   0.8861   age067_m62            0.0000     6.0676E+00     6.3175   2.6119   107.7214
 39      2.0602     6.0615E-03    1.0170E-02    1.445000E+07  0.02000  7.663E-03    0   0.8472   age078_m62            0.0000     3.6895E+00     4.4469   2.8772   103.8388
 40      1.2291     6.1147E-03    9.8073E-03    2.512000E+07  0.02000  4.532E-03    0   0.8099   age090_m62            0.0000     3.9507E+00     4.5944   2.8662   103.7230
 41      0.0000     0.0000E+00    0.0000E+00    5.500000E+07  0.02000  2.733E-03    0   0.7595   age110_m62            0.0000     2.9355E+00     3.6294   2.9252   101.4231
 42      0.0000     0.0000E+00    0.0000E+00    1.609000E+08  0.02000  1.369E-03    0   0.6985   age120_m62            0.0000     3.0030E+00     3.7508   2.7996   102.5578
 43      0.0000     0.0000E+00    0.0000E+00    2.861200E+08  0.02000  9.013E-04    0   0.6714   age125_m62            0.0000     2.9049E+00     3.9100   2.5675   104.5925
 44      0.0000     0.0000E+00    0.0000E+00    5.088000E+08  0.02000  5.028E-04    0   0.6449   age130_m62            0.0000     2.9786E+00     4.0734   2.2336   105.3279
 45      0.6757     6.2744E-02    7.6777E-02    9.047900E+08  0.02000  2.428E-04    0   0.6179   age135_m62            0.0000     1.9872E+00     3.4634   1.6653   103.9879
 46      0.0000     0.0000E+00    0.0000E+00    1.434000E+09  0.02000  1.263E-04    0   0.5908   age139_m62            0.0000     1.8782E+00     3.4813   1.2263   102.2716
 47      0.0000     0.0000E+00    0.0000E+00    2.500000E+09  0.02000  5.985E-05    0   0.5673   age150_m62            0.0000     2.9893E+00     4.4491   0.8870    99.7573
 48      0.0000     0.0000E+00    0.0000E+00    4.250000E+09  0.02000  3.271E-05    0   0.5468   age158_m62            0.0000     4.6229E+00     5.6644   0.6157    97.4950
 49      0.0000     0.0000E+00    0.0000E+00    1.000000E+10  0.02000  1.360E-05    0   0.5167   age181_m62            0.0000     7.0726E+00     7.0464   0.3063    95.5195
 50      0.0000     0.0000E+00    0.0000E+00    1.800000E+10  0.02000  7.124E-06    0   0.5013   age213_m62            0.0000     9.4813E+00     8.1494   0.1294    93.4820
 51      0.0000     0.0000E+00    0.0000E+00    1.000000E+06  0.05000  2.592E-02    0   0.9998   age020_m72            0.0000     9.4280E+00     6.7933   4.0000    98.1830
 52      0.0000     0.0000E+00    0.0000E+00    3.160000E+06  0.05000  4.845E-02    0   0.9577   age045_m72            0.0000     6.9262E+00     5.3520   4.0000    93.1677
 53      0.0010     6.9916E-07    1.2665E-06    5.010000E+06  0.05000  3.072E-02    0   0.9147   age055_m72            0.0000     4.6290E+00     4.6657   3.5003    98.4655
 54      0.0000     0.0000E+00    0.0000E+00    6.610000E+06  0.05000  1.455E-02    0   0.8877   age061_m72            0.0000     1.3848E+01     9.0443   2.6461   110.1499
 55      0.0000     0.0000E+00    0.0000E+00    1.000000E+07  0.05000  9.074E-03    0   0.8524   age070_m72            0.0000     6.4201E+00     5.5215   3.7081    97.6193
 56      2.9861     1.5841E-02    2.4789E-02    2.512000E+07  0.05000  4.250E-03    0   0.7902   age090_m72            0.0000     4.8992E+00     4.7610   3.3939    99.6516
 57      1.0349     7.5587E-03    1.1403E-02    4.000000E+07  0.05000  3.087E-03    0   0.7618   age104_m72            0.0000     4.8264E+00     4.8010   3.1592   101.5593
 58      1.7210     2.2824E-02    3.2074E-02    1.015200E+08  0.05000  1.700E-03    0   0.7096   age116_m72            0.0000     3.2612E+00     3.9404   2.9275   102.8327
 59      2.1155     6.4595E-02    8.4849E-02    2.861200E+08  0.05000  7.384E-04    0   0.6633   age125_m72            0.0000     2.7112E+00     3.8618   2.4574   104.9799
 60      6.8998     4.0734E-01    5.1402E-01    5.088000E+08  0.05000  3.819E-04    0   0.6372   age130_m72            0.0000     2.2382E+00     3.6831   1.9984   105.1254
 61      0.0000     0.0000E+00    0.0000E+00    9.047900E+08  0.05000  1.676E-04    0   0.6110   age135_m72            0.0000     3.0295E+00     4.5689   1.3392   101.7754
 62      0.7844     2.0012E-01    2.3279E-01    1.434000E+09  0.05000  8.837E-05    0   0.5874   age139_m72            0.0000     3.1890E+00     4.6231   0.8924   100.9520
 63      0.0000     0.0000E+00    0.0000E+00    2.500000E+09  0.05000  4.233E-05    0   0.5598   age150_m72            0.0000     5.3369E+00     6.0689   0.6256    97.8940
 64      3.4165     5.3678E+00    5.5797E+00    6.250000E+09  0.05000  1.435E-05    0   0.5249   age166_m72            0.0000     8.0859E+00     7.4814   0.2203    94.6899
 65      2.5543     8.8421E+00    8.8183E+00    1.300000E+10  0.05000  6.513E-06    0   0.5036   age193_m72            0.0000     1.1428E+01     8.8636  -0.0175    93.9239
 66      4.4457     2.2141E+01    2.1682E+01    1.800000E+10  0.05000  4.527E-06    0   0.4945   age213_m72            0.0000     1.3793E+01     9.6958  -0.1524    92.7200


## Synthesis Results - Average & Chains ##

# j      x_j: min, <> & last-chain-values for 1 ...  7 chains
  1      1.4919      0.8494      0.6901      0.9637      0.7378      0.6422      0.6124      1.0085      1.0271
  2      0.4845      0.9116      0.6130      0.9084      0.8709      0.9510      0.8272      1.1493      0.8597
  3      0.0000      0.1195      0.5140      0.0373      0.0000      0.2768      0.0000      0.2151      0.0000
  4      0.0000      0.0652      0.0067      0.0000      0.0000      0.0000      0.0000      0.0000      0.0000
  5      0.6909      0.9392      0.7394      0.8877      1.4762      0.9933      1.0719      1.0053      0.9888
  6      1.5973      1.6172      1.6102      1.8095      1.7140      1.9495      1.5038      1.6165      1.4743
  7      0.0697      0.2181      0.4216      0.1724      0.2597      0.0000      0.1042      0.4271      0.0000
  8      0.1330      0.1070      0.2973      0.2611      0.0000      0.0958      0.0000      0.4417      0.7028
  9      0.0000      0.0789      0.0000      0.0000      0.0000      0.0000      0.0000      0.0023      0.2008
 10      0.0000      0.1345      0.0000      0.0000      0.7039      0.0000      0.5926      0.0000      0.0720
 11      0.0000      0.3203      0.0000      0.3480      0.0000      0.0794      0.2569      0.0000      0.0000
 12      0.0000      0.7080      0.9312      0.7716      0.7684      0.3815      0.4270      0.7935      0.4391
 13      7.8404      5.9854      5.9684      6.0449      5.3778      8.1510      6.5584      6.2230      5.9852
 14      0.0000      0.2139      0.0000      0.0000      0.0000      0.0000      0.0000      0.0000      0.0009
 15      0.0000      0.1598      0.1103      0.0000      0.0000      0.2429      0.0000      0.0000      0.0000
 16      0.0000      0.9956      0.0000      0.4949      0.8501      0.4607      0.8943      0.0000      0.3024
 17      0.0008      7.4956      7.6841      7.6349      7.1765      5.8766      6.9210      7.0991      7.5534
 18      2.7051      1.9552      2.0129      2.0152      1.9209      1.9612      2.2544      2.6736      1.8678
 19      0.0000      0.0931      0.0432      0.3498      0.0000      0.2719      0.0000      0.2187      0.0000
 20      0.0000      0.0701      0.3010      0.0000      0.1062      0.0000      0.0000      0.1399      0.2056
 21      0.0000      0.1056      0.0000      0.0000      0.0000      0.0000      0.2565      0.0000      0.2949
 22      7.4977      6.1491      6.0996      6.2242      6.2307      6.0999      6.7133      6.2929      6.3450
 23      3.8940      3.3379      3.3855      3.6958      3.1858      3.5698      3.4161      3.5471      3.5156
 24      2.7129      1.9950      2.0660      2.1003      2.1694      1.8408      2.0048      2.2302      2.1901
 25      2.4822      1.5739      1.6045      1.3700      2.2086      1.8397      2.0683      1.8260      1.7001
 26      0.0245      0.2572      0.0000      0.4658      0.0000      0.2412      0.3147      0.6885      0.0000
 27      0.0000      0.1682      0.0000      0.0000      0.0000      0.2176      0.0000      0.0000      0.0000
 28      3.4310      2.2354      2.2729      2.4093      2.5221      2.2956      2.1405      3.8787      1.7787
 29      0.0000      0.1661      0.0000      0.0760      0.0000      0.0000      0.0000      0.0000      0.1340
 30      0.0000      0.1355      0.0000      0.0000      0.0000      0.0000      0.0000      0.0000      0.0000
 31      0.0000      0.1266      0.0000      0.0000      0.0000      0.1799      0.0000      0.0000      0.0752
 32      0.0000      0.0985      0.0000      0.0000      0.0000      0.0000      0.0000      0.0000      0.2556
 33     20.6991     16.1865     16.5538     16.7775     16.5536     16.9136     16.2239     17.1391     16.5999
 34     12.0185     10.6212     10.5896     10.7506     10.9539     11.0576     10.9489     10.9662     10.8654
 35      0.0000      0.2924      0.0839      0.0000      0.0000      0.2280      0.2232      0.1543      0.0000
 36      0.0000      0.0430      0.0000      0.0000      0.0000      0.0000      0.0000      0.0000      0.0000
 37      0.0000      0.0723      0.3341      0.0000      0.3575      0.0000      0.0000      0.0000      0.0000
 38      7.7500      3.3045      3.6786      3.2358      3.5147      3.4471      3.3226      3.8661      3.4745
 39      2.0602      1.8034      2.2152      1.6323      1.8800      1.9462      1.9374      1.7780      2.1343
 40      1.2291      1.3704      1.3460      2.1181      1.1303      1.4188      1.5911      0.7072      1.3501
 41      0.0000      0.2529      0.0000      0.0000      0.0000      0.3776      0.4717      0.0000      0.3799
 42      0.0000      0.1570      0.0000      0.0000      0.0000      0.0871      0.0000      0.1666      0.7232
 43      0.0000      0.1404      0.0000      0.2321      0.8525      0.4227      0.0000      0.3563      0.0099
 44      0.0000      0.4843      1.3227      0.3976      0.7197      0.4988      0.6238      0.0000      1.1544
 45      0.6757      0.5055      1.0879      0.3292      0.2201      0.5561      0.4198      0.9680      0.6001
 46      0.0000      0.4799      0.3702      0.0000      0.6958      0.0000      1.5334      0.2269      0.1689
