###################################################################
## OUTPUT of StarlightChains_v04.for    [Cid@UFSC - 01/Apr/2007] ##
###################################################################

## Some input info
2015bb.txt                               [arq_obs]
Base.CB07.vall.4m                        [arq_base]
Masks.EmLines.NEW.gm                     [arq_masks]
StCv04.C11.config                        [arq_config]
   66                                    [N_base]
    0                                    [N_YAV_components = # of components with extra extinction!]
    0                                    [i_FitPowerLaw (1/0 = Yes/No)]
-9.99                                    [alpha_PowerLaw]
CCM                                      [red_law_option]
 1.458241                                [q_norm = A(l_norm)/A(V)]

## (Re)Sampling Parameters
 3741.00                                 [l_ini (A)]
 7218.00                                 [l_fin (A)]
    1.00                                 [dl    (A)]     (OBS: dl_cushion =    50.00 A)

## Normalization info
 4020.00                                 [l_norm (A) - for base]
 4010.00                                 [llow_norm (A) - window for f_obs]
 4060.00                                 [lupp_norm (A) - window for f_obs]
8.889013E-17                             [fobs_norm (in input units)]

## S/N
 3691.00                                 [llow_SN (A) - window for S/N]
 7268.00                                 [lupp_SN (A) - window for S/N]
   8.718                                 [S/N in S/N window]
   8.150                                 [S/N in norm. window]
  17.172                                 [S/N_err in S/N window]
  16.053                                 [S/N_err in norm. window]
  1.0000                                 [fscale_chi2]

## etc...
    -2007425                             [idum_orig]
  2384                                   [NOl_eff]
  2372                                   [Nl_eff]
    12    NSIGMA                         [Ntot_cliped & clip_method]
  1951390                                [Nglobal_steps]
   7                                     [N_chains]
  31                                     [NEX0s_base = N_base in EX0s-fits]
 0   0   1        4   2.0   3.062E+01    [Clip-Bug, RC-Crash & Burn-In warning-flags, n_censored_weights, wei_nsig_threshold & wei_limit]
    18     17.871     17.369      0.502  [idt_all, wdt_TotTime, wdt_UsrTime & wdt_SysTime (sec)]

## Synthesis Results - Best model ##

 4.13352E-01                             [chi2/Nl_eff]
     3.00064                             [adev (%)]

   106.45070                             [sum-of-x (%)]
 1.41537E-16                             [Flux_tot (units of input spectrum!)]
 3.13467E-12                             [Mini_tot (???)]
 1.63643E-12                             [Mcor_tot (???)]

-143.88                                  [v0_min  (km/s)]
 147.45                                  [vd_min  (km/s)]
 0.2998                                  [AV_min  (mag)]
 0.0000                                  [YAV_min (mag)]

# j     x_j(%)      Mini_j(%)     Mcor_j(%)     age_j(yr)     Z_j      (L/M)_j    YAV?  Mstars   component_j        a/Fe...       SSP_chi2r SSP_adev(%)   SSP_AV   SSP_x(%)
  1      0.0000     0.0000E+00    0.0000E+00    1.000000E+06  0.00400  1.094E-02    0   1.0000   age020_m42            0.0000     1.5248E+00     5.3242   3.3422    88.4618
  2      0.5653     5.9843E-04    1.1462E-03    3.160000E+06  0.00400  4.007E-02    0   0.9999   age045_m42            0.0000     1.2504E+00     4.6555   2.5913    95.8492
  3      0.0000     0.0000E+00    0.0000E+00    5.010000E+06  0.00400  2.539E-02    0   0.9488   age055_m42            0.0000     1.3162E+00     4.7894   2.9179    93.1371
  4      0.0000     0.0000E+00    0.0000E+00    6.610000E+06  0.00400  2.620E-02    0   0.9220   age061_m42            0.0000     1.2070E+00     4.5468   2.5086    96.5095
  5      5.3663     1.7218E-02    2.9228E-02    1.000000E+07  0.00400  1.322E-02    0   0.8862   age070_m42            0.0000     1.2102E+00     4.7454   2.1760   101.0695
  6      2.1497     1.1567E-02    1.8990E-02    1.445000E+07  0.00400  7.883E-03    0   0.8571   age078_m42            0.0000     1.2841E+00     4.8327   2.5173    97.8048
  7      4.4823     3.6207E-02    5.6692E-02    2.512000E+07  0.00400  5.251E-03    0   0.8174   age090_m42            0.0000     1.2480E+00     4.8714   2.0326   102.3094
  8      0.0000     0.0000E+00    0.0000E+00    4.000000E+07  0.00400  3.649E-03    0   0.7851   age104_m42            0.0000     1.1422E+00     4.7089   1.8042   103.2165
  9      0.0000     0.0000E+00    0.0000E+00    5.500000E+07  0.00400  3.098E-03    0   0.7629   age110_m42            0.0000     1.1169E+00     4.5825   1.9787   102.2090
 10      0.0000     0.0000E+00    0.0000E+00    1.015200E+08  0.00400  2.228E-03    0   0.7207   age116_m42            0.0000     1.1416E+00     4.6110   2.0111   101.8118
 11      0.0000     0.0000E+00    0.0000E+00    2.861200E+08  0.00400  1.093E-03    0   0.6648   age125_m42            0.0000     1.1931E+00     5.0293   1.4205   106.2068
 12      0.0000     0.0000E+00    0.0000E+00    5.088000E+08  0.00400  6.597E-04    0   0.6365   age130_m42            0.0000     1.1136E+00     4.8465   1.4287   106.1178
 13      0.0000     0.0000E+00    0.0000E+00    1.434000E+09  0.00400  2.132E-04    0   0.5798   age139_m42            0.0000     6.6181E-01     3.8110   0.4499   108.4518
 14     17.5528     1.2630E+01    1.3008E+01    4.250000E+09  0.00400  5.895E-05    0   0.5377   age158_m42            0.0000     5.6931E-01     3.4588   0.0538   101.9745
 15      3.9599     4.7852E+00    4.7775E+00    7.500000E+09  0.00400  3.510E-05    0   0.5212   age171_m42            0.0000     6.6121E-01     3.6788  -0.1134   100.3588
 16      1.1524     2.4378E+00    2.3508E+00    1.300000E+10  0.00400  2.005E-05    0   0.5034   age193_m42            0.0000     7.8965E-01     3.9895  -0.2584    98.9392
 17      0.0000     0.0000E+00    0.0000E+00    1.800000E+10  0.00400  1.525E-05    0   0.4967   age213_m42            0.0000     7.5768E-01     3.9207  -0.2869    98.7196
 18      0.5967     2.0445E-03    3.9164E-03    1.000000E+06  0.00800  1.238E-02    0   1.0000   age020_m52            0.0000     1.5146E+00     5.3166   3.3386    88.6321
 19      1.7458     2.4089E-03    4.5986E-03    3.160000E+06  0.00800  3.074E-02    0   0.9966   age045_m52            0.0000     1.4607E+00     5.2064   3.2586    89.5435
 20      0.0000     0.0000E+00    0.0000E+00    5.010000E+06  0.00800  2.668E-02    0   0.9443   age055_m52            0.0000     1.2927E+00     4.7937   3.0002    92.2808
 21      3.6109     7.1703E-03    1.2605E-02    6.610000E+06  0.00800  2.136E-02    0   0.9177   age061_m52            0.0000     9.0189E-01     4.1191   1.6777   102.0332
 22      0.0000     0.0000E+00    0.0000E+00    1.000000E+07  0.00800  1.215E-02    0   0.8827   age070_m52            0.0000     1.2964E+00     5.0095   2.3474   101.2933
 23      0.8830     4.2967E-03    7.0388E-03    1.445000E+07  0.00800  8.717E-03    0   0.8552   age078_m52            0.0000     1.2092E+00     4.7135   2.4766    99.4570
 24      0.3592     2.7249E-03    4.2604E-03    2.512000E+07  0.00800  5.592E-03    0   0.8162   age090_m52            0.0000     1.1987E+00     4.8658   2.0916   103.8207
 25      0.2705     2.9451E-03    4.4235E-03    4.000000E+07  0.00800  3.896E-03    0   0.7841   age104_m52            0.0000     1.1256E+00     4.7570   2.0103   104.3763
 26      0.0000     0.0000E+00    0.0000E+00    1.015200E+08  0.00800  2.148E-03    0   0.7226   age116_m52            0.0000     1.0406E+00     4.5354   1.9668   103.2833
 27      0.0000     0.0000E+00    0.0000E+00    2.861200E+08  0.00800  9.925E-04    0   0.6683   age125_m52            0.0000     1.0158E+00     4.7187   1.4914   107.2514
 28      0.0000     0.0000E+00    0.0000E+00    9.047900E+08  0.00800  3.141E-04    0   0.6138   age135_m52            0.0000     8.0610E-01     4.2762   0.7106   110.8109
 29      0.0000     0.0000E+00    0.0000E+00    1.434000E+09  0.00800  1.719E-04    0   0.5853   age139_m52            0.0000     6.4501E-01     3.8181   0.1387   108.0329
 30      0.0000     0.0000E+00    0.0000E+00    2.500000E+09  0.00800  7.872E-05    0   0.5600   age150_m52            0.0000     7.1478E-01     3.8224  -0.0853   102.8642
 31      0.0000     0.0000E+00    0.0000E+00    4.250000E+09  0.00800  4.336E-05    0   0.5426   age158_m52            0.0000     7.5287E-01     3.8976  -0.0969   101.7047
 32      0.0000     0.0000E+00    0.0000E+00    6.250000E+09  0.00800  3.159E-05    0   0.5319   age166_m52            0.0000     9.6430E-01     4.4151  -0.2751   100.5864
 33      0.0000     0.0000E+00    0.0000E+00    1.300000E+10  0.00800  1.361E-05    0   0.5073   age193_m52            0.0000     1.3107E+00     5.2406  -0.7132    98.5244
 34      0.8494     3.6445E+00    3.4836E+00    1.800000E+10  0.00800  9.886E-06    0   0.4990   age213_m52            0.0000     1.6485E+00     5.9563  -0.7917    96.7359
 35      0.1090     2.9950E-04    5.7371E-04    1.000000E+06  0.02000  1.544E-02    0   1.0000   age020_m62            0.0000     1.5204E+00     5.3376   3.3340    88.8513
 36      0.0000     0.0000E+00    0.0000E+00    3.160000E+06  0.02000  3.762E-02    0   0.9858   age045_m62            0.0000     1.4906E+00     5.2838   3.2742    89.5841
 37      0.0472     6.0757E-05    1.0873E-04    5.010000E+06  0.02000  3.296E-02    0   0.9342   age055_m62            0.0000     1.2405E+00     4.6181   2.8781    94.2919
 38      6.7305     2.4738E-02    4.1990E-02    8.710000E+06  0.02000  1.154E-02    0   0.8861   age067_m62            0.0000     2.6626E+00     7.6643   1.7192   108.3653
 39      0.0000     0.0000E+00    0.0000E+00    1.445000E+07  0.02000  7.663E-03    0   0.8472   age078_m62            0.0000     1.4845E+00     5.5934   1.9659   105.1393
 40      0.0000     0.0000E+00    0.0000E+00    2.512000E+07  0.02000  4.532E-03    0   0.8099   age090_m62            0.0000     1.6079E+00     5.8263   1.9527   105.2025
 41      0.0446     6.9220E-04    1.0070E-03    5.500000E+07  0.02000  2.733E-03    0   0.7595   age110_m62            0.0000     1.0975E+00     4.6204   1.9947   103.4799
 42      0.0000     0.0000E+00    0.0000E+00    1.609000E+08  0.02000  1.369E-03    0   0.6985   age120_m62            0.0000     1.0834E+00     4.6624   1.8485   105.6307
 43      0.0000     0.0000E+00    0.0000E+00    2.861200E+08  0.02000  9.013E-04    0   0.6714   age125_m62            0.0000     1.0892E+00     4.8081   1.6001   108.5639
 44      0.0000     0.0000E+00    0.0000E+00    5.088000E+08  0.02000  5.028E-04    0   0.6449   age130_m62            0.0000     1.0147E+00     4.6346   1.2497   110.0511
 45      0.0000     0.0000E+00    0.0000E+00    9.047900E+08  0.02000  2.428E-04    0   0.6179   age135_m62            0.0000     7.4158E-01     3.9608   0.6826   108.4204
 46      0.0000     0.0000E+00    0.0000E+00    1.434000E+09  0.02000  1.263E-04    0   0.5908   age139_m62            0.0000     7.0681E-01     3.8147   0.2518   106.0716
 47      0.0000     0.0000E+00    0.0000E+00    2.500000E+09  0.02000  5.985E-05    0   0.5673   age150_m62            0.0000     9.2605E-01     4.3446  -0.0762   102.7364
 48      3.2057     4.1569E+00    4.3541E+00    4.250000E+09  0.02000  3.271E-05    0   0.5468   age158_m62            0.0000     1.3073E+00     5.3315  -0.3450   100.1419
 49      0.8689     2.7100E+00    2.6823E+00    1.000000E+10  0.02000  1.360E-05    0   0.5167   age181_m62            0.0000     1.9402E+00     6.6378  -0.6491    97.7614
 50      2.1052     1.2534E+01    1.2036E+01    1.800000E+10  0.02000  7.124E-06    0   0.5013   age213_m62            0.0000     2.4872E+00     7.6432  -0.8173    95.1873
 51      1.2894     2.1100E-03    4.0411E-03    1.000000E+06  0.05000  2.592E-02    0   0.9998   age020_m72            0.0000     1.5479E+00     5.4149   3.3244    88.8991
 52      4.6848     4.1013E-03    7.5239E-03    3.160000E+06  0.05000  4.845E-02    0   0.9577   age045_m72            0.0000     1.3930E+00     4.9969   3.1533    90.9796
 53      2.4403     3.3694E-03    5.9038E-03    5.010000E+06  0.05000  3.072E-02    0   0.9147   age055_m72            0.0000     1.4264E+00     5.3315   2.6105    98.4705
 54      0.0000     0.0000E+00    0.0000E+00    6.610000E+06  0.05000  1.455E-02    0   0.8877   age061_m72            0.0000     4.5868E+00    10.2407   1.7731   110.1218
 55      0.0000     0.0000E+00    0.0000E+00    1.000000E+07  0.05000  9.074E-03    0   0.8524   age070_m72            0.0000     1.7979E+00     6.0770   2.8256    97.3041
 56      0.0000     0.0000E+00    0.0000E+00    2.512000E+07  0.05000  4.250E-03    0   0.7902   age090_m72            0.0000     1.5420E+00     5.5916   2.4857   100.6917
 57      0.0000     0.0000E+00    0.0000E+00    4.000000E+07  0.05000  3.087E-03    0   0.7618   age104_m72            0.0000     1.6116E+00     5.7675   2.2387   103.3045
 58      0.0000     0.0000E+00    0.0000E+00    1.015200E+08  0.05000  1.700E-03    0   0.7096   age116_m72            0.0000     1.1865E+00     4.9459   1.9815   105.7664
 59      0.0000     0.0000E+00    0.0000E+00    2.861200E+08  0.05000  7.384E-04    0   0.6633   age125_m72            0.0000     1.0242E+00     4.6780   1.4790   109.4906
 60      0.0000     0.0000E+00    0.0000E+00    5.088000E+08  0.05000  3.819E-04    0   0.6372   age130_m72            0.0000     8.0658E-01     4.0614   1.0107   109.9061
 61     18.9675     4.8003E+00    5.6182E+00    9.047900E+08  0.05000  1.676E-04    0   0.6110   age135_m72            0.0000     9.1318E-01     4.4062   0.3686   105.2044
 62      8.5715     4.1141E+00    4.6292E+00    1.434000E+09  0.05000  8.837E-05    0   0.5874   age139_m72            0.0000     1.0148E+00     4.5512  -0.0761   104.2042
 63      9.2530     9.2718E+00    9.9424E+00    2.500000E+09  0.05000  4.233E-05    0   0.5598   age150_m72            0.0000     1.4791E+00     5.6892  -0.3332   100.4179
 64      0.0000     0.0000E+00    0.0000E+00    6.250000E+09  0.05000  1.435E-05    0   0.5249   age166_m72            0.0000     2.1119E+00     7.0156  -0.7338    96.7763
 65      1.4698     9.5722E+00    9.2340E+00    1.300000E+10  0.05000  6.513E-06    0   0.5036   age193_m72            0.0000     2.8631E+00     8.3116  -0.9593    95.3274
 66      3.1187     2.9221E+01    2.7679E+01    1.800000E+10  0.05000  4.527E-06    0   0.4945   age213_m72            0.0000     3.4188E+00     9.1388  -1.0000    90.1407


## Synthesis Results - Average & Chains ##

# j      x_j: min, <> & last-chain-values for 1 ...  7 chains
  1      0.0000      0.2359      0.0000      0.5807      0.0991      0.0000      0.0000      0.0629      0.0000
  2      0.5653      2.1230      2.1358      2.1575      2.1198      2.1679      2.6796      2.3894      3.2619
  3      0.0000      0.5120      0.7615      0.3778      0.4036      1.0539      1.5386      0.0000      0.0439
  4      0.0000      0.3351      0.0000      0.0000      0.0000      0.0000      0.0000      0.6252      0.5541
  5      5.3663      4.6047      3.9541      4.7549      5.7810      5.0473      5.0861      4.5845      3.8528
  6      2.1497      0.6441      1.2498      0.0000      0.7972      0.9404      0.9405      0.0000      1.2311
  7      4.4823      3.7449      4.3644      3.0724      3.8726      3.6681      2.8299      3.2929      4.5726
  8      0.0000      0.2815      0.6966      2.0928      0.0000      0.0000      0.3847      0.0000      0.2043
  9      0.0000      0.2954      0.3357      1.2681      0.0000      0.0000      0.8427      1.1747      0.0000
 10      0.0000      0.2479      0.0683      0.0000      0.0000      0.7234      0.0000      0.0000      0.0000
 11      0.0000      0.1171      0.0000      0.0000      0.0000      0.0000      0.0000      0.0000      0.0000
 12      0.0000      0.2085      0.4052      0.0000      0.0000      0.0802      0.0000      0.0000      0.7633
 13      0.0000      0.8908      0.4195      0.0899      0.0000      0.8167      0.0000      0.0000      0.0000
 14     17.5528      8.9536      9.5306     10.0303      9.3356     10.6074      9.3969      9.2617     11.3312
 15      3.9599      3.7701      3.2407      3.4881      2.6448      3.7651      6.7516      3.0175      4.4254
 16      1.1524      0.8536      1.7426      1.9723      3.7348      0.0000      0.0000      2.2753      1.3174
 17      0.0000      0.8745      1.2398      0.7978      0.0000      1.4225      0.0000      0.8339      0.5546
 18      0.5967      1.1694      1.2002      1.5891      1.2532      1.5968      0.8845      0.6079      1.1167
 19      1.7458      0.7687      1.5623      0.9990      1.8602      0.8116      0.8089      1.2194      0.5721
 20      0.0000      0.4688      0.0000      0.2681      0.4145      1.0533      0.0000      0.1012      0.0000
 21      3.6109      2.3443      3.3726      2.1659      3.2739      1.9831      2.6515      2.5405      3.2488
 22      0.0000      0.1360      0.0000      0.0000      0.0427      0.0000      0.0000      0.0000      0.0000
 23      0.8830      0.3311      0.0000      0.0000      0.9608      0.0000      0.3288      0.7723      0.9501
 24      0.3592      0.2318      0.0617      0.0000      0.7059      0.1788      0.4907      1.2901      0.2898
 25      0.2705      1.7863      0.0000      2.6085      2.1893      1.0083      2.2333      2.6936      1.6077
 26      0.0000      0.1391      0.0000      0.0000      0.0000      0.5951      0.0000      0.0000      0.0000
 27      0.0000      0.1749      0.5910      0.0000      0.0000      0.0000      0.0000      0.0000      0.0000
 28      0.0000      0.3685      0.0000      0.4013      0.0000      0.0667      0.0000      0.0000      0.0000
 29      0.0000      0.6010      0.0000      0.3526      0.0000      0.0000      0.0000      0.0000      0.0000
 30      0.0000      1.5982      1.1200      1.4838      1.7258      2.6698      0.2886      0.0000      2.3379
 31      0.0000      0.5070      0.2104      0.0000      0.1849      0.2036      0.2546      0.8800      0.0130
 32      0.0000      0.1820      0.0000      0.0000      0.0000      0.1359      0.0000      0.0000      0.0000
 33      0.0000      0.0850      0.0000      0.0000      0.0000      0.0000      0.0000      0.5615      0.0000
 34      0.8494      3.5879      3.6063      3.1472      3.8847      3.3792      4.5008      3.2552      3.3472
 35      0.1090      0.3322      0.1188      0.8552      1.0273      1.0381      0.7555      0.3357      0.5178
 36      0.0000      0.2412      0.0000      0.2763      0.0000      0.0000      0.5562      1.2179      0.2522
 37      0.0472      0.2334      1.2216      0.4401      0.7296      0.6779      0.0000      0.0000      0.0000
 38      6.7305      4.5259      4.8368      5.5682      4.6589      4.4509      5.1192      3.9726      5.8822
 39      0.0000      0.4667      0.4128      0.8577      0.0000      0.2662      0.0000      0.7309      0.8126
 40      0.0000      0.4019      1.6099      0.0000      0.0000      0.0000      1.3197      0.0690      0.0000
 41      0.0446      0.5854      1.0906      0.0384      2.5568      0.5594      1.1925      0.0000      0.2846
 42      0.0000      0.1606      0.1058      0.0000      0.0000      0.5969      0.0000      0.0000      0.5968
 43      0.0000      0.1406      0.0000      0.0000      0.0000      0.0000      0.0000      0.4538      0.0000
 44      0.0000      0.1830      0.0000      0.0000      0.0000      0.0000      0.0000      0.0000      0.0000
 45      0.0000      0.4377      0.0000      0.0000      0.0000      0.0000      0.0000      0.0000      0.0000
 46      0.0000      1.6221      0.5157      1.6021      0.0000      0.0000      0.2718      0.4700      0.0648
