###################################################################
## OUTPUT of StarlightChains_v04.for    [Cid@UFSC - 01/Apr/2007] ##
###################################################################

## Some input info
2015ab.txt                               [arq_obs]
Base.CB07.vall.4m                        [arq_base]
Masks.EmLines.NEW.gm                     [arq_masks]
StCv04.C11.config                        [arq_config]
   66                                    [N_base]
    0                                    [N_YAV_components = # of components with extra extinction!]
    0                                    [i_FitPowerLaw (1/0 = Yes/No)]
-9.99                                    [alpha_PowerLaw]
CCM                                      [red_law_option]
 1.458241                                [q_norm = A(l_norm)/A(V)]

## (Re)Sampling Parameters
 3741.00                                 [l_ini (A)]
 7218.00                                 [l_fin (A)]
    1.00                                 [dl    (A)]     (OBS: dl_cushion =    50.00 A)

## Normalization info
 4020.00                                 [l_norm (A) - for base]
 4010.00                                 [llow_norm (A) - window for f_obs]
 4060.00                                 [lupp_norm (A) - window for f_obs]
1.405386E-16                             [fobs_norm (in input units)]

## S/N
 3691.00                                 [llow_SN (A) - window for S/N]
 7268.00                                 [lupp_SN (A) - window for S/N]
   5.498                                 [S/N in S/N window]
   4.496                                 [S/N in norm. window]
  16.124                                 [S/N_err in S/N window]
  13.184                                 [S/N_err in norm. window]
  1.0000                                 [fscale_chi2]

## etc...
    -2007424                             [idum_orig]
  2385                                   [NOl_eff]
  2385                                   [Nl_eff]
     0    NSIGMA                         [Ntot_cliped & clip_method]
  1320060                                [Nglobal_steps]
   7                                     [N_chains]
  21                                     [NEX0s_base = N_base in EX0s-fits]
 0   0   1        1   2.0   2.172E+01    [Clip-Bug, RC-Crash & Burn-In warning-flags, n_censored_weights, wei_nsig_threshold & wei_limit]
    12     12.340     11.848      0.492  [idt_all, wdt_TotTime, wdt_UsrTime & wdt_SysTime (sec)]

## Synthesis Results - Best model ##

 3.10810E-01                             [chi2/Nl_eff]
     2.69428                             [adev (%)]

   102.73595                             [sum-of-x (%)]
 1.53542E-16                             [Flux_tot (units of input spectrum!)]
 8.53046E-12                             [Mini_tot (???)]
 4.33499E-12                             [Mcor_tot (???)]

 -67.53                                  [v0_min  (km/s)]
 205.14                                  [vd_min  (km/s)]
 0.0458                                  [AV_min  (mag)]
 0.0000                                  [YAV_min (mag)]

# j     x_j(%)      Mini_j(%)     Mcor_j(%)     age_j(yr)     Z_j      (L/M)_j    YAV?  Mstars   component_j        a/Fe...       SSP_chi2r SSP_adev(%)   SSP_AV   SSP_x(%)
  1      4.8913     7.8332E-03    1.5414E-02    1.000000E+06  0.00400  1.094E-02    0   1.0000   age020_m42            0.0000     1.4389E+00     7.1003   3.6172    92.4515
  2      0.0000     0.0000E+00    0.0000E+00    3.160000E+06  0.00400  4.007E-02    0   0.9999   age045_m42            0.0000     1.3116E+00     6.3710   2.9032    98.2651
  3      0.9569     6.6030E-04    1.2328E-03    5.010000E+06  0.00400  2.539E-02    0   0.9488   age055_m42            0.0000     1.3401E+00     6.6448   3.2143    96.2534
  4      0.0000     0.0000E+00    0.0000E+00    6.610000E+06  0.00400  2.620E-02    0   0.9220   age061_m42            0.0000     1.2834E+00     6.3852   2.8233    98.7809
  5      0.0000     0.0000E+00    0.0000E+00    1.000000E+07  0.00400  1.322E-02    0   0.8862   age070_m42            0.0000     1.3890E+00     7.2420   2.4812   103.7183
  6      0.0182     4.0486E-05    6.8284E-05    1.445000E+07  0.00400  7.883E-03    0   0.8571   age078_m42            0.0000     1.4046E+00     7.2697   2.8137   100.8447
  7      0.0000     0.0000E+00    0.0000E+00    2.512000E+07  0.00400  5.251E-03    0   0.8174   age090_m42            0.0000     1.4566E+00     7.4800   2.3414   104.7587
  8      0.0000     0.0000E+00    0.0000E+00    4.000000E+07  0.00400  3.649E-03    0   0.7851   age104_m42            0.0000     1.3869E+00     7.2185   2.1212   105.2805
  9      0.0000     0.0000E+00    0.0000E+00    5.500000E+07  0.00400  3.098E-03    0   0.7629   age110_m42            0.0000     1.3091E+00     6.7588   2.3030   103.9431
 10      0.0000     0.0000E+00    0.0000E+00    1.015200E+08  0.00400  2.228E-03    0   0.7207   age116_m42            0.0000     1.2661E+00     6.5477   2.3423   103.2434
 11      0.0000     0.0000E+00    0.0000E+00    2.861200E+08  0.00400  1.093E-03    0   0.6648   age125_m42            0.0000     1.3325E+00     6.9615   1.7548   107.3336
 12      0.0000     0.0000E+00    0.0000E+00    5.088000E+08  0.00400  6.597E-04    0   0.6365   age130_m42            0.0000     1.1557E+00     6.4210   1.7737   106.8045
 13      0.0000     0.0000E+00    0.0000E+00    1.434000E+09  0.00400  2.132E-04    0   0.5798   age139_m42            0.0000     7.4564E-01     5.0496   0.8121   108.3962
 14      0.0000     0.0000E+00    0.0000E+00    4.250000E+09  0.00400  5.895E-05    0   0.5377   age158_m42            0.0000     4.5044E-01     3.4975   0.4043   102.7438
 15      0.0074     3.7085E-03    3.8035E-03    7.500000E+09  0.00400  3.510E-05    0   0.5212   age171_m42            0.0000     3.7969E-01     3.1000   0.2336   101.3390
 16     29.4823     2.5762E+01    2.5520E+01    1.300000E+10  0.00400  2.005E-05    0   0.5034   age193_m42            0.0000     3.4470E-01     2.9064   0.0840   100.1609
 17     11.8442     1.3607E+01    1.3300E+01    1.800000E+10  0.00400  1.525E-05    0   0.4967   age213_m42            0.0000     3.4993E-01     2.9365   0.0561    99.9120
 18      0.0000     0.0000E+00    0.0000E+00    1.000000E+06  0.00800  1.238E-02    0   1.0000   age020_m52            0.0000     1.4329E+00     7.0953   3.6127    92.6683
 19      1.0283     5.8607E-04    1.1494E-03    3.160000E+06  0.00800  3.074E-02    0   0.9966   age045_m52            0.0000     1.4109E+00     6.9967   3.5396    93.3283
 20      0.0000     0.0000E+00    0.0000E+00    5.010000E+06  0.00800  2.668E-02    0   0.9443   age055_m52            0.0000     1.3264E+00     6.7116   3.2920    95.6008
 21      0.0000     0.0000E+00    0.0000E+00    6.610000E+06  0.00800  2.136E-02    0   0.9177   age061_m52            0.0000     1.1145E+00     6.6733   1.9823   104.8409
 22      0.1627     2.3455E-04    4.0741E-04    1.000000E+07  0.00800  1.215E-02    0   0.8827   age070_m52            0.0000     1.4647E+00     7.6817   2.6438   104.3123
 23      0.0000     0.0000E+00    0.0000E+00    1.445000E+07  0.00800  8.717E-03    0   0.8552   age078_m52            0.0000     1.3627E+00     7.2020   2.7753   102.4093
 24      0.0000     0.0000E+00    0.0000E+00    2.512000E+07  0.00800  5.592E-03    0   0.8162   age090_m52            0.0000     1.4370E+00     7.4900   2.4021   106.1663
 25      0.0000     0.0000E+00    0.0000E+00    4.000000E+07  0.00800  3.896E-03    0   0.7841   age104_m52            0.0000     1.3771E+00     7.1876   2.3296   106.2809
 26      0.0000     0.0000E+00    0.0000E+00    1.015200E+08  0.00800  2.148E-03    0   0.7226   age116_m52            0.0000     1.2544E+00     6.6529   2.2957   104.7752
 27      0.0000     0.0000E+00    0.0000E+00    2.861200E+08  0.00800  9.925E-04    0   0.6683   age125_m52            0.0000     1.1248E+00     6.3648   1.8367   107.9081
 28      0.0000     0.0000E+00    0.0000E+00    9.047900E+08  0.00800  3.141E-04    0   0.6138   age135_m52            0.0000     7.5744E-01     5.0956   1.0756   110.5486
 29      0.0000     0.0000E+00    0.0000E+00    1.434000E+09  0.00800  1.719E-04    0   0.5853   age139_m52            0.0000     5.4854E-01     4.1190   0.4946   108.3680
 30      0.0000     0.0000E+00    0.0000E+00    2.500000E+09  0.00800  7.872E-05    0   0.5600   age150_m52            0.0000     3.6256E-01     3.1317   0.2653   103.6626
 31      0.0000     0.0000E+00    0.0000E+00    4.250000E+09  0.00800  4.336E-05    0   0.5426   age158_m52            0.0000     3.5950E-01     3.0403   0.2516   102.6209
 32      0.0000     0.0000E+00    0.0000E+00    6.250000E+09  0.00800  3.159E-05    0   0.5319   age166_m52            0.0000     3.3983E-01     3.0677   0.0726   101.6126
 33      0.0000     0.0000E+00    0.0000E+00    1.300000E+10  0.00800  1.361E-05    0   0.5073   age193_m52            0.0000     3.7385E-01     3.5537  -0.3673    99.7246
 34      5.4067     9.5817E+00    9.4087E+00    1.800000E+10  0.00800  9.886E-06    0   0.4990   age213_m52            0.0000     4.5263E-01     4.1701  -0.4485    98.1059
 35      0.0000     0.0000E+00    0.0000E+00    1.000000E+06  0.02000  1.544E-02    0   1.0000   age020_m62            0.0000     1.4347E+00     7.1139   3.6090    92.8716
 36      0.0000     0.0000E+00    0.0000E+00    3.160000E+06  0.02000  3.762E-02    0   0.9858   age045_m62            0.0000     1.4227E+00     7.0910   3.5492    93.6360
 37      0.0000     0.0000E+00    0.0000E+00    5.010000E+06  0.02000  3.296E-02    0   0.9342   age055_m62            0.0000     1.2887E+00     6.4246   3.1829    97.0662
 38      0.0000     0.0000E+00    0.0000E+00    8.710000E+06  0.02000  1.154E-02    0   0.8861   age067_m62            0.0000     2.5555E+00    11.2240   1.9823   113.0107
 39      0.0000     0.0000E+00    0.0000E+00    1.445000E+07  0.02000  7.663E-03    0   0.8472   age078_m62            0.0000     1.6713E+00     8.6014   2.2564   108.4221
 40      0.0000     0.0000E+00    0.0000E+00    2.512000E+07  0.02000  4.532E-03    0   0.8099   age090_m62            0.0000     1.7878E+00     8.8418   2.2432   108.4220
 41      0.0000     0.0000E+00    0.0000E+00    5.500000E+07  0.02000  2.733E-03    0   0.7595   age110_m62            0.0000     1.3247E+00     7.1137   2.3090   105.6711
 42      0.0000     0.0000E+00    0.0000E+00    1.609000E+08  0.02000  1.369E-03    0   0.6985   age120_m62            0.0000     1.2201E+00     6.6147   2.1847   106.7767
 43      0.0000     0.0000E+00    0.0000E+00    2.861200E+08  0.02000  9.013E-04    0   0.6714   age125_m62            0.0000     1.1450E+00     6.4924   1.9504   109.0175
 44      0.0000     0.0000E+00    0.0000E+00    5.088000E+08  0.02000  5.028E-04    0   0.6449   age130_m62            0.0000     9.3177E-01     5.8870   1.6156   109.8040
 45      0.0000     0.0000E+00    0.0000E+00    9.047900E+08  0.02000  2.428E-04    0   0.6179   age135_m62            0.0000     5.7842E-01     4.3313   1.0459   108.4445
 46      0.0000     0.0000E+00    0.0000E+00    1.434000E+09  0.02000  1.263E-04    0   0.5908   age139_m62            0.0000     4.2278E-01     3.4713   0.6087   106.5476
 47      0.0000     0.0000E+00    0.0000E+00    2.500000E+09  0.02000  5.985E-05    0   0.5673   age150_m62            0.0000     3.5997E-01     3.1491   0.2738   103.6801
 48     16.7305     8.9611E+00    9.6422E+00    4.250000E+09  0.02000  3.271E-05    0   0.5468   age158_m62            0.0000     3.9944E-01     3.6919   0.0041   101.2402
 49      5.9950     7.7230E+00    7.8525E+00    1.000000E+10  0.02000  1.360E-05    0   0.5167   age181_m62            0.0000     5.6330E-01     4.8815  -0.3038    99.1117
 50      2.5490     6.2686E+00    6.1838E+00    1.800000E+10  0.02000  7.124E-06    0   0.5013   age213_m62            0.0000     7.5673E-01     5.9006  -0.4791    96.9032
 51      0.0000     0.0000E+00    0.0000E+00    1.000000E+06  0.05000  2.592E-02    0   0.9998   age020_m72            0.0000     1.4526E+00     7.2093   3.5971    93.0346
 52      0.0000     0.0000E+00    0.0000E+00    3.160000E+06  0.05000  4.845E-02    0   0.9577   age045_m72            0.0000     1.3767E+00     6.7899   3.4413    94.4863
 53      0.0000     0.0000E+00    0.0000E+00    5.010000E+06  0.05000  3.072E-02    0   0.9147   age055_m72            0.0000     1.5075E+00     7.8670   2.8868   102.3543
 54      0.0000     0.0000E+00    0.0000E+00    6.610000E+06  0.05000  1.455E-02    0   0.8877   age061_m72            0.0000     4.2590E+00    14.0205   2.0043   116.0262
 55      3.4658     6.6918E-03    1.1225E-02    1.000000E+07  0.05000  9.074E-03    0   0.8524   age070_m72            0.0000     1.9037E+00     8.4991   3.0864   101.6952
 56      0.0000     0.0000E+00    0.0000E+00    2.512000E+07  0.05000  4.250E-03    0   0.7902   age090_m72            0.0000     1.7039E+00     8.0575   2.7745   103.8687
 57      1.6786     9.5266E-03    1.4281E-02    4.000000E+07  0.05000  3.087E-03    0   0.7618   age104_m72            0.0000     1.7959E+00     8.2655   2.5365   106.0451
 58      0.0000     0.0000E+00    0.0000E+00    1.015200E+08  0.05000  1.700E-03    0   0.7096   age116_m72            0.0000     1.3689E+00     7.1027   2.3104   107.1773
 59      0.0000     0.0000E+00    0.0000E+00    2.861200E+08  0.05000  7.384E-04    0   0.6633   age125_m72            0.0000     1.0103E+00     6.1678   1.8389   109.4930
 60      0.0000     0.0000E+00    0.0000E+00    5.088000E+08  0.05000  3.819E-04    0   0.6372   age130_m72            0.0000     6.9271E-01     4.9676   1.3807   109.5829
 61      0.0000     0.0000E+00    0.0000E+00    9.047900E+08  0.05000  1.676E-04    0   0.6110   age135_m72            0.0000     4.4774E-01     3.6385   0.7277   105.7307
 62      0.0000     0.0000E+00    0.0000E+00    1.434000E+09  0.05000  8.837E-05    0   0.5874   age139_m72            0.0000     3.8087E-01     3.3824   0.2774   105.0157
 63     11.1194     4.6022E+00    5.0697E+00    2.500000E+09  0.05000  4.233E-05    0   0.5598   age150_m72            0.0000     4.5061E-01     4.0702   0.0151   101.6049
 64      1.9525     2.3839E+00    2.4623E+00    6.250000E+09  0.05000  1.435E-05    0   0.5249   age166_m72            0.0000     6.5198E-01     5.2826  -0.3898    98.2404
 65      0.0000     0.0000E+00    0.0000E+00    1.300000E+10  0.05000  6.513E-06    0   0.5036   age193_m72            0.0000     9.3969E-01     6.5789  -0.6257    97.3342
 66      5.4471     2.1081E+01    2.0513E+01    1.800000E+10  0.05000  4.527E-06    0   0.4945   age213_m72            0.0000     1.1722E+00     7.3975  -0.7582    95.9686


## Synthesis Results - Average & Chains ##

# j      x_j: min, <> & last-chain-values for 1 ...  7 chains
  1      4.8913      1.7444      1.7655      1.9338      1.9556      1.1571      2.3213      2.1532      2.1616
  2      0.0000      0.1305      0.0000      0.0000      0.0000      0.0000      0.2197      0.1370      0.0000
  3      0.9569      0.1096      0.6086      1.0226      0.3027      0.0000      0.0000      0.8936      0.0000
  4      0.0000      0.0787      0.0000      0.0000      0.0000      0.0000      0.3904      0.0000      0.0000
  5      0.0000      0.3940      0.0000      1.4547      0.0000      0.0000      0.1209      0.0000      0.0000
  6      0.0182      0.2258      0.9107      0.0000      0.1734      1.5045      0.2809      0.0000      0.0000
  7      0.0000      0.1977      0.0000      0.4144      0.0000      1.3292      0.0000      0.0000      0.5919
  8      0.0000      0.1411      0.0000      0.0000      0.0000      0.0000      0.0000      0.0000      0.0000
  9      0.0000      0.1150      0.7123      0.0000      0.0000      0.0000      0.0000      0.0000      0.6843
 10      0.0000      0.1324      1.1632      0.0000      0.2566      0.0000      0.0000      0.0000      0.4374
 11      0.0000      0.1661      0.0000      0.1090      0.5873      0.3704      0.0000      0.0000      0.0000
 12      0.0000      0.1821      0.0000      0.0000      0.0000      0.0000      0.0000      0.0000      0.1160
 13      0.0000      0.3250      0.0000      0.0000      0.5033      0.0000      1.1472      0.7313      0.3859
 14      0.0000      1.0082      0.0000      0.0000      0.0000      0.0000      0.0000      0.0000      0.3595
 15      0.0074      3.5080      1.0310      1.6455      3.0259      2.6895      3.2647      5.3963      3.0609
 16     29.4823      9.3279     12.1200     12.6307     11.8112     10.9480     15.9119     11.2905     11.7869
 17     11.8442     11.0743      9.0267      9.9418     14.5873     13.1505      8.6929      9.9988     10.2326
 18      0.0000      0.1153      0.0000      0.0000      0.0000      0.0000      0.0000      0.0000      0.0000
 19      1.0283      0.2849      0.6497      1.2157      0.1545      0.0000      0.0000      1.0196      0.0000
 20      0.0000      0.1864      0.0000      0.4053      0.0000      0.0000      0.0000      0.0000      0.0000
 21      0.0000      0.6053      0.4211      0.0000      0.8836      0.0000      0.0000      1.1233      0.0000
 22      0.1627      0.1836      0.5551      0.0000      1.2129      0.0000      0.1846      0.0000      1.0255
 23      0.0000      0.1950      0.0000      0.0000      0.0000      0.6073      0.0000      0.0000      0.0000
 24      0.0000      0.1185      0.0000      0.0000      0.0887      0.0000      0.0000      0.0000      0.0000
 25      0.0000      0.1683      0.0000      0.0000      0.1061      0.5533      0.0000      0.0000      0.3655
 26      0.0000      0.1886      0.0000      0.6455      0.0000      0.0000      0.0000      0.0000      0.0000
 27      0.0000      0.2330      0.0168      0.0000      0.3710      0.0000      0.0000      0.0000      0.9612
 28      0.0000      0.2115      0.0000      0.0000      0.0000      0.0000      0.0000      0.0000      0.3179
 29      0.0000      0.6871      0.0000      2.0805      0.7358      0.6530      0.0000      0.0000      0.0000
 30      0.0000      1.9770      0.0000      0.0000      1.2269      0.0000      0.0000      0.0000      0.6704
 31      0.0000      2.1991      0.0000      0.0000      0.3407      0.0392      0.6039      3.2134      0.0000
 32      0.0000     12.0269     12.5154     10.1555      7.3789      9.9108      4.2664     11.5560     10.1097
 33      0.0000      0.3667      0.0000      0.5897      0.0000      0.5075      0.9805      0.3909      0.2894
 34      5.4067      2.3357      7.4617      2.4688      1.9902      2.5984      3.9140      3.5878      4.6470
 35      0.0000      0.1639      0.0000      0.0000      0.8680      0.4528      1.0848      0.0000      0.8366
 36      0.0000      0.1841      0.0000      0.0000      1.0570      0.0000      0.1855      0.0000      0.7306
 37      0.0000      0.2067      0.0000      0.1436      0.0000      0.6115      0.0000      0.0018      0.0000
 38      0.0000      0.4473      0.0000      0.1436      0.1125      0.4217      1.2173      0.4119      0.3476
 39      0.0000      0.2130      0.0000      0.0000      0.0000      0.0000      0.2941      1.8724      0.0478
 40      0.0000      0.5326      0.0000      0.0000      0.9638      0.0000      1.1871      0.5754      0.4331
 41      0.0000      0.1397      0.0000      0.0000      0.0000      0.2652      0.0000      0.0000      1.1167
 42      0.0000      0.1135      0.0000      0.0000      0.0000      0.0000      0.5153      0.0000      0.1247
 43      0.0000      0.3331      0.0000      0.0000      0.7008      0.0000      0.8696      0.0000      0.0000
 44      0.0000      0.2130      0.0596      0.0000      0.0000      0.0492      0.0000      0.0000      0.0000
 45      0.0000      0.2973      0.0000      0.0000      0.8394      0.0300      0.0000      0.0091      0.0000
 46      0.0000      0.6638      0.0000      2.3286      0.5859      0.0000      0.0000      0.0000      0.6623
