###################################################################
## OUTPUT of StarlightChains_v04.for    [Cid@UFSC - 01/Apr/2007] ##
###################################################################

## Some input info
2015bf.txt                               [arq_obs]
Base.CB07.vall.4m                        [arq_base]
Masks.EmLines.NEW.gm                     [arq_masks]
StCv04.C11.config                        [arq_config]
   66                                    [N_base]
    0                                    [N_YAV_components = # of components with extra extinction!]
    0                                    [i_FitPowerLaw (1/0 = Yes/No)]
-9.99                                    [alpha_PowerLaw]
CCM                                      [red_law_option]
 1.458241                                [q_norm = A(l_norm)/A(V)]

## (Re)Sampling Parameters
 3741.00                                 [l_ini (A)]
 7218.00                                 [l_fin (A)]
    1.00                                 [dl    (A)]     (OBS: dl_cushion =    50.00 A)

## Normalization info
 4020.00                                 [l_norm (A) - for base]
 4010.00                                 [llow_norm (A) - window for f_obs]
 4060.00                                 [lupp_norm (A) - window for f_obs]
1.072343E-16                             [fobs_norm (in input units)]

## S/N
 3691.00                                 [llow_SN (A) - window for S/N]
 7268.00                                 [lupp_SN (A) - window for S/N]
   7.863                                 [S/N in S/N window]
   9.747                                 [S/N in norm. window]
  13.017                                 [S/N_err in S/N window]
  16.135                                 [S/N_err in norm. window]
  1.0000                                 [fscale_chi2]

## etc...
    -2007426                             [idum_orig]
  2383                                   [NOl_eff]
  2383                                   [Nl_eff]
     0    NSIGMA                         [Ntot_cliped & clip_method]
  1589700                                [Nglobal_steps]
   7                                     [N_chains]
  27                                     [NEX0s_base = N_base in EX0s-fits]
 0   0   1        3   2.0   2.292E+01    [Clip-Bug, RC-Crash & Burn-In warning-flags, n_censored_weights, wei_nsig_threshold & wei_limit]
    15     14.780     14.280      0.499  [idt_all, wdt_TotTime, wdt_UsrTime & wdt_SysTime (sec)]

## Synthesis Results - Best model ##

 2.80887E-01                             [chi2/Nl_eff]
     3.27066                             [adev (%)]

   104.47140                             [sum-of-x (%)]
 2.01263E-16                             [Flux_tot (units of input spectrum!)]
 8.19874E-13                             [Mini_tot (???)]
 4.56670E-13                             [Mcor_tot (???)]

-126.84                                  [v0_min  (km/s)]
 171.49                                  [vd_min  (km/s)]
 0.4362                                  [AV_min  (mag)]
 0.0000                                  [YAV_min (mag)]

# j     x_j(%)      Mini_j(%)     Mcor_j(%)     age_j(yr)     Z_j      (L/M)_j    YAV?  Mstars   component_j        a/Fe...       SSP_chi2r SSP_adev(%)   SSP_AV   SSP_x(%)
  1      0.9785     2.1017E-02    3.7732E-02    1.000000E+06  0.00400  1.094E-02    0   1.0000   age020_m42            0.0000     9.2185E-01     6.1962   2.5314    89.9886
  2      0.0000     0.0000E+00    0.0000E+00    3.160000E+06  0.00400  4.007E-02    0   0.9999   age045_m42            0.0000     6.4173E-01     4.8558   1.8375    94.7518
  3      0.0086     7.9849E-05    1.3601E-04    5.010000E+06  0.00400  2.539E-02    0   0.9488   age055_m42            0.0000     7.3318E-01     5.3243   2.1427    93.0824
  4      0.0000     0.0000E+00    0.0000E+00    6.610000E+06  0.00400  2.620E-02    0   0.9220   age061_m42            0.0000     5.9706E-01     4.6500   1.7644    94.9667
  5      0.0134     2.3746E-04    3.7781E-04    1.000000E+07  0.00400  1.322E-02    0   0.8862   age070_m42            0.0000     4.4505E-01     4.0508   1.4716    97.5700
  6      0.0000     0.0000E+00    0.0000E+00    1.445000E+07  0.00400  7.883E-03    0   0.8571   age078_m42            0.0000     5.2421E-01     4.4384   1.7923    95.3855
  7      0.0000     0.0000E+00    0.0000E+00    2.512000E+07  0.00400  5.251E-03    0   0.8174   age090_m42            0.0000     4.2471E-01     3.9449   1.3420    98.1075
  8      0.0000     0.0000E+00    0.0000E+00    4.000000E+07  0.00400  3.649E-03    0   0.7851   age104_m42            0.0000     3.9236E-01     3.7887   1.1196    98.6765
  9      0.0000     0.0000E+00    0.0000E+00    5.500000E+07  0.00400  3.098E-03    0   0.7629   age110_m42            0.0000     4.2610E-01     3.9212   1.2839    98.1627
 10      0.0000     0.0000E+00    0.0000E+00    1.015200E+08  0.00400  2.228E-03    0   0.7207   age116_m42            0.0000     4.6353E-01     4.1719   1.3118    97.9820
 11      0.0000     0.0000E+00    0.0000E+00    2.861200E+08  0.00400  1.093E-03    0   0.6648   age125_m42            0.0000     3.9467E-01     3.9002   0.7489   100.7129
 12      0.0000     0.0000E+00    0.0000E+00    5.088000E+08  0.00400  6.597E-04    0   0.6365   age130_m42            0.0000     4.4787E-01     4.2917   0.7500   100.9943
 13      0.0000     0.0000E+00    0.0000E+00    1.434000E+09  0.00400  2.132E-04    0   0.5798   age139_m42            0.0000     4.3449E-01     4.2767  -0.2133   102.5132
 14      0.0000     0.0000E+00    0.0000E+00    4.250000E+09  0.00400  5.895E-05    0   0.5377   age158_m42            0.0000     6.5755E-01     5.1225  -0.6568    98.6591
 15      0.0000     0.0000E+00    0.0000E+00    7.500000E+09  0.00400  3.510E-05    0   0.5212   age171_m42            0.0000     8.1472E-01     5.6346  -0.8386    97.7465
 16      0.0000     0.0000E+00    0.0000E+00    1.300000E+10  0.00400  2.005E-05    0   0.5034   age193_m42            0.0000     9.8274E-01     6.1227  -0.9988    97.0262
 17      0.0000     0.0000E+00    0.0000E+00    1.800000E+10  0.00400  1.525E-05    0   0.4967   age213_m42            0.0000     9.6098E-01     6.0264  -1.0000    95.8364
 18      1.1090     2.1050E-02    3.7791E-02    1.000000E+06  0.00800  1.238E-02    0   1.0000   age020_m52            0.0000     9.2312E-01     6.2072   2.5278    90.1650
 19      0.0000     0.0000E+00    0.0000E+00    3.160000E+06  0.00800  3.074E-02    0   0.9966   age045_m52            0.0000     9.1114E-01     6.1407   2.4538    90.8495
 20      0.0050     4.4328E-05    7.5151E-05    5.010000E+06  0.00800  2.668E-02    0   0.9443   age055_m52            0.0000     7.5788E-01     5.4723   2.2203    92.4632
 21      0.0000     0.0000E+00    0.0000E+00    6.610000E+06  0.00800  2.136E-02    0   0.9177   age061_m52            0.0000     4.0655E-01     4.1281   0.9660    98.8976
 22      1.0191     1.9708E-02    3.1233E-02    1.000000E+07  0.00800  1.215E-02    0   0.8827   age070_m52            0.0000     4.5347E-01     4.1455   1.6439    97.7156
 23      0.0000     0.0000E+00    0.0000E+00    1.445000E+07  0.00800  8.717E-03    0   0.8552   age078_m52            0.0000     4.8473E-01     4.2716   1.7590    96.6428
 24      0.0644     2.7060E-03    3.9652E-03    2.512000E+07  0.00800  5.592E-03    0   0.8162   age090_m52            0.0000     3.9708E-01     3.8190   1.4073    99.2116
 25      0.2287     1.3796E-02    1.9421E-02    4.000000E+07  0.00800  3.896E-03    0   0.7841   age104_m52            0.0000     3.7809E-01     3.6831   1.3288    99.5521
 26      0.0000     0.0000E+00    0.0000E+00    1.015200E+08  0.00800  2.148E-03    0   0.7226   age116_m52            0.0000     4.0174E-01     3.8680   1.2771    98.8983
 27      0.0000     0.0000E+00    0.0000E+00    2.861200E+08  0.00800  9.925E-04    0   0.6683   age125_m52            0.0000     4.2389E-01     4.2081   0.8147   101.9251
 28     17.5251     1.3110E+01    1.4447E+01    9.047900E+08  0.00800  3.141E-04    0   0.6138   age135_m52            0.0000     5.4699E-01     4.7782   0.0392   104.9676
 29      0.0000     0.0000E+00    0.0000E+00    1.434000E+09  0.00800  1.719E-04    0   0.5853   age139_m52            0.0000     5.7530E-01     4.8445  -0.5481   103.1711
 30      0.0033     9.8456E-03    9.8987E-03    2.500000E+09  0.00800  7.872E-05    0   0.5600   age150_m52            0.0000     8.5335E-01     5.8618  -0.8111   100.1249
 31      0.0000     0.0000E+00    0.0000E+00    4.250000E+09  0.00800  4.336E-05    0   0.5426   age158_m52            0.0000     9.0720E-01     5.9643  -0.8266    99.1978
 32      0.0000     0.0000E+00    0.0000E+00    6.250000E+09  0.00800  3.159E-05    0   0.5319   age166_m52            0.0000     1.1647E+00     6.7259  -1.0000    98.0823
 33      3.1854     5.4996E+01    5.0089E+01    1.300000E+10  0.00800  1.361E-05    0   0.5073   age193_m52            0.0000     2.9955E+00    10.2494  -1.0000    81.0593
 34      0.0000     0.0000E+00    0.0000E+00    1.800000E+10  0.00800  9.886E-06    0   0.4990   age213_m52            0.0000     3.8915E+00    11.6587  -1.0000    77.0811
 35      0.3435     5.2282E-03    9.3864E-03    1.000000E+06  0.02000  1.544E-02    0   1.0000   age020_m62            0.0000     9.3464E-01     6.2508   2.5232    90.4029
 36      0.0000     0.0000E+00    0.0000E+00    3.160000E+06  0.02000  3.762E-02    0   0.9858   age045_m62            0.0000     9.4172E-01     6.2583   2.4620    91.2062
 37      0.0000     0.0000E+00    0.0000E+00    5.010000E+06  0.02000  3.296E-02    0   0.9342   age055_m62            0.0000     7.0445E-01     5.1488   2.1080    93.9967
 38     40.3364     8.2132E-01    1.3066E+00    8.710000E+06  0.02000  1.154E-02    0   0.8861   age067_m62            0.0000     7.5864E-01     5.7135   1.0646   102.0722
 39      0.0000     0.0000E+00    0.0000E+00    1.445000E+07  0.02000  7.663E-03    0   0.8472   age078_m62            0.0000     4.4964E-01     4.2667   1.2839   100.3095
 40      0.0024     1.2548E-04    1.8245E-04    2.512000E+07  0.02000  4.532E-03    0   0.8099   age090_m62            0.0000     4.7577E-01     4.3212   1.2788    99.9378
 41      0.0000     0.0000E+00    0.0000E+00    5.500000E+07  0.02000  2.733E-03    0   0.7595   age110_m62            0.0000     3.8737E-01     3.7367   1.3076    99.0137
 42      0.2581     4.4307E-02    5.5563E-02    1.609000E+08  0.02000  1.369E-03    0   0.6985   age120_m62            0.0000     4.1312E-01     4.0301   1.1670   100.7353
 43      0.2627     6.8496E-02    8.2564E-02    2.861200E+08  0.02000  9.013E-04    0   0.6714   age125_m62            0.0000     4.6461E-01     4.4602   0.9290   102.9861
 44      1.0393     4.8572E-01    5.6237E-01    5.088000E+08  0.02000  5.028E-04    0   0.6449   age130_m62            0.0000     5.9563E-01     5.0662   0.5708   104.7274
 45      0.0289     2.7927E-02    3.0980E-02    9.047900E+08  0.02000  2.428E-04    0   0.6179   age135_m62            0.0000     6.5076E-01     5.2517  -0.0128   103.9763
 46      0.5671     1.0551E+00    1.1191E+00    1.434000E+09  0.02000  1.263E-04    0   0.5908   age139_m62            0.0000     7.8408E-01     5.6277  -0.4593   102.5344
 47      0.0000     0.0000E+00    0.0000E+00    2.500000E+09  0.02000  5.985E-05    0   0.5673   age150_m62            0.0000     1.1184E+00     6.6693  -0.8189   100.8220
 48      0.0000     0.0000E+00    0.0000E+00    4.250000E+09  0.02000  3.271E-05    0   0.5468   age158_m62            0.0000     1.6479E+00     8.0330  -1.0000    95.3622
 49      0.3438     5.9396E+00    5.5098E+00    1.000000E+10  0.02000  1.360E-05    0   0.5167   age181_m62            0.0000     3.3648E+00    10.8276  -1.0000    82.7011
 50      0.0000     0.0000E+00    0.0000E+00    1.800000E+10  0.02000  7.124E-06    0   0.5013   age213_m62            0.0000     5.0198E+00    13.1034  -1.0000    75.1131
 51      0.7098     6.4350E-03    1.1551E-02    1.000000E+06  0.05000  2.592E-02    0   0.9998   age020_m72            0.0000     9.6579E-01     6.3834   2.5122    90.5369
 52      0.0000     0.0000E+00    0.0000E+00    3.160000E+06  0.05000  4.845E-02    0   0.9577   age045_m72            0.0000     8.7384E-01     5.8859   2.3547    91.9995
 53      0.0000     0.0000E+00    0.0000E+00    5.010000E+06  0.05000  3.072E-02    0   0.9147   age055_m72            0.0000     5.7164E-01     4.8067   1.8728    96.4341
 54      0.0000     0.0000E+00    0.0000E+00    6.610000E+06  0.05000  1.455E-02    0   0.8877   age061_m72            0.0000     1.4325E+00     8.0072   1.1108   103.4529
 55      0.0000     0.0000E+00    0.0000E+00    1.000000E+07  0.05000  9.074E-03    0   0.8524   age070_m72            0.0000     7.4223E-01     5.5121   2.0650    95.9842
 56      0.0000     0.0000E+00    0.0000E+00    2.512000E+07  0.05000  4.250E-03    0   0.7902   age090_m72            0.0000     5.4716E-01     4.5663   1.7709    97.3422
 57      0.0000     0.0000E+00    0.0000E+00    4.000000E+07  0.05000  3.087E-03    0   0.7618   age104_m72            0.0000     5.1981E-01     4.4248   1.5462    98.8034
 58      0.0000     0.0000E+00    0.0000E+00    1.015200E+08  0.05000  1.700E-03    0   0.7096   age116_m72            0.0000     4.0929E-01     3.9297   1.3045   100.5851
 59      0.0000     0.0000E+00    0.0000E+00    2.861200E+08  0.05000  7.384E-04    0   0.6633   age125_m72            0.0000     5.1447E-01     4.7095   0.8074   103.8561
 60     35.2546     2.1691E+01    2.4815E+01    5.088000E+08  0.05000  3.819E-04    0   0.6372   age130_m72            0.0000     6.2225E-01     5.2857   0.3248   104.9945
 61      1.1840     1.6600E+00    1.8210E+00    9.047900E+08  0.05000  1.676E-04    0   0.6110   age135_m72            0.0000     1.0259E+00     6.5935  -0.3639   102.8032
 62      0.0000     0.0000E+00    0.0000E+00    1.434000E+09  0.05000  8.837E-05    0   0.5874   age139_m72            0.0000     1.2150E+00     6.9423  -0.8154   102.0969
 63      0.0000     0.0000E+00    0.0000E+00    2.500000E+09  0.05000  4.233E-05    0   0.5598   age150_m72            0.0000     1.8033E+00     8.4199  -1.0000    96.1196
 64      0.0000     0.0000E+00    0.0000E+00    6.250000E+09  0.05000  1.435E-05    0   0.5249   age166_m72            0.0000     4.0523E+00    11.8727  -1.0000    79.1034
 65      0.0000     0.0000E+00    0.0000E+00    1.300000E+10  0.05000  6.513E-06    0   0.5036   age193_m72            0.0000     6.5349E+00    14.9899  -1.0000    70.7775
 66      0.0000     0.0000E+00    0.0000E+00    1.800000E+10  0.05000  4.527E-06    0   0.4945   age213_m72            0.0000     8.2001E+00    16.7911  -1.0000    65.7422


## Synthesis Results - Average & Chains ##

# j      x_j: min, <> & last-chain-values for 1 ...  7 chains
  1      0.9785      0.5866      0.0000      1.1323      1.1658      0.5509      0.0000      0.2030      0.7143
  2      0.0000      0.6568      0.0000      0.0000      0.0000      2.5997      0.5753      1.2654      0.0000
  3      0.0086      0.3665      0.0000      0.0000      0.0000      0.0000      0.0000      0.0000      0.5865
  4      0.0000      0.7924      0.2754      0.0000      1.9272      0.0529      2.8800      0.6446      0.0000
  5      0.0134      0.7843      1.5384      0.0000      0.0000      1.9582      0.0000      0.7203      0.9152
  6      0.0000      0.3584      0.7670      1.4637      0.0000      0.0000      0.4366      1.2963      0.2741
  7      0.0000      0.9216      0.0000      0.0000      0.0000      2.4326      1.2366      2.9604      0.0000
  8      0.0000      0.7650      0.0000      0.0000      3.0558      0.0000      0.7010      0.5169      0.1064
  9      0.0000      0.6523      0.0000      0.0000      0.0000      0.3218      2.2924      0.0081      0.0000
 10      0.0000      0.6965      1.3409      0.7536      0.2844      3.3266      0.0000      0.0000      0.3286
 11      0.0000      1.6148      0.0000      1.5420      0.0000      0.0000      0.0000      0.0000      0.0000
 12      0.0000      1.1098      0.0000      0.0000      0.0000      0.0000      0.0000      0.2402      0.0000
 13      0.0000      1.4009      0.0000      0.0000      2.0708      2.2813      0.0000      1.1494      0.3192
 14      0.0000      0.4143      0.0000      0.0000      0.0000      0.5672      0.0476      0.4468      0.0000
 15      0.0000      0.1597      0.4037      0.0000      0.0000      0.0000      0.0000      0.0000      0.0785
 16      0.0000      0.0795      0.8367      0.0000      0.0000      0.0000      0.0000      0.0000      0.0000
 17      0.0000      0.0958      0.4110      0.2395      0.0000      0.0000      0.2210      0.0000      0.0000
 18      1.1090      0.5666      0.0000      0.7224      0.0000      0.0000      1.8337      0.0000      1.1872
 19      0.0000      0.2740      0.0000      0.0000      0.6341      0.0000      0.2946      0.0000      0.5240
 20      0.0050      0.5554      0.7492      0.7894      0.0000      0.0000      0.0000      0.8069      1.0136
 21      0.0000      1.4721      0.5820      0.9482      1.3483      0.0000      0.0000      0.0000      0.0000
 22      1.0191      0.5897      1.4327      3.1073      0.0000      0.0000      1.0073      0.5830      0.6626
 23      0.0000      0.6258      2.2823      0.0000      0.0000      0.2602      0.8671      0.0000      0.9019
 24      0.0644      0.7747      0.6248      0.0000      0.3845      1.6644      0.0000      0.0000      0.5414
 25      0.2287      1.4204      0.2321      0.0000      0.9937      0.0000      0.0000      0.0000      2.3212
 26      0.0000      1.1541      0.1494      0.1954      4.1656      5.2896      0.0000      0.0000      0.0000
 27      0.0000      1.6817      2.1181      0.0000      0.0000      0.0000      5.3780      1.4800      0.0000
 28     17.5251      7.4134      7.9740     14.4797      6.4318      5.8899      6.0145      7.6551      1.3246
 29      0.0000      2.7808      2.3864      2.1612      2.5893      2.3329      3.9226      3.4485      4.0275
 30      0.0033      1.4617      1.7530      2.2166      2.7763      1.2675      2.2202      1.6961      1.6866
 31      0.0000      0.1417      0.0000      0.0000      0.0000      0.0000      0.0000      0.0000      0.0000
 32      0.0000      0.2649      0.0000      0.1000      0.6376      0.0000      0.0000      0.0000      0.0000
 33      3.1854      0.9616      0.6555      1.0332      0.8708      2.1492      2.0285      0.8456      0.8828
 34      0.0000      0.0803      0.4728      0.0509      0.0000      0.2436      0.0000      0.0000      0.0000
 35      0.3435      1.3215      1.0191      1.9057      0.6752      1.8531      1.0989      2.4274      3.0702
 36      0.0000      0.2683      0.0770      0.0000      1.1347      0.7283      0.0000      2.3066      0.0000
 37      0.0000      0.7635      1.9395      0.0000      0.2143      1.0651      0.6995      0.0000      0.0000
 38     40.3364     17.5836     22.6687     20.5822     19.1640     18.7422     21.3840     20.8415     23.8321
 39      0.0000      2.1842      0.8117      0.0000      2.8904      1.0339      1.4709      3.1920      2.9545
 40      0.0024      3.4634      5.9747      4.0465      1.6793      4.0351      2.2558      2.5735      1.7141
 41      0.0000      0.5244      1.4807      0.0000      0.0000      0.0000      0.0000      0.2880      0.0000
 42      0.2581      0.8179      0.0000      1.7033      1.1556      0.6980      0.8022      0.0000      1.8520
 43      0.2627      1.3278      2.4389      2.2229      0.0000      0.0000      0.0000      0.0000      2.2735
 44      1.0393      2.5031      4.0600      0.0000      1.4870      2.2865      3.6242      1.3223      4.5637
 45      0.0289      2.7212      1.3891      3.1758      0.8651      2.9634      0.1188      2.0829      4.0281
 46      0.5671      1.0416      0.6569      0.0000      0.1192      0.0000      1.1898      2.3527      1.9527
