###################################################################
## OUTPUT of StarlightChains_v04.for    [Cid@UFSC - 01/Apr/2007] ##
###################################################################

## Some input info
2015Z.txt                                [arq_obs]
Base.CB07.vall.4m                        [arq_base]
Masks.EmLines.NEW.gm                     [arq_masks]
StCv04.C11.config                        [arq_config]
   66                                    [N_base]
    0                                    [N_YAV_components = # of components with extra extinction!]
    0                                    [i_FitPowerLaw (1/0 = Yes/No)]
-9.99                                    [alpha_PowerLaw]
CCM                                      [red_law_option]
 1.458241                                [q_norm = A(l_norm)/A(V)]

## (Re)Sampling Parameters
 3741.00                                 [l_ini (A)]
 7218.00                                 [l_fin (A)]
    1.00                                 [dl    (A)]     (OBS: dl_cushion =    50.00 A)

## Normalization info
 4020.00                                 [l_norm (A) - for base]
 4010.00                                 [llow_norm (A) - window for f_obs]
 4060.00                                 [lupp_norm (A) - window for f_obs]
3.046945E-17                             [fobs_norm (in input units)]

## S/N
 3691.00                                 [llow_SN (A) - window for S/N]
 7268.00                                 [lupp_SN (A) - window for S/N]
   5.001                                 [S/N in S/N window]
   6.782                                 [S/N in norm. window]
  10.364                                 [S/N_err in S/N window]
  14.055                                 [S/N_err in norm. window]
  1.0000                                 [fscale_chi2]

## etc...
    -2007427                             [idum_orig]
  2326                                   [NOl_eff]
  2264                                   [Nl_eff]
    62    NSIGMA                         [Ntot_cliped & clip_method]
   987630                                [Nglobal_steps]
   7                                     [N_chains]
  15                                     [NEX0s_base = N_base in EX0s-fits]
 0   0   1        5   2.0   2.817E+01    [Clip-Bug, RC-Crash & Burn-In warning-flags, n_censored_weights, wei_nsig_threshold & wei_limit]
    13     12.512     12.016      0.495  [idt_all, wdt_TotTime, wdt_UsrTime & wdt_SysTime (sec)]

## Synthesis Results - Best model ##

 5.94028E-01                             [chi2/Nl_eff]
     5.37606                             [adev (%)]

   101.53564                             [sum-of-x (%)]
 4.05154E-17                             [Flux_tot (units of input spectrum!)]
 9.86263E-14                             [Mini_tot (???)]
 6.03577E-14                             [Mcor_tot (???)]

 -35.21                                  [v0_min  (km/s)]
 184.31                                  [vd_min  (km/s)]
 0.2008                                  [AV_min  (mag)]
 0.0000                                  [YAV_min (mag)]

# j     x_j(%)      Mini_j(%)     Mcor_j(%)     age_j(yr)     Z_j      (L/M)_j    YAV?  Mstars   component_j        a/Fe...       SSP_chi2r SSP_adev(%)   SSP_AV   SSP_x(%)
  1      0.0000     0.0000E+00    0.0000E+00    1.000000E+06  0.00400  1.094E-02    0   1.0000   age020_m42            0.0000     9.5195E-01     6.8539   2.3925    83.4053
  2      0.1628     1.6434E-03    2.6851E-03    3.160000E+06  0.00400  4.007E-02    0   0.9999   age045_m42            0.0000     7.4958E-01     6.1446   1.6306    90.8404
  3      0.0000     0.0000E+00    0.0000E+00    5.010000E+06  0.00400  2.539E-02    0   0.9488   age055_m42            0.0000     8.1768E-01     6.3900   1.9659    87.8985
  4      0.0000     0.0000E+00    0.0000E+00    6.610000E+06  0.00400  2.620E-02    0   0.9220   age061_m42            0.0000     7.3776E-01     6.0728   1.5549    91.1579
  5      0.0000     0.0000E+00    0.0000E+00    1.000000E+07  0.00400  1.322E-02    0   0.8862   age070_m42            0.0000     7.8691E-01     6.2071   1.2670    93.3009
  6      0.0000     0.0000E+00    0.0000E+00    1.445000E+07  0.00400  7.883E-03    0   0.8571   age078_m42            0.0000     8.2644E-01     6.3527   1.6046    90.4644
  7      0.0000     0.0000E+00    0.0000E+00    2.512000E+07  0.00400  5.251E-03    0   0.8174   age090_m42            0.0000     8.0288E-01     6.2554   1.1323    94.0267
  8      0.0000     0.0000E+00    0.0000E+00    4.000000E+07  0.00400  3.649E-03    0   0.7851   age104_m42            0.0000     7.5816E-01     6.0877   0.8983    95.1467
  9      0.0000     0.0000E+00    0.0000E+00    5.500000E+07  0.00400  3.098E-03    0   0.7629   age110_m42            0.0000     7.1948E-01     5.9250   1.0496    95.3319
 10      2.5989     4.7193E-01    5.5577E-01    1.015200E+08  0.00400  2.228E-03    0   0.7207   age116_m42            0.0000     7.1555E-01     5.8879   1.0684    95.6307
 11      0.0000     0.0000E+00    0.0000E+00    2.861200E+08  0.00400  1.093E-03    0   0.6648   age125_m42            0.0000     7.5030E-01     5.9846   0.4909    99.1176
 12      0.0000     0.0000E+00    0.0000E+00    5.088000E+08  0.00400  6.597E-04    0   0.6365   age130_m42            0.0000     7.3755E-01     5.8920   0.4768   100.1828
 13      0.0000     0.0000E+00    0.0000E+00    1.434000E+09  0.00400  2.132E-04    0   0.5798   age139_m42            0.0000     6.6241E-01     5.5913  -0.5097   102.9296
 14      0.0000     0.0000E+00    0.0000E+00    4.250000E+09  0.00400  5.895E-05    0   0.5377   age158_m42            0.0000     7.2426E-01     5.8011  -0.9326    98.1684
 15      0.0000     0.0000E+00    0.0000E+00    7.500000E+09  0.00400  3.510E-05    0   0.5212   age171_m42            0.0000     8.7161E-01     6.2397  -1.0000    92.7064
 16      0.0000     0.0000E+00    0.0000E+00    1.300000E+10  0.00400  2.005E-05    0   0.5034   age193_m42            0.0000     1.2175E+00     7.3127  -1.0000    85.8456
 17      0.0000     0.0000E+00    0.0000E+00    1.800000E+10  0.00400  1.525E-05    0   0.4967   age213_m42            0.0000     1.2515E+00     7.4627  -1.0000    84.5747
 18      0.1205     3.9364E-03    6.4322E-03    1.000000E+06  0.00800  1.238E-02    0   1.0000   age020_m52            0.0000     9.5055E-01     6.8475   2.3880    83.5981
 19      0.0000     0.0000E+00    0.0000E+00    3.160000E+06  0.00800  3.074E-02    0   0.9966   age045_m52            0.0000     9.2485E-01     6.7723   2.3081    84.4725
 20      0.0000     0.0000E+00    0.0000E+00    5.010000E+06  0.00800  2.668E-02    0   0.9443   age055_m52            0.0000     8.3603E-01     6.4437   2.0518    86.9471
 21     32.7099     6.1956E-01    9.2907E-01    6.610000E+06  0.00800  2.136E-02    0   0.9177   age061_m52            0.0000     7.3089E-01     5.9552   0.7669    94.3364
 22      0.0065     2.1758E-04    3.1382E-04    1.000000E+07  0.00800  1.215E-02    0   0.8827   age070_m52            0.0000     8.5571E-01     6.4482   1.4507    92.9152
 23      0.0000     0.0000E+00    0.0000E+00    1.445000E+07  0.00800  8.717E-03    0   0.8552   age078_m52            0.0000     8.0677E-01     6.2709   1.5653    91.9284
 24      0.0000     0.0000E+00    0.0000E+00    2.512000E+07  0.00800  5.592E-03    0   0.8162   age090_m52            0.0000     8.0476E-01     6.2469   1.1935    95.3208
 25      0.0000     0.0000E+00    0.0000E+00    4.000000E+07  0.00800  3.896E-03    0   0.7841   age104_m52            0.0000     7.6189E-01     6.0845   1.1004    96.4005
 26      0.0000     0.0000E+00    0.0000E+00    1.015200E+08  0.00800  2.148E-03    0   0.7226   age116_m52            0.0000     7.0743E-01     5.8476   1.0349    96.4653
 27      0.0000     0.0000E+00    0.0000E+00    2.861200E+08  0.00800  9.925E-04    0   0.6683   age125_m52            0.0000     7.3075E-01     5.8158   0.5389   101.2245
 28      0.0000     0.0000E+00    0.0000E+00    9.047900E+08  0.00800  3.141E-04    0   0.6138   age135_m52            0.0000     7.6084E-01     5.9203  -0.2782   106.6099
 29      0.0000     0.0000E+00    0.0000E+00    1.434000E+09  0.00800  1.719E-04    0   0.5853   age139_m52            0.0000     7.4191E-01     5.8860  -0.8452   103.8672
 30      0.0000     0.0000E+00    0.0000E+00    2.500000E+09  0.00800  7.872E-05    0   0.5600   age150_m52            0.0000     8.8522E-01     6.2999  -1.0000    96.2670
 31      0.0000     0.0000E+00    0.0000E+00    4.250000E+09  0.00800  4.336E-05    0   0.5426   age158_m52            0.0000     9.2701E-01     6.3687  -1.0000    94.7166
 32      0.0000     0.0000E+00    0.0000E+00    6.250000E+09  0.00800  3.159E-05    0   0.5319   age166_m52            0.0000     1.3974E+00     7.7027  -1.0000    86.7351
 33      0.0000     0.0000E+00    0.0000E+00    1.300000E+10  0.00800  1.361E-05    0   0.5073   age193_m52            0.0000     3.2726E+00    12.9989  -1.0000    69.4128
 34      0.0000     0.0000E+00    0.0000E+00    1.800000E+10  0.00800  9.886E-06    0   0.4990   age213_m52            0.0000     3.9018E+00    14.2312  -1.0000    65.6680
 35      0.6390     1.6743E-02    2.7359E-02    1.000000E+06  0.02000  1.544E-02    0   1.0000   age020_m62            0.0000     9.5468E-01     6.8721   2.3857    83.7271
 36      2.8085     3.0204E-02    4.8653E-02    3.160000E+06  0.02000  3.762E-02    0   0.9858   age045_m62            0.0000     9.4485E-01     6.8488   2.3231    84.5411
 37      0.6916     8.4890E-03    1.2959E-02    5.010000E+06  0.02000  3.296E-02    0   0.9342   age055_m62            0.0000     7.7732E-01     6.2519   1.9202    89.2689
 38      0.0000     0.0000E+00    0.0000E+00    8.710000E+06  0.02000  1.154E-02    0   0.8861   age067_m62            0.0000     1.5126E+00     8.5670   0.9008    95.4162
 39      0.0000     0.0000E+00    0.0000E+00    1.445000E+07  0.02000  7.663E-03    0   0.8472   age078_m62            0.0000     9.7956E-01     6.8314   1.0930    95.2907
 40      0.0000     0.0000E+00    0.0000E+00    2.512000E+07  0.02000  4.532E-03    0   0.8099   age090_m62            0.0000     1.0246E+00     6.9913   1.0834    95.1553
 41      0.0000     0.0000E+00    0.0000E+00    5.500000E+07  0.02000  2.733E-03    0   0.7595   age110_m62            0.0000     7.6257E-01     6.0619   1.0866    95.5219
 42      0.0000     0.0000E+00    0.0000E+00    1.609000E+08  0.02000  1.369E-03    0   0.6985   age120_m62            0.0000     7.2718E-01     5.8303   0.9107    98.9658
 43      0.0000     0.0000E+00    0.0000E+00    2.861200E+08  0.02000  9.013E-04    0   0.6714   age125_m62            0.0000     7.5669E-01     5.8399   0.6459   102.5662
 44      0.0000     0.0000E+00    0.0000E+00    5.088000E+08  0.02000  5.028E-04    0   0.6449   age130_m62            0.0000     7.8512E-01     5.9453   0.2557   106.1048
 45      0.0000     0.0000E+00    0.0000E+00    9.047900E+08  0.02000  2.428E-04    0   0.6179   age135_m62            0.0000     7.6601E-01     5.9191  -0.3289   105.5405
 46      0.0000     0.0000E+00    0.0000E+00    1.434000E+09  0.02000  1.263E-04    0   0.5908   age139_m62            0.0000     8.1840E-01     6.0774  -0.7659   103.6495
 47      0.0000     0.0000E+00    0.0000E+00    2.500000E+09  0.02000  5.985E-05    0   0.5673   age150_m62            0.0000     1.0321E+00     6.6685  -1.0000    96.6824
 48      0.0000     0.0000E+00    0.0000E+00    4.250000E+09  0.02000  3.271E-05    0   0.5468   age158_m62            0.0000     1.8399E+00     8.8512  -1.0000    83.8103
 49      0.0000     0.0000E+00    0.0000E+00    1.000000E+10  0.02000  1.360E-05    0   0.5167   age181_m62            0.0000     3.4257E+00    12.7218  -1.0000    71.1008
 50      0.0000     0.0000E+00    0.0000E+00    1.800000E+10  0.02000  7.124E-06    0   0.5013   age213_m62            0.0000     4.6038E+00    15.1360  -1.0000    63.8782
 51      2.1282     3.3219E-02    5.4269E-02    1.000000E+06  0.05000  2.592E-02    0   0.9998   age020_m72            0.0000     9.7666E-01     6.9384   2.3793    83.6532
 52      0.8877     7.4131E-03    1.1601E-02    3.160000E+06  0.05000  4.845E-02    0   0.9577   age045_m72            0.0000     8.7693E-01     6.6239   2.1966    86.0978
 53      0.0000     0.0000E+00    0.0000E+00    5.010000E+06  0.05000  3.072E-02    0   0.9147   age055_m72            0.0000     9.5031E-01     6.7424   1.7028    90.8264
 54      0.0000     0.0000E+00    0.0000E+00    6.610000E+06  0.05000  1.455E-02    0   0.8877   age061_m72            0.0000     2.3155E+00    10.6232   0.9677    96.1068
 55      0.0000     0.0000E+00    0.0000E+00    1.000000E+07  0.05000  9.074E-03    0   0.8524   age070_m72            0.0000     1.0879E+00     7.1542   1.9033    90.2770
 56      0.0000     0.0000E+00    0.0000E+00    2.512000E+07  0.05000  4.250E-03    0   0.7902   age090_m72            0.0000     9.5917E-01     6.7663   1.5749    92.9655
 57      0.0000     0.0000E+00    0.0000E+00    4.000000E+07  0.05000  3.087E-03    0   0.7618   age104_m72            0.0000     9.7742E-01     6.8234   1.3364    95.0089
 58      0.0000     0.0000E+00    0.0000E+00    1.015200E+08  0.05000  1.700E-03    0   0.7096   age116_m72            0.0000     7.7329E-01     6.0463   1.0564    98.4395
 59      0.0426     2.3331E-02    2.5287E-02    2.861200E+08  0.05000  7.384E-04    0   0.6633   age125_m72            0.0000     7.6300E-01     5.8380   0.5044   104.5494
 60     42.4188     4.4938E+01    4.6790E+01    5.088000E+08  0.05000  3.819E-04    0   0.6372   age130_m72            0.0000     7.4125E-01     5.8568   0.0022   106.8278
 61     15.7605     3.8046E+01    3.7985E+01    9.047900E+08  0.05000  1.676E-04    0   0.6110   age135_m72            0.0000     9.0572E-01     6.4072  -0.6795   104.3888
 62      0.0000     0.0000E+00    0.0000E+00    1.434000E+09  0.05000  8.837E-05    0   0.5874   age139_m72            0.0000     1.1024E+00     6.8497  -1.0000    98.1479
 63      0.0000     0.0000E+00    0.0000E+00    2.500000E+09  0.05000  4.233E-05    0   0.5598   age150_m72            0.0000     1.9378E+00     9.0226  -1.0000    84.5605
 64      0.5604     1.5799E+01    1.3551E+01    6.250000E+09  0.05000  1.435E-05    0   0.5249   age166_m72            0.0000     3.9224E+00    13.8693  -1.0000    67.6494
 65      0.0000     0.0000E+00    0.0000E+00    1.300000E+10  0.05000  6.513E-06    0   0.5036   age193_m72            0.0000     5.5635E+00    17.0744  -1.0000    59.7255
 66      0.0000     0.0000E+00    0.0000E+00    1.800000E+10  0.05000  4.527E-06    0   0.4945   age213_m72            0.0000     6.5706E+00    18.8303  -1.0000    55.1278


## Synthesis Results - Average & Chains ##

# j      x_j: min, <> & last-chain-values for 1 ...  7 chains
  1      0.0000      0.3050      0.0000      0.0000      0.0000      0.0000      2.0087      0.0000      0.0000
  2      0.1628      0.8330      0.4233      1.6589      0.0000      0.5936      0.0000      2.8427      1.1550
  3      0.0000      0.2449      0.0000      0.0000      0.0000      2.2614      0.0000      1.8011      0.1447
  4      0.0000      0.5880      0.0000      2.3786      0.0000      0.1284      0.0000      0.0000      1.7543
  5      0.0000      0.9165      0.0000      0.5614      3.6996      0.0809      0.0000      1.0172      0.0012
  6      0.0000      0.4977      0.0000      0.0000      0.0000      0.5403      0.3544      0.0000      0.0000
  7      0.0000      0.3770      0.0000      1.0861      0.0000      0.0000      0.0000      0.1024      0.0296
  8      0.0000      1.0438      0.1154      0.0000      0.0000      1.5887      0.0000      0.9276      0.0000
  9      0.0000      1.2593      0.0000      1.1008      0.0000      0.0000      0.0000      1.1797      0.0000
 10      2.5989      0.3591      1.2948      0.4806      0.0000      0.0000      0.0000      0.0000      0.0000
 11      0.0000      0.7571      0.0000      0.0000      0.0000      0.0000      0.1609      0.0000      0.0000
 12      0.0000      0.6985      0.0000      1.0071      0.3828      0.7905      0.1846      0.0000      0.0000
 13      0.0000      0.4469      0.0000      0.0000      0.7434      0.0000      0.0000      0.0518      1.0878
 14      0.0000      0.2041      0.0000      0.0000      0.0000      0.0000      0.0000      0.0000      0.0000
 15      0.0000      0.0943      0.0000      0.0000      0.0000      0.0000      0.3185      0.0000      0.0000
 16      0.0000      0.0213      0.0000      0.0000      0.0000      0.0000      0.0000      0.0000      0.0000
 17      0.0000      0.0764      0.0000      0.0633      0.0000      0.0000      0.0000      0.0000      0.0000
 18      0.1205      0.3348      0.6202      0.1539      0.0000      0.0154      0.4583      1.4768      0.7327
 19      0.0000      0.2821      0.0000      0.0000      0.0000      0.0000      0.3308      1.8597      0.0000
 20      0.0000      0.3162      0.0000      0.3563      1.9274      0.0000      0.0000      0.0000      0.0000
 21     32.7099     22.1192     24.5652     22.8281     29.7958     26.0111     28.0573     26.2065     21.6008
 22      0.0065      0.3225      0.9760      1.1876      0.0000      0.0000      0.0000      0.0000      0.0000
 23      0.0000      0.2804      0.0000      0.0000      0.3277      0.0000      1.7682      0.0000      0.0000
 24      0.0000      0.6978      0.0000      0.0000      0.0000      0.0000      0.0000      0.0000      1.3772
 25      0.0000      0.4569      0.0000      0.0000      0.0000      0.0000      0.0955      0.0000      1.0176
 26      0.0000      0.8293      0.0000      0.4487      0.0000      0.9749      0.0000      0.2144      0.5173
 27      0.0000      0.7373      0.0000      0.0000      1.1236      0.0000      0.0000      0.0000      0.0000
 28      0.0000      0.3911      0.3687      0.0000      0.0000      0.0000      2.0793      0.0000      0.0000
 29      0.0000      0.2211      0.3647      0.0000      0.0006      0.0000      0.0000      0.0000      0.0144
 30      0.0000      0.0814      0.0000      0.0000      0.0000      0.0000      0.0000      0.0000      0.0000
 31      0.0000      0.1074      0.0000      0.0000      0.0000      0.0000      0.0000      0.0000      0.0000
 32      0.0000      0.0563      0.0000      0.0000      0.0000      0.0000      0.0000      0.2465      0.0000
 33      0.0000      0.0254      0.0000      0.0000      0.0000      0.0000      0.0000      0.0000      0.0000
 34      0.0000      0.0562      0.0000      0.0000      0.0000      0.0000      0.0000      0.0000      0.0000
 35      0.6390      0.9336      2.0322      1.0398      3.3096      3.1547      1.6264      1.0275      1.3211
 36      2.8085      0.2479      1.7366      1.3129      0.0000      0.8094      0.0000      0.0000      0.0000
 37      0.6916      1.5654      4.6671      1.5741      2.1903      1.8876      1.9407      0.0000      0.0000
 38      0.0000      0.6475      0.0000      0.8378      0.0000      0.0000      0.0078      0.0000      1.9249
 39      0.0000      0.7093      0.3644      0.0000      0.0000      2.9435      2.3776      0.0000      0.0000
 40      0.0000      0.4704      0.0000      0.3497      0.7592      0.0000      0.1010      0.0000      1.0861
 41      0.0000      0.6422      0.0000      0.0000      0.0000      0.5373      0.0000      4.0366      0.6790
 42      0.0000      0.5522      0.0000      0.0000      0.0000      0.0000      0.0000      0.0000      0.0000
 43      0.0000      0.8767      0.1057      1.1603      0.7397      0.0000      2.1146      0.0000      0.0000
 44      0.0000      1.4910      0.0000      0.0000      0.0000      0.0000      0.7983      0.0000      0.0000
 45      0.0000      3.7603      0.0000      3.4814      2.1115      5.8709      3.4480      3.0603      3.4092
 46      0.0000      0.4843      0.0000      0.0000      0.9348      0.0000      0.0000      1.3400      0.0000
