###################################################################
## OUTPUT of StarlightChains_v04.for    [Cid@UFSC - 01/Apr/2007] ##
###################################################################

## Some input info
2016hrv.txt                              [arq_obs]
Base.CB07.vall.4m                        [arq_base]
Masks.EmLines.NEW.gm                     [arq_masks]
StCv04.C11.config                        [arq_config]
   66                                    [N_base]
    0                                    [N_YAV_components = # of components with extra extinction!]
    0                                    [i_FitPowerLaw (1/0 = Yes/No)]
-9.99                                    [alpha_PowerLaw]
CCM                                      [red_law_option]
 1.458241                                [q_norm = A(l_norm)/A(V)]

## (Re)Sampling Parameters
 3741.00                                 [l_ini (A)]
 7218.00                                 [l_fin (A)]
    1.00                                 [dl    (A)]     (OBS: dl_cushion =    50.00 A)

## Normalization info
 4020.00                                 [l_norm (A) - for base]
 4010.00                                 [llow_norm (A) - window for f_obs]
 4060.00                                 [lupp_norm (A) - window for f_obs]
1.611592E-16                             [fobs_norm (in input units)]

## S/N
 3691.00                                 [llow_SN (A) - window for S/N]
 7268.00                                 [lupp_SN (A) - window for S/N]
   8.400                                 [S/N in S/N window]
  10.101                                 [S/N in norm. window]
  11.440                                 [S/N_err in S/N window]
  13.758                                 [S/N_err in norm. window]
  1.0000                                 [fscale_chi2]

## etc...
    -2007436                             [idum_orig]
  2383                                   [NOl_eff]
  2383                                   [Nl_eff]
     0    NSIGMA                         [Ntot_cliped & clip_method]
  1686720                                [Nglobal_steps]
   7                                     [N_chains]
  24                                     [NEX0s_base = N_base in EX0s-fits]
 0   0   1        0   2.0   4.097E+01    [Clip-Bug, RC-Crash & Burn-In warning-flags, n_censored_weights, wei_nsig_threshold & wei_limit]
    17     16.789     16.291      0.497  [idt_all, wdt_TotTime, wdt_UsrTime & wdt_SysTime (sec)]

## Synthesis Results - Best model ##

 4.36377E-01                             [chi2/Nl_eff]
     4.69283                             [adev (%)]

    98.22767                             [sum-of-x (%)]
 5.01496E-16                             [Flux_tot (units of input spectrum!)]
 1.26164E-12                             [Mini_tot (???)]
 7.29445E-13                             [Mcor_tot (???)]

-121.26                                  [v0_min  (km/s)]
 141.22                                  [vd_min  (km/s)]
 0.8585                                  [AV_min  (mag)]
 0.0000                                  [YAV_min (mag)]

# j     x_j(%)      Mini_j(%)     Mcor_j(%)     age_j(yr)     Z_j      (L/M)_j    YAV?  Mstars   component_j        a/Fe...       SSP_chi2r SSP_adev(%)   SSP_AV   SSP_x(%)
  1      0.0171     6.3258E-04    1.0941E-03    1.000000E+06  0.00400  1.094E-02    0   1.0000   age020_m42            0.0000     1.1784E+00     7.7278   2.9741    75.9380
  2      0.0000     0.0000E+00    0.0000E+00    3.160000E+06  0.00400  4.007E-02    0   0.9999   age045_m42            0.0000     9.6815E-01     6.7830   2.2322    81.9836
  3      0.0000     0.0000E+00    0.0000E+00    5.010000E+06  0.00400  2.539E-02    0   0.9488   age055_m42            0.0000     1.0146E+00     7.0337   2.5529    79.8710
  4      0.0008     1.2962E-05    2.0671E-05    6.610000E+06  0.00400  2.620E-02    0   0.9220   age061_m42            0.0000     8.8347E-01     6.4666   2.1427    82.8469
  5      0.2822     8.6377E-03    1.3240E-02    1.000000E+07  0.00400  1.322E-02    0   0.8862   age070_m42            0.0000     5.9657E-01     5.3315   1.7444    89.7413
  6      0.0013     6.8213E-05    1.0112E-04    1.445000E+07  0.00400  7.883E-03    0   0.8571   age078_m42            0.0000     6.8833E-01     5.7075   2.0910    86.5604
  7      7.1058     5.4761E-01    7.7419E-01    2.512000E+07  0.00400  5.251E-03    0   0.8174   age090_m42            0.0000     5.5157E-01     5.1388   1.5882    91.4615
  8     10.1716     1.1280E+00    1.5317E+00    4.000000E+07  0.00400  3.649E-03    0   0.7851   age104_m42            0.0000     5.3415E-01     5.0649   1.3703    91.8038
  9      0.0000     0.0000E+00    0.0000E+00    5.500000E+07  0.00400  3.098E-03    0   0.7629   age110_m42            0.0000     6.0474E-01     5.3541   1.5741    89.5488
 10      1.7883     3.2481E-01    4.0488E-01    1.015200E+08  0.00400  2.228E-03    0   0.7207   age116_m42            0.0000     6.5136E-01     5.5974   1.6247    88.3923
 11      0.0000     0.0000E+00    0.0000E+00    2.861200E+08  0.00400  1.093E-03    0   0.6648   age125_m42            0.0000     5.9341E-01     5.1901   1.0185    92.9636
 12      0.0000     0.0000E+00    0.0000E+00    5.088000E+08  0.00400  6.597E-04    0   0.6365   age130_m42            0.0000     6.2721E-01     5.5860   1.0588    91.4022
 13      4.8458     9.1978E+00    9.2236E+00    1.434000E+09  0.00400  2.132E-04    0   0.5798   age139_m42            0.0000     5.7323E-01     5.6355   0.1032    92.4472
 14      0.0000     0.0000E+00    0.0000E+00    4.250000E+09  0.00400  5.895E-05    0   0.5377   age158_m42            0.0000     7.7788E-01     6.9435  -0.2392    84.5909
 15      0.0085     9.8567E-02    8.8854E-02    7.500000E+09  0.00400  3.510E-05    0   0.5212   age171_m42            0.0000     8.7140E-01     7.4894  -0.3877    82.4632
 16      0.0000     0.0000E+00    0.0000E+00    1.300000E+10  0.00400  2.005E-05    0   0.5034   age193_m42            0.0000     9.7304E-01     8.0102  -0.5157    80.5887
 17      0.0000     0.0000E+00    0.0000E+00    1.800000E+10  0.00400  1.525E-05    0   0.4967   age213_m42            0.0000     9.6511E-01     7.9356  -0.5480    80.5772
 18      0.0000     0.0000E+00    0.0000E+00    1.000000E+06  0.00800  1.238E-02    0   1.0000   age020_m52            0.0000     1.1751E+00     7.7263   2.9704    76.0809
 19      0.0000     0.0000E+00    0.0000E+00    3.160000E+06  0.00800  3.074E-02    0   0.9966   age045_m52            0.0000     1.1564E+00     7.6613   2.8964    76.6550
 20      0.0000     0.0000E+00    0.0000E+00    5.010000E+06  0.00800  2.668E-02    0   0.9443   age055_m52            0.0000     1.0033E+00     7.0570   2.6319    79.2634
 21      0.0027     5.2009E-05    8.2550E-05    6.610000E+06  0.00800  2.136E-02    0   0.9177   age061_m52            0.0000     5.7117E-01     5.4951   1.2638    89.8112
 22      0.0000     0.0000E+00    0.0000E+00    1.000000E+07  0.00800  1.215E-02    0   0.8827   age070_m52            0.0000     5.7684E-01     5.2596   1.8942    90.8972
 23      0.0000     0.0000E+00    0.0000E+00    1.445000E+07  0.00800  8.717E-03    0   0.8552   age078_m52            0.0000     6.3726E-01     5.5208   2.0481    88.1379
 24      2.2850     1.6536E-01    2.3343E-01    2.512000E+07  0.00800  5.592E-03    0   0.8162   age090_m52            0.0000     5.1443E-01     4.9878   1.6421    93.0557
 25      0.0000     0.0000E+00    0.0000E+00    4.000000E+07  0.00800  3.896E-03    0   0.7841   age104_m52            0.0000     5.2625E-01     4.9761   1.5772    92.7726
 26      0.0000     0.0000E+00    0.0000E+00    1.015200E+08  0.00800  2.148E-03    0   0.7226   age116_m52            0.0000     5.8581E-01     5.2447   1.5685    90.2032
 27      0.0084     3.4342E-03    3.9695E-03    2.861200E+08  0.00800  9.925E-04    0   0.6683   age125_m52            0.0000     5.5596E-01     5.3832   1.1154    92.6322
 28      0.0000     0.0000E+00    0.0000E+00    9.047900E+08  0.00800  3.141E-04    0   0.6138   age135_m52            0.0000     6.4108E-01     6.1559   0.3855    93.3555
 29      0.0000     0.0000E+00    0.0000E+00    1.434000E+09  0.00800  1.719E-04    0   0.5853   age139_m52            0.0000     7.5092E-01     6.5981  -0.1750    90.5314
 30      0.0000     0.0000E+00    0.0000E+00    2.500000E+09  0.00800  7.872E-05    0   0.5600   age150_m52            0.0000     9.1951E-01     7.6926  -0.3528    84.2090
 31      0.0000     0.0000E+00    0.0000E+00    4.250000E+09  0.00800  4.336E-05    0   0.5426   age158_m52            0.0000     9.3926E-01     7.8129  -0.3589    83.0441
 32      0.0000     0.0000E+00    0.0000E+00    6.250000E+09  0.00800  3.159E-05    0   0.5319   age166_m52            0.0000     1.0903E+00     8.5323  -0.5121    81.1194
 33      0.6332     1.8826E+01    1.6519E+01    1.300000E+10  0.00800  1.361E-05    0   0.5073   age193_m52            0.0000     1.3224E+00     9.4530  -0.9249    78.4812
 34      0.0000     0.0000E+00    0.0000E+00    1.800000E+10  0.00800  9.886E-06    0   0.4990   age213_m52            0.0000     1.4991E+00    10.1830  -0.9794    76.1538
 35      0.0000     0.0000E+00    0.0000E+00    1.000000E+06  0.02000  1.544E-02    0   1.0000   age020_m62            0.0000     1.1805E+00     7.7570   2.9690    76.1605
 36      0.0000     0.0000E+00    0.0000E+00    3.160000E+06  0.02000  3.762E-02    0   0.9858   age045_m62            0.0000     1.1781E+00     7.7469   2.9128    76.6451
 37      0.0000     0.0000E+00    0.0000E+00    5.010000E+06  0.02000  3.296E-02    0   0.9342   age055_m62            0.0000     9.8051E-01     6.9436   2.5241    80.4367
 38     37.4476     1.3132E+00    2.0125E+00    8.710000E+06  0.02000  1.154E-02    0   0.8861   age067_m62            0.0000     6.5310E-01     6.8485   1.1246   104.7459
 39      0.0000     0.0000E+00    0.0000E+00    1.445000E+07  0.02000  7.663E-03    0   0.8472   age078_m62            0.0000     5.3704E-01     5.2855   1.4758    96.1993
 40      0.0000     0.0000E+00    0.0000E+00    2.512000E+07  0.02000  4.532E-03    0   0.8099   age090_m62            0.0000     5.5538E-01     5.3525   1.4530    96.7382
 41      0.0000     0.0000E+00    0.0000E+00    5.500000E+07  0.02000  2.733E-03    0   0.7595   age110_m62            0.0000     5.2118E-01     4.9985   1.5639    91.8933
 42      0.6735     1.9909E-01    2.4052E-01    1.609000E+08  0.02000  1.369E-03    0   0.6985   age120_m62            0.0000     5.4703E-01     5.2167   1.4561    92.0113
 43     10.9786     4.9292E+00    5.7240E+00    2.861200E+08  0.02000  9.013E-04    0   0.6714   age125_m62            0.0000     5.4518E-01     5.4541   1.2263    93.7098
 44      0.9180     7.3881E-01    8.2408E-01    5.088000E+08  0.02000  5.028E-04    0   0.6449   age130_m62            0.0000     6.5000E-01     6.2499   0.9245    92.7100
 45      0.0000     0.0000E+00    0.0000E+00    9.047900E+08  0.02000  2.428E-04    0   0.6179   age135_m62            0.0000     7.2115E-01     6.7822   0.3893    89.9153
 46      0.0009     3.0364E-03    3.1027E-03    1.434000E+09  0.02000  1.263E-04    0   0.5908   age139_m62            0.0000     8.4222E-01     7.3294  -0.0256    87.2912
 47      0.0000     0.0000E+00    0.0000E+00    2.500000E+09  0.02000  5.985E-05    0   0.5673   age150_m62            0.0000     1.0730E+00     8.4168  -0.3162    82.9796
 48      2.3873     2.9535E+01    2.7932E+01    4.250000E+09  0.02000  3.271E-05    0   0.5468   age158_m62            0.0000     1.3419E+00     9.5224  -0.5511    79.5567
 49      0.0000     0.0000E+00    0.0000E+00    1.000000E+10  0.02000  1.360E-05    0   0.5167   age181_m62            0.0000     1.6827E+00    10.7201  -0.8230    76.4623
 50      0.0000     0.0000E+00    0.0000E+00    1.800000E+10  0.02000  7.124E-06    0   0.5013   age213_m62            0.0000     1.9555E+00    11.6300  -0.9679    73.5954
 51      0.0000     0.0000E+00    0.0000E+00    1.000000E+06  0.05000  2.592E-02    0   0.9998   age020_m72            0.0000     1.1901E+00     7.8005   2.9571    76.2913
 52      0.0000     0.0000E+00    0.0000E+00    3.160000E+06  0.05000  4.845E-02    0   0.9577   age045_m72            0.0000     1.1379E+00     7.5309   2.8019    77.4805
 53      0.0000     0.0000E+00    0.0000E+00    5.010000E+06  0.05000  3.072E-02    0   0.9147   age055_m72            0.0000     7.8181E-01     6.0459   2.1701    87.6816
 54      0.0000     0.0000E+00    0.0000E+00    6.610000E+06  0.05000  1.455E-02    0   0.8877   age061_m72            0.0000     1.6892E+00     9.5467   1.1304   108.9286
 55      0.0000     0.0000E+00    0.0000E+00    1.000000E+07  0.05000  9.074E-03    0   0.8524   age070_m72            0.0000     1.1144E+00     6.8996   2.3857    86.4416
 56      0.0000     0.0000E+00    0.0000E+00    2.512000E+07  0.05000  4.250E-03    0   0.7902   age090_m72            0.0000     8.2181E-01     5.9129   2.0399    89.8904
 57      0.0000     0.0000E+00    0.0000E+00    4.000000E+07  0.05000  3.087E-03    0   0.7618   age104_m72            0.0000     7.8945E-01     5.7183   1.7819    92.8127
 58      0.0000     0.0000E+00    0.0000E+00    1.015200E+08  0.05000  1.700E-03    0   0.7096   age116_m72            0.0000     5.5224E-01     5.0391   1.5653    93.2032
 59      0.9225     5.0555E-01    5.7998E-01    2.861200E+08  0.05000  7.384E-04    0   0.6633   age125_m72            0.0000     5.8131E-01     5.8034   1.1300    93.3545
 60     14.7436     1.5623E+01    1.7218E+01    5.088000E+08  0.05000  3.819E-04    0   0.6372   age130_m72            0.0000     6.8212E-01     6.5515   0.7074    91.6353
 61      1.6614     4.0114E+00    4.2391E+00    9.047900E+08  0.05000  1.676E-04    0   0.6110   age135_m72            0.0000     1.0322E+00     8.2574   0.1284    85.0157
 62      0.0000     0.0000E+00    0.0000E+00    1.434000E+09  0.05000  8.837E-05    0   0.5874   age139_m72            0.0000     1.1537E+00     8.6458  -0.3125    84.0326
 63      1.3433     1.2841E+01    1.2433E+01    2.500000E+09  0.05000  4.233E-05    0   0.5598   age150_m72            0.0000     1.4572E+00     9.9175  -0.5293    79.3800
 64      0.0000     0.0000E+00    0.0000E+00    6.250000E+09  0.05000  1.435E-05    0   0.5249   age166_m72            0.0000     1.8522E+00    11.1642  -0.8983    75.3516
 65      0.0000     0.0000E+00    0.0000E+00    1.300000E+10  0.05000  6.513E-06    0   0.5036   age193_m72            0.0000     2.2806E+00    12.6769  -1.0000    70.1279
 66      0.0000     0.0000E+00    0.0000E+00    1.800000E+10  0.05000  4.527E-06    0   0.4945   age213_m72            0.0000     2.7185E+00    13.9435  -1.0000    65.0321


## Synthesis Results - Average & Chains ##

# j      x_j: min, <> & last-chain-values for 1 ...  7 chains
  1      0.0171      0.1392      0.7490      0.0000      0.0000      0.0000      0.0000      0.0448      0.0000
  2      0.0000      0.3416      0.0000      0.0000      0.0000      0.0000      0.2789      0.6220      0.9670
  3      0.0000      0.1388      0.0000      0.0000      0.3356      0.0000      0.0000      0.0000      0.0000
  4      0.0008      0.5082      0.6138      0.0000      0.0000      0.0000      0.7112      0.0000      0.0000
  5      0.2822      0.7748      1.0730      0.4437      0.8165      1.9574      0.0000      0.0000      0.0000
  6      0.0013      0.6289      0.5578      1.7715      0.0000      0.0000      0.0000      0.9737      1.0107
  7      7.1058      4.3254      8.9440      7.8076      6.4571      4.1619      5.0841      4.9007      4.7967
  8     10.1716      4.7371      4.2528      4.5681      7.7044      3.6075      4.8983      5.9056      7.5100
  9      0.0000      1.2562      0.0000      1.9784      2.4517      2.0205      1.3591      0.6275      1.8368
 10      1.7883      0.7349      1.4296      0.0000      0.0000      0.0000      2.2154      0.0000      1.2160
 11      0.0000      0.9119      0.0000      0.0557      0.3095      0.0000      0.4976      0.0000      0.1800
 12      0.0000      1.0336      0.1259      0.0000      0.0000      1.0016      0.0000      0.3430      0.0000
 13      4.8458      6.3185      6.1936      6.3483      5.3158      8.6551      8.4096      5.4149      7.8071
 14      0.0000      0.0798      0.2896      0.0000      0.2733      0.0000      0.0000      0.0000      0.0111
 15      0.0085      0.8166      1.0326      1.7214      1.1440      0.5455      0.7634      0.0000      0.6875
 16      0.0000      0.0575      0.0000      0.2525      0.0000      0.0000      0.0000      0.0000      0.0000
 17      0.0000      0.0569      0.0000      0.0000      0.0000      0.0000      0.0000      0.0000      0.0000
 18      0.0000      0.2040      0.0000      0.7011      0.8671      0.0000      0.8320      0.4534      0.0000
 19      0.0000      0.1925      0.3199      0.0000      0.0000      0.0304      0.6454      0.0000      0.0000
 20      0.0000      0.2003      0.0000      0.0000      0.0000      0.0069      0.0000      0.0000      0.0000
 21      0.0027      0.7348      0.8022      0.0000      0.9136      0.0000      0.0000      0.4282      0.0481
 22      0.0000      0.3987      0.0000      0.0000      0.1305      0.2021      0.8883      0.2377      0.0000
 23      0.0000      0.3512      0.2341      0.0000      0.0000      0.0442      0.1941      0.0000      0.0000
 24      2.2850      1.1332      3.6751      0.5750      0.0000      1.8046      1.0087      1.3097      0.6823
 25      0.0000      2.0099      0.0000      2.1990      1.4175      3.0080      1.7516      0.0000      2.9092
 26      0.0000      1.1423      0.0000      1.7027      0.8106      0.5279      0.0000      2.2583      0.7298
 27      0.0084      1.6474      0.7568      2.4579      0.9876      0.5506      4.4967      0.5236      0.0000
 28      0.0000      1.9893      0.0000      2.0403      2.4243      2.5018      0.3322      0.3866      1.1602
 29      0.0000      0.0666      0.0000      0.0000      0.0000      0.0000      0.0000      0.0000      0.0000
 30      0.0000      0.1182      0.0000      0.0743      0.0000      0.0000      0.0000      0.0000      0.4754
 31      0.0000      0.0538      0.0000      0.0000      0.0000      0.0000      0.0000      0.0618      0.0000
 32      0.0000      0.3277      0.0000      0.6920      0.0000      0.0000      0.0000      0.9657      0.0000
 33      0.6332      0.2704      0.5834      0.0000      0.3496      0.4490      0.2128      0.3444      0.1213
 34      0.0000      0.0311      0.0000      0.0000      0.1981      0.0000      0.0000      0.0571      0.0493
 35      0.0000      0.2792      0.1406      0.0000      1.0640      0.0000      0.0000      0.9370      0.6354
 36      0.0000      0.2003      0.2351      0.0000      0.0000      0.2275      0.0000      0.0000      0.0000
 37      0.0000      0.1631      0.0000      1.0461      0.2977      0.0000      0.6317      0.0747      0.0000
 38     37.4476     31.0944     31.3877     33.2030     31.7148     35.1675     35.2047     35.8376     34.5223
 39      0.0000      0.4765      0.3072      0.0753      0.0092      0.0000      0.4772      0.0000      0.0000
 40      0.0000      0.7321      1.4161      0.0000      0.0000      0.2768      0.0000      1.1544      1.0134
 41      0.0000      0.8362      0.0000      0.0000      1.3393      0.0000      3.2931      0.0000      0.0000
 42      0.6735      2.8166      3.4192      3.1404      3.5382      3.0551      1.7207      2.6344      1.4415
 43     10.9786      4.4267      6.3150      2.1224      5.4892      5.3360      1.8651      5.3379      5.3902
 44      0.9180      2.4067      1.3947      0.3767      3.1363      0.0000      1.8248      0.7053      3.3262
 45      0.0000      0.9304      0.0000      0.0000      1.5821      0.0000      0.3699      0.0000      0.5448
 46      0.0009      1.0603      1.0491      0.8716      0.6033      0.0000      1.0386      0.0000      0.0000
