###################################################################
## OUTPUT of StarlightChains_v04.for    [Cid@UFSC - 01/Apr/2007] ##
###################################################################

## Some input info
2016bam.txt                              [arq_obs]
Base.CB07.vall.4m                        [arq_base]
Masks.EmLines.NEW.gm                     [arq_masks]
StCv04.C11.config                        [arq_config]
   66                                    [N_base]
    0                                    [N_YAV_components = # of components with extra extinction!]
    0                                    [i_FitPowerLaw (1/0 = Yes/No)]
-9.99                                    [alpha_PowerLaw]
CCM                                      [red_law_option]
 1.458241                                [q_norm = A(l_norm)/A(V)]

## (Re)Sampling Parameters
 3741.00                                 [l_ini (A)]
 7218.00                                 [l_fin (A)]
    1.00                                 [dl    (A)]     (OBS: dl_cushion =    50.00 A)

## Normalization info
 4020.00                                 [l_norm (A) - for base]
 4010.00                                 [llow_norm (A) - window for f_obs]
 4060.00                                 [lupp_norm (A) - window for f_obs]
1.091311E-16                             [fobs_norm (in input units)]

## S/N
 3691.00                                 [llow_SN (A) - window for S/N]
 7268.00                                 [lupp_SN (A) - window for S/N]
   3.944                                 [S/N in S/N window]
   5.410                                 [S/N in norm. window]
   9.034                                 [S/N_err in S/N window]
  12.391                                 [S/N_err in norm. window]
  1.0000                                 [fscale_chi2]

## etc...
    -2007429                             [idum_orig]
  2383                                   [NOl_eff]
  2355                                   [Nl_eff]
    28    NSIGMA                         [Ntot_cliped & clip_method]
   900970                                [Nglobal_steps]
   7                                     [N_chains]
  13                                     [NEX0s_base = N_base in EX0s-fits]
 0   0   1        0   2.0   1.851E+01    [Clip-Bug, RC-Crash & Burn-In warning-flags, n_censored_weights, wei_nsig_threshold & wei_limit]
    13     12.056     11.559      0.497  [idt_all, wdt_TotTime, wdt_UsrTime & wdt_SysTime (sec)]

## Synthesis Results - Best model ##

 4.09377E-01                             [chi2/Nl_eff]
     5.32860                             [adev (%)]

   103.00821                             [sum-of-x (%)]
 3.13579E-16                             [Flux_tot (units of input spectrum!)]
 6.89125E-13                             [Mini_tot (???)]
 3.67271E-13                             [Mcor_tot (???)]

-388.08                                  [v0_min  (km/s)]
 287.94                                  [vd_min  (km/s)]
 0.7638                                  [AV_min  (mag)]
 0.0000                                  [YAV_min (mag)]

# j     x_j(%)      Mini_j(%)     Mcor_j(%)     age_j(yr)     Z_j      (L/M)_j    YAV?  Mstars   component_j        a/Fe...       SSP_chi2r SSP_adev(%)   SSP_AV   SSP_x(%)
  1     21.8867     8.8377E-01    1.6583E+00    1.000000E+06  0.00400  1.094E-02    0   1.0000   age020_m42            0.0000     5.6858E-01     6.3786   1.9956    95.0620
  2      0.0000     0.0000E+00    0.0000E+00    3.160000E+06  0.00400  4.007E-02    0   0.9999   age045_m42            0.0000     6.1502E-01     6.3929   1.2647   101.8674
  3      0.0000     0.0000E+00    0.0000E+00    5.010000E+06  0.00400  2.539E-02    0   0.9488   age055_m42            0.0000     5.6321E-01     6.2537   1.5863    99.3054
  4      0.0000     0.0000E+00    0.0000E+00    6.610000E+06  0.00400  2.620E-02    0   0.9220   age061_m42            0.0000     6.0979E-01     6.2714   1.1930   102.0746
  5      0.0000     0.0000E+00    0.0000E+00    1.000000E+07  0.00400  1.322E-02    0   0.8862   age070_m42            0.0000     4.8703E-01     5.5695   0.9234   104.0426
  6      0.2020     1.1320E-02    1.8206E-02    1.445000E+07  0.00400  7.883E-03    0   0.8571   age078_m42            0.0000     4.6749E-01     5.5697   1.2483   101.4616
  7      0.0000     0.0000E+00    0.0000E+00    2.512000E+07  0.00400  5.251E-03    0   0.8174   age090_m42            0.0000     4.8272E-01     5.5277   0.7943   104.6635
  8      0.0000     0.0000E+00    0.0000E+00    4.000000E+07  0.00400  3.649E-03    0   0.7851   age104_m42            0.0000     5.1423E-01     5.6360   0.5645   105.5911
  9      0.0000     0.0000E+00    0.0000E+00    5.500000E+07  0.00400  3.098E-03    0   0.7629   age110_m42            0.0000     6.0617E-01     5.9937   0.7130   105.7059
 10      0.0000     0.0000E+00    0.0000E+00    1.015200E+08  0.00400  2.228E-03    0   0.7207   age116_m42            0.0000     6.9674E-01     6.3040   0.7308   105.9339
 11      0.0000     0.0000E+00    0.0000E+00    2.861200E+08  0.00400  1.093E-03    0   0.6648   age125_m42            0.0000     7.3679E-01     6.3477   0.1676   108.9092
 12      0.0000     0.0000E+00    0.0000E+00    5.088000E+08  0.00400  6.597E-04    0   0.6365   age130_m42            0.0000     8.8583E-01     6.8056   0.1529   109.8686
 13      0.0000     0.0000E+00    0.0000E+00    1.434000E+09  0.00400  2.132E-04    0   0.5798   age139_m42            0.0000     9.6465E-01     7.2014  -0.8189   111.8450
 14      0.0000     0.0000E+00    0.0000E+00    4.250000E+09  0.00400  5.895E-05    0   0.5377   age158_m42            0.0000     1.2284E+00     7.8385  -1.0000    97.6128
 15      7.7325     9.7318E+01    9.5172E+01    7.500000E+09  0.00400  3.510E-05    0   0.5212   age171_m42            0.0000     1.7397E+00     9.5224  -1.0000    90.0908
 16      0.0000     0.0000E+00    0.0000E+00    1.300000E+10  0.00400  2.005E-05    0   0.5034   age193_m42            0.0000     2.3328E+00    11.3707  -1.0000    83.7537
 17      0.0000     0.0000E+00    0.0000E+00    1.800000E+10  0.00400  1.525E-05    0   0.4967   age213_m42            0.0000     2.3802E+00    11.6139  -1.0000    82.6079
 18      8.5298     3.0437E-01    5.7109E-01    1.000000E+06  0.00800  1.238E-02    0   1.0000   age020_m52            0.0000     5.7175E-01     6.3954   1.9919    95.2445
 19     13.4674     1.9353E-01    3.6190E-01    3.160000E+06  0.00800  3.074E-02    0   0.9966   age045_m52            0.0000     5.7274E-01     6.4138   1.9134    96.1526
 20      0.0000     0.0000E+00    0.0000E+00    5.010000E+06  0.00800  2.668E-02    0   0.9443   age055_m52            0.0000     5.5149E-01     6.2218   1.6695    98.3954
 21     32.3716     6.6948E-01    1.1528E+00    6.610000E+06  0.00800  2.136E-02    0   0.9177   age061_m52            0.0000     4.6715E-01     5.5994   0.4243   105.0319
 22      0.0000     0.0000E+00    0.0000E+00    1.000000E+07  0.00800  1.215E-02    0   0.8827   age070_m52            0.0000     4.5081E-01     5.4655   1.1040   103.8523
 23      0.0000     0.0000E+00    0.0000E+00    1.445000E+07  0.00800  8.717E-03    0   0.8552   age078_m52            0.0000     4.6965E-01     5.5549   1.2131   102.9170
 24      0.0000     0.0000E+00    0.0000E+00    2.512000E+07  0.00800  5.592E-03    0   0.8162   age090_m52            0.0000     4.9050E-01     5.5749   0.8568   106.0009
 25      0.0000     0.0000E+00    0.0000E+00    4.000000E+07  0.00800  3.896E-03    0   0.7841   age104_m52            0.0000     5.4020E-01     5.7476   0.7664   106.8932
 26      0.0000     0.0000E+00    0.0000E+00    1.015200E+08  0.00800  2.148E-03    0   0.7226   age116_m52            0.0000     6.3708E-01     6.0653   0.7001   106.7801
 27      0.0000     0.0000E+00    0.0000E+00    2.861200E+08  0.00800  9.925E-04    0   0.6683   age125_m52            0.0000     9.0476E-01     6.8222   0.2187   110.8817
 28      0.0000     0.0000E+00    0.0000E+00    9.047900E+08  0.00800  3.141E-04    0   0.6138   age135_m52            0.0000     1.1717E+00     7.8552  -0.5845   115.3744
 29      0.0000     0.0000E+00    0.0000E+00    1.434000E+09  0.00800  1.719E-04    0   0.5853   age139_m52            0.0000     1.1558E+00     7.5388  -1.0000   106.4270
 30      0.0000     0.0000E+00    0.0000E+00    2.500000E+09  0.00800  7.872E-05    0   0.5600   age150_m52            0.0000     1.8086E+00     9.5487  -1.0000    93.3194
 31      0.0000     0.0000E+00    0.0000E+00    4.250000E+09  0.00800  4.336E-05    0   0.5426   age158_m52            0.0000     1.8585E+00     9.6985  -1.0000    91.8662
 32      0.0000     0.0000E+00    0.0000E+00    6.250000E+09  0.00800  3.159E-05    0   0.5319   age166_m52            0.0000     2.6557E+00    11.9288  -1.0000    84.5390
 33      0.0000     0.0000E+00    0.0000E+00    1.300000E+10  0.00800  1.361E-05    0   0.5073   age193_m52            0.0000     4.8678E+00    17.4226  -1.0000    68.4942
 34      0.0000     0.0000E+00    0.0000E+00    1.800000E+10  0.00800  9.886E-06    0   0.4990   age213_m52            0.0000     5.5681E+00    18.5933  -1.0000    64.8494
 35      5.1131     1.4629E-01    2.7449E-01    1.000000E+06  0.02000  1.544E-02    0   1.0000   age020_m62            0.0000     5.7429E-01     6.4117   1.9883    95.4466
 36      1.9246     2.2600E-02    4.1803E-02    3.160000E+06  0.02000  3.762E-02    0   0.9858   age045_m62            0.0000     5.7887E-01     6.4561   1.9262    96.3144
 37      0.0000     0.0000E+00    0.0000E+00    5.010000E+06  0.02000  3.296E-02    0   0.9342   age055_m62            0.0000     6.0380E-01     6.4017   1.5439   100.6121
 38     11.7805     4.5096E-01    7.4977E-01    8.710000E+06  0.02000  1.154E-02    0   0.8861   age067_m62            0.0000     5.4023E-01     6.3041   0.5775   106.2987
 39      0.0000     0.0000E+00    0.0000E+00    1.445000E+07  0.02000  7.663E-03    0   0.8472   age078_m62            0.0000     4.4153E-01     5.5582   0.7568   106.0879
 40      0.0000     0.0000E+00    0.0000E+00    2.512000E+07  0.02000  4.532E-03    0   0.8099   age090_m62            0.0000     4.6054E-01     5.6826   0.7495   105.8421
 41      0.0000     0.0000E+00    0.0000E+00    5.500000E+07  0.02000  2.733E-03    0   0.7595   age110_m62            0.0000     5.2539E-01     5.6842   0.7495   106.0661
 42      0.0000     0.0000E+00    0.0000E+00    1.609000E+08  0.02000  1.369E-03    0   0.6985   age120_m62            0.0000     7.7109E-01     6.3854   0.5846   109.0145
 43      0.0000     0.0000E+00    0.0000E+00    2.861200E+08  0.02000  9.013E-04    0   0.6714   age125_m62            0.0000     9.9729E-01     6.9834   0.3322   112.1287
 44      0.0000     0.0000E+00    0.0000E+00    5.088000E+08  0.02000  5.028E-04    0   0.6449   age130_m62            0.0000     1.2546E+00     7.9663  -0.0502   115.0488
 45      0.0000     0.0000E+00    0.0000E+00    9.047900E+08  0.02000  2.428E-04    0   0.6179   age135_m62            0.0000     1.2273E+00     8.1614  -0.6432   114.4405
 46      0.0000     0.0000E+00    0.0000E+00    1.434000E+09  0.02000  1.263E-04    0   0.5908   age139_m62            0.0000     1.2765E+00     8.0662  -1.0000   109.1778
 47      0.0000     0.0000E+00    0.0000E+00    2.500000E+09  0.02000  5.985E-05    0   0.5673   age150_m62            0.0000     2.0565E+00    10.0406  -1.0000    93.6268
 48      0.0000     0.0000E+00    0.0000E+00    4.250000E+09  0.02000  3.271E-05    0   0.5468   age158_m62            0.0000     3.2999E+00    13.2816  -1.0000    81.8001
 49      0.0000     0.0000E+00    0.0000E+00    1.000000E+10  0.02000  1.360E-05    0   0.5167   age181_m62            0.0000     5.1252E+00    17.1918  -1.0000    69.8983
 50      0.0000     0.0000E+00    0.0000E+00    1.800000E+10  0.02000  7.124E-06    0   0.5013   age213_m62            0.0000     6.3732E+00    19.4609  -1.0000    62.9882
 51      0.0000     0.0000E+00    0.0000E+00    1.000000E+06  0.05000  2.592E-02    0   0.9998   age020_m72            0.0000     5.7914E-01     6.4337   1.9815    95.4039
 52      0.0000     0.0000E+00    0.0000E+00    3.160000E+06  0.05000  4.845E-02    0   0.9577   age045_m72            0.0000     5.8865E-01     6.4855   1.8042    97.7922
 53      0.0000     0.0000E+00    0.0000E+00    5.010000E+06  0.05000  3.072E-02    0   0.9147   age055_m72            0.0000     4.5918E-01     5.7247   1.3392   102.0031
 54      0.0000     0.0000E+00    0.0000E+00    6.610000E+06  0.05000  1.455E-02    0   0.8877   age061_m72            0.0000     8.4300E-01     8.0885   0.6338   107.0841
 55      0.0000     0.0000E+00    0.0000E+00    1.000000E+07  0.05000  9.074E-03    0   0.8524   age070_m72            0.0000     5.3480E-01     6.3256   1.5256   101.6518
 56      0.0000     0.0000E+00    0.0000E+00    2.512000E+07  0.05000  4.250E-03    0   0.7902   age090_m72            0.0000     5.2044E-01     6.0281   1.2187   103.8855
 57      0.0000     0.0000E+00    0.0000E+00    4.000000E+07  0.05000  3.087E-03    0   0.7618   age104_m72            0.0000     5.5595E-01     6.1547   0.9903   105.6908
 58      0.0000     0.0000E+00    0.0000E+00    1.015200E+08  0.05000  1.700E-03    0   0.7096   age116_m72            0.0000     7.1415E-01     6.2411   0.7272   108.6614
 59      0.0000     0.0000E+00    0.0000E+00    2.861200E+08  0.05000  7.384E-04    0   0.6633   age125_m72            0.0000     1.1422E+00     7.5011   0.1967   113.6897
 60      0.0000     0.0000E+00    0.0000E+00    5.088000E+08  0.05000  3.819E-04    0   0.6372   age130_m72            0.0000     1.2456E+00     8.1626  -0.3047   115.6721
 61      0.0000     0.0000E+00    0.0000E+00    9.047900E+08  0.05000  1.676E-04    0   0.6110   age135_m72            0.0000     1.4652E+00     9.1573  -1.0000   113.1383
 62      0.0000     0.0000E+00    0.0000E+00    1.434000E+09  0.05000  8.837E-05    0   0.5874   age139_m72            0.0000     2.1651E+00    10.2365  -1.0000    94.9557
 63      0.0000     0.0000E+00    0.0000E+00    2.500000E+09  0.05000  4.233E-05    0   0.5598   age150_m72            0.0000     3.4275E+00    13.4128  -1.0000    82.4267
 64      0.0000     0.0000E+00    0.0000E+00    6.250000E+09  0.05000  1.435E-05    0   0.5249   age166_m72            0.0000     5.6570E+00    18.3043  -1.0000    66.6130
 65      0.0000     0.0000E+00    0.0000E+00    1.300000E+10  0.05000  6.513E-06    0   0.5036   age193_m72            0.0000     7.3370E+00    21.2849  -1.0000    59.0294
 66      0.0000     0.0000E+00    0.0000E+00    1.800000E+10  0.05000  4.527E-06    0   0.4945   age213_m72            0.0000     8.3324E+00    22.9550  -1.0000    54.5727


## Synthesis Results - Average & Chains ##

# j      x_j: min, <> & last-chain-values for 1 ...  7 chains
  1     21.8867      2.8486      3.6804      3.5496      5.7080      6.8732      8.1676      0.0000      0.0000
  2      0.0000      0.7332      0.0000      0.0000      0.0000      0.0000      0.0000      0.0000      0.0000
  3      0.0000      0.5621      0.0000      0.9800      0.0000      0.0000      0.0578      0.0000      3.5329
  4      0.0000      0.8766      0.0000      0.0000      7.2546      0.0000      0.0000      0.0000      0.3991
  5      0.0000      1.3783      0.0000      0.0000      0.6512      0.0000      1.9254      1.7948      0.9147
  6      0.2020      1.3094      0.9427      0.0000      1.3968      2.7334      0.0000      0.0000      0.0000
  7      0.0000      1.6099      0.0000      0.0000      3.2304      0.0000      0.0000      0.0000      0.5667
  8      0.0000      1.2977      1.1278      6.2497      0.0000      0.0000      0.0000      0.0000      0.0000
  9      0.0000      0.7759      3.3179      0.0000      0.0369      0.0000      0.0000      0.0000      0.0000
 10      0.0000      0.4825      0.0000      1.9450      0.0000      0.0000      0.0000      0.0000      0.0000
 11      0.0000      0.4011      0.4660      0.0000      0.0000      1.4358      0.0000      0.0000      0.2465
 12      0.0000      0.2822      0.0000      0.0331      0.0000      0.0000      0.0000      0.0000      0.0000
 13      0.0000      0.0410      0.0000      0.0000      0.0000      0.0000      0.0000      0.0000      0.2009
 14      0.0000      0.0973      0.0000      0.0000      0.0000      0.0000      0.0000      0.0000      0.0000
 15      7.7325      0.4780      0.0000      2.1895      0.0000      1.2867      0.2110      0.0000      1.9922
 16      0.0000      0.0537      0.0000      0.0000      0.0000      0.0000      0.0000      0.0000      0.0000
 17      0.0000      0.0810      0.0000      0.0000      1.1606      0.4172      0.0000      0.0000      0.0000
 18      8.5298      3.1094      4.1936      9.2653      0.6331      2.8183      6.0234      0.0000      2.4264
 19     13.4674      3.2919      0.0000      4.0096      8.3595      6.8434      0.0000      4.5498      5.9949
 20      0.0000      1.0724      0.0000      0.0000      0.0000      0.0216      0.0000      1.4228      2.4996
 21     32.3716     31.4289     40.9652     37.5538     28.4886     38.1429     37.2924     46.3630     41.6426
 22      0.0000      1.3752      0.0000      0.0000      0.0000      0.0000      0.0000      1.6337      0.0000
 23      0.0000      0.8593      0.0000      0.0000      1.3262      0.0000      1.0261      0.0000      0.2329
 24      0.0000      1.1121      0.9283      0.0000      0.0000      0.0000      0.5482      0.0000      0.0000
 25      0.0000      0.6042      0.0300      0.0000      0.0000      0.0000      0.0000      0.0000      0.0000
 26      0.0000      0.4789      0.0000      0.0000      0.0000      0.3193      0.8756      0.0000      0.0000
 27      0.0000      0.2161      0.0000      0.0000      0.0000      0.0000      0.0000      0.0000      0.3440
 28      0.0000      0.0865      0.0000      0.0000      0.0000      0.0000      0.0000      0.0000      0.0000
 29      0.0000      0.0494      0.0000      0.0000      0.0000      0.0000      0.1244      0.0000      0.0000
 30      0.0000      0.0393      0.0000      0.0000      0.0000      0.0000      0.0000      0.2396      0.0000
 31      0.0000      0.0285      0.0000      0.0000      0.0000      0.0000      0.0000      0.0000      0.0000
 32      0.0000      0.0599      0.3803      0.0000      0.0000      0.0000      0.0000      0.0000      0.0000
 33      0.0000      0.0037      0.0000      0.0000      0.0000      0.0000      0.0000      0.0000      0.0000
 34      0.0000      0.0098      0.0000      0.0000      0.0000      0.0000      0.0000      0.0000      0.0000
 35      5.1131      1.6350      5.3617      0.9943      3.1956      3.5076      0.9420      0.0000      2.0814
 36      1.9246      3.1901      0.2177      6.2370      6.2145      2.1489      3.3302      9.1697      5.1771
 37      0.0000      0.6396      0.0000      0.0000      0.0000      0.8987      0.0000      0.0000      0.0000
 38     11.7805     26.1771     27.2528     23.3450     25.8672     27.9025     26.9996     25.7994     18.7973
 39      0.0000      2.2065      1.9049      0.0000      0.0000      1.2874      7.7896      0.0000      0.5422
 40      0.0000      1.7333      0.0000      0.0000      0.5460      0.0000      0.0000      0.0000      0.8587
 41      0.0000      0.8108      0.0000      0.0000      0.8227      0.0000      0.0000      0.0000      0.3061
 42      0.0000      0.2430      0.2171      0.0000      0.0000      0.0000      0.1262      0.0000      0.0000
 43      0.0000      0.1589      0.0000      0.1189      0.0000      0.0000      0.0000      0.0000      0.0000
 44      0.0000      0.1710      0.0000      0.0000      0.0000      0.0000      0.0000      0.0783      0.0000
 45      0.0000      0.0752      0.0000      0.0000      0.0000      0.0000      0.0000      0.0000      0.0000
 46      0.0000      0.1072      0.4449      1.0274      0.0000      0.0000      0.0000      0.0000      0.2744
