###################################################################
## OUTPUT of StarlightChains_v04.for    [Cid@UFSC - 01/Apr/2007] ##
###################################################################

## Some input info
2016gxq.txt                              [arq_obs]
Base.CB07.vall.4m                        [arq_base]
Masks.EmLines.NEW.gm                     [arq_masks]
StCv04.C11.config                        [arq_config]
   66                                    [N_base]
    0                                    [N_YAV_components = # of components with extra extinction!]
    0                                    [i_FitPowerLaw (1/0 = Yes/No)]
-9.99                                    [alpha_PowerLaw]
CCM                                      [red_law_option]
 1.458241                                [q_norm = A(l_norm)/A(V)]

## (Re)Sampling Parameters
 3741.00                                 [l_ini (A)]
 7218.00                                 [l_fin (A)]
    1.00                                 [dl    (A)]     (OBS: dl_cushion =    50.00 A)

## Normalization info
 4020.00                                 [l_norm (A) - for base]
 4010.00                                 [llow_norm (A) - window for f_obs]
 4060.00                                 [lupp_norm (A) - window for f_obs]
6.720093E-17                             [fobs_norm (in input units)]

## S/N
 3691.00                                 [llow_SN (A) - window for S/N]
 7268.00                                 [lupp_SN (A) - window for S/N]
   6.368                                 [S/N in S/N window]
   8.309                                 [S/N in norm. window]
   0.000                                 [S/N_err in S/N window]
   0.000                                 [S/N_err in norm. window]
  1.0000                                 [fscale_chi2]

## etc...
    -2007433                             [idum_orig]
  2190                                   [NOl_eff]
  2043                                   [Nl_eff]
   147    NSIGMA                         [Ntot_cliped & clip_method]
  2423890                                [Nglobal_steps]
   7                                     [N_chains]
  37                                     [NEX0s_base = N_base in EX0s-fits]
 0   0   1        4   2.0   8.003E+01    [Clip-Bug, RC-Crash & Burn-In warning-flags, n_censored_weights, wei_nsig_threshold & wei_limit]
    24     24.387     23.871      0.516  [idt_all, wdt_TotTime, wdt_UsrTime & wdt_SysTime (sec)]

## Synthesis Results - Best model ##

 1.68765E+00                             [chi2/Nl_eff]
     4.36517                             [adev (%)]

   100.32114                             [sum-of-x (%)]
 6.58908E-17                             [Flux_tot (units of input spectrum!)]
 6.59787E-13                             [Mini_tot (???)]
 3.49381E-13                             [Mcor_tot (???)]

 -29.55                                  [v0_min  (km/s)]
 131.56                                  [vd_min  (km/s)]
-0.0170                                  [AV_min  (mag)]
 0.0000                                  [YAV_min (mag)]

# j     x_j(%)      Mini_j(%)     Mcor_j(%)     age_j(yr)     Z_j      (L/M)_j    YAV?  Mstars   component_j        a/Fe...       SSP_chi2r SSP_adev(%)   SSP_AV   SSP_x(%)
  1      0.1157     1.0526E-03    1.9878E-03    1.000000E+06  0.00400  1.094E-02    0   1.0000   age020_m42            0.0000     3.9967E+00     6.8998   2.4848    87.5226
  2      0.0000     0.0000E+00    0.0000E+00    3.160000E+06  0.00400  4.007E-02    0   0.9999   age045_m42            0.0000     2.9953E+00     5.7175   1.7864    92.1959
  3      0.6719     2.6343E-03    4.7200E-03    5.010000E+06  0.00400  2.539E-02    0   0.9488   age055_m42            0.0000     3.2999E+00     6.0744   2.0924    90.5770
  4      0.0040     1.5360E-05    2.6744E-05    6.610000E+06  0.00400  2.620E-02    0   0.9220   age061_m42            0.0000     2.8531E+00     5.5477   1.7116    92.4187
  5      0.0000     0.0000E+00    0.0000E+00    1.000000E+07  0.00400  1.322E-02    0   0.8862   age070_m42            0.0000     2.6131E+00     5.3665   1.4050    95.2830
  6      0.0000     0.0000E+00    0.0000E+00    1.445000E+07  0.00400  7.883E-03    0   0.8571   age078_m42            0.0000     2.8548E+00     5.6961   1.7280    93.1305
  7      0.0000     0.0000E+00    0.0000E+00    2.512000E+07  0.00400  5.251E-03    0   0.8174   age090_m42            0.0000     2.6418E+00     5.3833   1.2726    95.8804
  8      0.0000     0.0000E+00    0.0000E+00    4.000000E+07  0.00400  3.649E-03    0   0.7851   age104_m42            0.0000     2.4558E+00     5.1863   1.0513    96.3798
  9      0.0000     0.0000E+00    0.0000E+00    5.500000E+07  0.00400  3.098E-03    0   0.7629   age110_m42            0.0000     2.4445E+00     5.1357   1.2218    95.7073
 10      0.0000     0.0000E+00    0.0000E+00    1.015200E+08  0.00400  2.228E-03    0   0.7207   age116_m42            0.0000     2.5017E+00     5.1876   1.2534    95.4167
 11      0.0000     0.0000E+00    0.0000E+00    2.861200E+08  0.00400  1.093E-03    0   0.6648   age125_m42            0.0000     2.3523E+00     5.0082   0.6811    98.2026
 12      0.0000     0.0000E+00    0.0000E+00    5.088000E+08  0.00400  6.597E-04    0   0.6365   age130_m42            0.0000     2.3281E+00     5.0925   0.6888    98.2721
 13      6.7427     3.1483E+00    3.4471E+00    1.434000E+09  0.00400  2.132E-04    0   0.5798   age139_m42            0.0000     1.9570E+00     4.6888  -0.2664    99.3284
 14      3.3513     5.6592E+00    5.7465E+00    4.250000E+09  0.00400  5.895E-05    0   0.5377   age158_m42            0.0000     2.4379E+00     5.1825  -0.6982    95.2390
 15      1.3497     3.8279E+00    3.7677E+00    7.500000E+09  0.00400  3.510E-05    0   0.5212   age171_m42            0.0000     2.9135E+00     5.5992  -0.8749    94.1321
 16      1.7206     8.5425E+00    8.1209E+00    1.300000E+10  0.00400  2.005E-05    0   0.5034   age193_m42            0.0000     3.4881E+00     6.0697  -1.0000    92.1397
 17      2.9551     1.9290E+01    1.8094E+01    1.800000E+10  0.00400  1.525E-05    0   0.4967   age213_m42            0.0000     3.4646E+00     6.0723  -1.0000    90.9181
 18      0.7565     6.0829E-03    1.1487E-02    1.000000E+06  0.00800  1.238E-02    0   1.0000   age020_m52            0.0000     4.0038E+00     6.9014   2.4812    87.6896
 19      1.8336     5.9378E-03    1.1175E-02    3.160000E+06  0.00800  3.074E-02    0   0.9966   age045_m52            0.0000     3.9142E+00     6.7897   2.4072    88.3413
 20      2.1229     7.9208E-03    1.4125E-02    5.010000E+06  0.00800  2.668E-02    0   0.9443   age055_m52            0.0000     3.3953E+00     6.1932   2.1706    89.9334
 21      8.2479     3.8439E-02    6.6616E-02    6.610000E+06  0.00800  2.136E-02    0   0.9177   age061_m52            0.0000     2.2358E+00     5.1479   0.9042    96.3379
 22      0.0000     0.0000E+00    0.0000E+00    1.000000E+07  0.00800  1.215E-02    0   0.8827   age070_m52            0.0000     2.7481E+00     5.5616   1.5727    95.5212
 23      0.6614     7.5535E-03    1.2199E-02    1.445000E+07  0.00800  8.717E-03    0   0.8552   age078_m52            0.0000     2.7196E+00     5.5415   1.6932    94.3520
 24      0.0000     0.0000E+00    0.0000E+00    2.512000E+07  0.00800  5.592E-03    0   0.8162   age090_m52            0.0000     2.5541E+00     5.2816   1.3364    96.9454
 25      0.0000     0.0000E+00    0.0000E+00    4.000000E+07  0.00800  3.896E-03    0   0.7841   age104_m52            0.0000     2.4178E+00     5.1095   1.2593    97.2299
 26      0.0000     0.0000E+00    0.0000E+00    1.015200E+08  0.00800  2.148E-03    0   0.7226   age116_m52            0.0000     2.3174E+00     5.0055   1.2145    96.4099
 27      0.0000     0.0000E+00    0.0000E+00    2.861200E+08  0.00800  9.925E-04    0   0.6683   age125_m52            0.0000     2.2494E+00     5.0371   0.7568    99.0971
 28     27.1126     8.5927E+00    9.9601E+00    9.047900E+08  0.00800  3.141E-04    0   0.6138   age135_m52            0.0000     2.2669E+00     5.1037  -0.0101   101.6311
 29      2.7962     1.6193E+00    1.7898E+00    1.434000E+09  0.00800  1.719E-04    0   0.5853   age139_m52            0.0000     2.2528E+00     4.9548  -0.5953    99.6339
 30      1.1889     1.5035E+00    1.5899E+00    2.500000E+09  0.00800  7.872E-05    0   0.5600   age150_m52            0.0000     3.0996E+00     5.7772  -0.8448    96.2292
 31      0.0672     1.5435E-01    1.5816E-01    4.250000E+09  0.00800  4.336E-05    0   0.5426   age158_m52            0.0000     3.2574E+00     5.8855  -0.8603    95.3658
 32      2.4600     7.7521E+00    7.7868E+00    6.250000E+09  0.00800  3.159E-05    0   0.5319   age166_m52            0.0000     4.1653E+00     6.6251  -1.0000    92.9973
 33      0.0000     0.0000E+00    0.0000E+00    1.300000E+10  0.00800  1.361E-05    0   0.5073   age193_m52            0.0000     1.2037E+01    11.1874  -1.0000    76.1505
 34      2.2754     2.2912E+01    2.1591E+01    1.800000E+10  0.00800  9.886E-06    0   0.4990   age213_m52            0.0000     1.5495E+01    12.6750  -1.0000    72.2793
 35      0.0000     0.0000E+00    0.0000E+00    1.000000E+06  0.02000  1.544E-02    0   1.0000   age020_m62            0.0000     4.0343E+00     6.9307   2.4766    87.9145
 36      1.1063     2.9273E-03    5.4496E-03    3.160000E+06  0.02000  3.762E-02    0   0.9858   age045_m62            0.0000     4.0035E+00     6.8845   2.4168    88.6190
 37      1.4798     4.4694E-03    7.8848E-03    5.010000E+06  0.02000  3.296E-02    0   0.9342   age055_m62            0.0000     3.1698E+00     5.8765   2.0600    91.3542
 38      0.0000     0.0000E+00    0.0000E+00    8.710000E+06  0.02000  1.154E-02    0   0.8861   age067_m62            0.0000     4.6449E+00     7.4013   0.9683   100.3806
 39      3.6147     4.6957E-02    7.5127E-02    1.445000E+07  0.02000  7.663E-03    0   0.8472   age078_m62            0.0000     2.8709E+00     5.7517   1.2045    98.1821
 40      0.0000     0.0000E+00    0.0000E+00    2.512000E+07  0.02000  4.532E-03    0   0.8099   age090_m62            0.0000     3.0518E+00     5.8353   1.1958    97.9100
 41      2.0165     7.3448E-02    1.0534E-01    5.500000E+07  0.02000  2.733E-03    0   0.7595   age110_m62            0.0000     2.3878E+00     5.0799   1.2387    96.6510
 42      1.3011     9.4612E-02    1.2480E-01    1.609000E+08  0.02000  1.369E-03    0   0.6985   age120_m62            0.0000     2.3453E+00     5.0392   1.1054    98.0759
 43      2.0658     2.2817E-01    2.8930E-01    2.861200E+08  0.02000  9.013E-04    0   0.6714   age125_m62            0.0000     2.4070E+00     5.2531   0.8706   100.1220
 44      0.0000     0.0000E+00    0.0000E+00    5.088000E+08  0.02000  5.028E-04    0   0.6449   age130_m62            0.0000     2.5926E+00     5.4846   0.5216   101.4765
 45      0.0000     0.0000E+00    0.0000E+00    9.047900E+08  0.02000  2.428E-04    0   0.6179   age135_m62            0.0000     2.5860E+00     5.4461  -0.0546   100.3826
 46      0.0007     5.3300E-04    5.9467E-04    1.434000E+09  0.02000  1.263E-04    0   0.5908   age139_m62            0.0000     2.9622E+00     5.6958  -0.4961    98.7510
 47      0.1433     2.3828E-01    2.5528E-01    2.500000E+09  0.02000  5.985E-05    0   0.5673   age150_m62            0.0000     4.0526E+00     6.5663  -0.8445    96.6279
 48      0.9016     2.7438E+00    2.8333E+00    4.250000E+09  0.02000  3.271E-05    0   0.5468   age158_m62            0.0000     6.0123E+00     7.9981  -1.0000    90.2194
 49      1.1297     8.2692E+00    8.0688E+00    1.000000E+10  0.02000  1.360E-05    0   0.5167   age181_m62            0.0000     1.2904E+01    11.4405  -1.0000    77.6918
 50      0.0000     0.0000E+00    0.0000E+00    1.800000E+10  0.02000  7.124E-06    0   0.5013   age213_m62            0.0000     1.9429E+01    14.0559  -1.0000    70.3334
 51      0.0000     0.0000E+00    0.0000E+00    1.000000E+06  0.05000  2.592E-02    0   0.9998   age020_m72            0.0000     4.1591E+00     7.0563   2.4642    88.0935
 52      1.8146     3.7282E-03    6.7428E-03    3.160000E+06  0.05000  4.845E-02    0   0.9577   age045_m72            0.0000     3.7421E+00     6.5231   2.3090    89.3927
 53      4.2142     1.3656E-02    2.3589E-02    5.010000E+06  0.05000  3.072E-02    0   0.9147   age055_m72            0.0000     2.9863E+00     5.9145   1.8047    94.1453
 54      5.2974     3.6243E-02    6.0757E-02    6.610000E+06  0.05000  1.455E-02    0   0.8877   age061_m72            0.0000     7.2223E+00     9.2316   1.0044   101.8642
 55      0.0018     1.9545E-05    3.1461E-05    1.000000E+07  0.05000  9.074E-03    0   0.8524   age070_m72            0.0000     3.5085E+00     6.3672   2.0043    93.5277
 56      0.0000     0.0000E+00    0.0000E+00    2.512000E+07  0.05000  4.250E-03    0   0.7902   age090_m72            0.0000     2.9885E+00     5.6953   1.7006    95.0730
 57      0.0000     0.0000E+00    0.0000E+00    4.000000E+07  0.05000  3.087E-03    0   0.7618   age104_m72            0.0000     2.9764E+00     5.5724   1.4708    96.5864
 58      0.1019     5.9698E-03    7.9998E-03    1.015200E+08  0.05000  1.700E-03    0   0.7096   age116_m72            0.0000     2.4440E+00     5.0851   1.2373    98.1220
 59      0.0000     0.0000E+00    0.0000E+00    2.861200E+08  0.05000  7.384E-04    0   0.6633   age125_m72            0.0000     2.4387E+00     5.3750   0.7531   100.8107
 60      0.0027     7.1195E-04    8.5670E-04    5.088000E+08  0.05000  3.819E-04    0   0.6372   age130_m72            0.0000     2.5778E+00     5.4973   0.2819   101.4728
 61      8.6941     5.1639E+00    5.9583E+00    9.047900E+08  0.05000  1.676E-04    0   0.6110   age135_m72            0.0000     3.8171E+00     6.5450  -0.3904    98.6752
 62      0.0013     1.5149E-03    1.6804E-03    1.434000E+09  0.05000  8.837E-05    0   0.5874   age139_m72            0.0000     4.4778E+00     6.8750  -0.8402    97.7955
 63      0.0000     0.0000E+00    0.0000E+00    2.500000E+09  0.05000  4.233E-05    0   0.5598   age150_m72            0.0000     6.6483E+00     8.3740  -1.0000    90.9186
 64      0.0000     0.0000E+00    0.0000E+00    6.250000E+09  0.05000  1.435E-05    0   0.5249   age166_m72            0.0000     1.5771E+01    12.6461  -1.0000    74.1908
 65      0.0000     0.0000E+00    0.0000E+00    1.300000E+10  0.05000  6.513E-06    0   0.5036   age193_m72            0.0000     2.5538E+01    16.1852  -1.0000    66.0753
 66      0.0000     0.0000E+00    0.0000E+00    1.800000E+10  0.05000  4.527E-06    0   0.4945   age213_m72            0.0000     3.2092E+01    18.2044  -1.0000    61.2439


## Synthesis Results - Average & Chains ##

# j      x_j: min, <> & last-chain-values for 1 ...  7 chains
  1      0.1157      0.7202      0.8774      0.7222      0.0000      0.0000      0.2653      0.0000      1.3122
  2      0.0000      0.0964      0.0000      0.0000      0.0000      0.0000      0.0000      0.0000      0.0000
  3      0.6719      1.6712      1.6182      1.7571      1.3740      1.6195      1.9747      1.5515      1.6463
  4      0.0040      0.2772      0.5505      0.0000      0.0000      0.7132      0.2365      0.1694      0.0000
  5      0.0000      0.3140      0.0000      0.5795      0.0000      1.3308      1.0024      0.0000      0.0000
  6      0.0000      0.2582      0.0975      0.2244      0.6034      0.0000      0.0000      0.0000      0.3746
  7      0.0000      0.1915      0.0000      0.0000      0.0000      0.0000      0.6195      0.0000      0.0000
  8      0.0000      0.3993      0.0000      0.0000      0.0000      0.0000      0.0000      0.7841      0.5584
  9      0.0000      0.4128      0.0000      0.0656      0.9520      0.0000      0.7376      0.0000      0.6789
 10      0.0000      0.1991      0.0000      0.1934      0.0000      0.6027      0.0000      0.0234      0.0000
 11      0.0000      0.3781      0.1421      1.1109      0.9176      0.0000      0.0000      0.0000      0.0000
 12      0.0000      0.4103      0.0584      0.7847      0.0000      0.2595      1.1555      0.4140      0.0000
 13      6.7427      8.1255      8.2344      8.0511      6.1289      7.6400      8.2895      7.5000     10.3209
 14      3.3513      2.1803      2.8802      2.1230      2.4976      1.8855      2.6863      2.0764      2.2220
 15      1.3497      0.9376      0.5820      1.2174      1.7461      0.5102      1.1839      0.7340      0.9568
 16      1.7206      0.8578      0.8282      0.6939      2.5826      0.4502      0.0000      0.9001      0.9396
 17      2.9551      2.1208      3.3461      1.7559      2.4369      2.0262      2.2798      2.1859      2.1810
 18      0.7565      1.2050      0.6238      1.0209      1.3515      1.3416      1.4409      0.0000      1.2891
 19      1.8336      2.2582      1.6232      1.6719      2.5782      1.7424      0.8982      3.4705      3.4419
 20      2.1229      2.7808      3.7545      2.8781      2.7237      2.2347      2.4583      2.7056      2.5756
 21      8.2479      7.7517      7.7675      8.4670      8.3580      8.1837      7.5004     10.3699      3.6861
 22      0.0000      0.1310      0.1930      0.0000      0.0000      0.0000      0.0000      0.0000      0.5091
 23      0.6614      0.2246      0.9219      0.9508      0.4338      0.0000      0.5779      0.1113      1.4107
 24      0.0000      0.3210      0.1851      0.0000      0.0000      0.4355      0.0336      0.7757      0.1804
 25      0.0000      0.2039      0.0621      0.0000      0.0000      0.0000      0.1661      0.3223      0.4712
 26      0.0000      0.3139      0.0000      0.0000      0.8323      0.2561      0.5925      0.0486      0.5404
 27      0.0000      0.5418      0.0000      0.3204      1.0090      0.5453      0.0000      0.2345      0.0000
 28     27.1126     23.8215     23.3769     24.2445     27.9338     24.8739     25.7902     23.8240     25.3797
 29      2.7962      2.3960      2.9420      2.9584      1.0414      2.5731      2.3311      2.8242      1.4048
 30      1.1889      0.9188      1.8782      1.0135      0.0000      1.3437      0.8596      1.1037      1.2175
 31      0.0672      0.3685      0.6195      0.5539      0.0000      0.0000      0.0000      0.7999      0.0000
 32      2.4600      1.7593      1.5011      1.3924      1.7915      1.2753      1.7757      2.1535      1.3584
 33      0.0000      0.0436      0.0000      0.0000      0.0000      0.2978      0.0000      0.1272      0.0000
 34      2.2754      0.2516      0.3501      0.3315      0.2554      0.7020      0.2432      0.0000      0.2252
 35      0.0000      0.1137      0.0000      0.0000      0.0615      0.0000      0.0000      0.0000      0.0000
 36      1.1063      0.6244      1.1782      0.5351      0.7211      2.1076      0.6553      0.0000      0.0000
 37      1.4798      0.1613      0.3252      0.0298      1.0628      0.3264      0.0000      0.0000      0.5567
 38      0.0000      1.5488      0.0711      1.6155      1.1821      1.5332      3.1883      1.6898      1.6699
 39      3.6147      3.0745      3.0116      3.2245      2.8845      3.0387      3.2798      3.2942      3.1698
 40      0.0000      0.3601      0.0000      0.0000      0.4721      0.0000      0.7073      0.0000      0.3138
 41      2.0165      0.7975      2.8075      1.0154      0.0000      0.3493      0.0000      0.6056      0.3677
 42      1.3011      0.3464      1.3060      1.1587      0.7868      0.6087      0.0000      0.8365      0.8140
 43      2.0658      0.3513      1.3081      0.6909      1.2057      0.0000      0.0000      0.1606      0.0000
 44      0.0000      0.7185      0.2266      0.4528      0.0000      0.1468      0.2489      1.0013      1.8220
 45      0.0000      1.1245      0.0000      0.0000      0.0000      0.6757      1.0270      0.0000      0.0000
 46      0.0007      2.2889      2.2456      2.3028      1.5437      2.8838      1.5693      2.3667      2.2260
