###################################################################
## OUTPUT of StarlightChains_v04.for    [Cid@UFSC - 01/Apr/2007] ##
###################################################################

## Some input info
2016hgw.txt                              [arq_obs]
Base.CB07.vall.4m                        [arq_base]
Masks.EmLines.NEW.gm                     [arq_masks]
StCv04.C11.config                        [arq_config]
   66                                    [N_base]
    0                                    [N_YAV_components = # of components with extra extinction!]
    0                                    [i_FitPowerLaw (1/0 = Yes/No)]
-9.99                                    [alpha_PowerLaw]
CCM                                      [red_law_option]
 1.458241                                [q_norm = A(l_norm)/A(V)]

## (Re)Sampling Parameters
 3741.00                                 [l_ini (A)]
 7218.00                                 [l_fin (A)]
    1.00                                 [dl    (A)]     (OBS: dl_cushion =    50.00 A)

## Normalization info
 4020.00                                 [l_norm (A) - for base]
 4010.00                                 [llow_norm (A) - window for f_obs]
 4060.00                                 [lupp_norm (A) - window for f_obs]
1.134864E-17                             [fobs_norm (in input units)]

## S/N
 3691.00                                 [llow_SN (A) - window for S/N]
 7268.00                                 [lupp_SN (A) - window for S/N]
   4.605                                 [S/N in S/N window]
   3.994                                 [S/N in norm. window]
  11.673                                 [S/N_err in S/N window]
  10.124                                 [S/N_err in norm. window]
  1.0000                                 [fscale_chi2]

## etc...
    -2007434                             [idum_orig]
  2365                                   [NOl_eff]
  2247                                   [Nl_eff]
   118    NSIGMA                         [Ntot_cliped & clip_method]
   654500                                [Nglobal_steps]
   7                                     [N_chains]
  11                                     [NEX0s_base = N_base in EX0s-fits]
 0   0   1       28   2.0   4.111E+01    [Clip-Bug, RC-Crash & Burn-In warning-flags, n_censored_weights, wei_nsig_threshold & wei_limit]
    10      9.497      9.001      0.496  [idt_all, wdt_TotTime, wdt_UsrTime & wdt_SysTime (sec)]

## Synthesis Results - Best model ##

 8.32693E-01                             [chi2/Nl_eff]
     5.71628                             [adev (%)]

    95.00292                             [sum-of-x (%)]
 5.16414E-18                             [Flux_tot (units of input spectrum!)]
 7.35367E-13                             [Mini_tot (???)]
 3.67392E-13                             [Mcor_tot (???)]

 -95.21                                  [v0_min  (km/s)]
 247.44                                  [vd_min  (km/s)]
-0.5481                                  [AV_min  (mag)]
 0.0000                                  [YAV_min (mag)]

# j     x_j(%)      Mini_j(%)     Mcor_j(%)     age_j(yr)     Z_j      (L/M)_j    YAV?  Mstars   component_j        a/Fe...       SSP_chi2r SSP_adev(%)   SSP_AV   SSP_x(%)
  1      0.0000     0.0000E+00    0.0000E+00    1.000000E+06  0.00400  1.094E-02    0   1.0000   age020_m42            0.0000     4.9400E+00    12.6001   4.0000    71.0656
  2      0.0000     0.0000E+00    0.0000E+00    3.160000E+06  0.00400  4.007E-02    0   0.9999   age045_m42            0.0000     4.3403E+00    12.2602   3.3052    75.2541
  3      0.0000     0.0000E+00    0.0000E+00    5.010000E+06  0.00400  2.539E-02    0   0.9488   age055_m42            0.0000     4.6837E+00    12.7675   3.6536    72.3066
  4      0.0000     0.0000E+00    0.0000E+00    6.610000E+06  0.00400  2.620E-02    0   0.9220   age061_m42            0.0000     4.4679E+00    12.4053   3.2335    75.3009
  5      0.0000     0.0000E+00    0.0000E+00    1.000000E+07  0.00400  1.322E-02    0   0.8862   age070_m42            0.0000     5.2327E+00    13.5131   2.9428    76.8811
  6      0.0000     0.0000E+00    0.0000E+00    1.445000E+07  0.00400  7.883E-03    0   0.8571   age078_m42            0.0000     5.3213E+00    13.7027   3.2874    74.2914
  7      0.0000     0.0000E+00    0.0000E+00    2.512000E+07  0.00400  5.251E-03    0   0.8174   age090_m42            0.0000     5.3518E+00    13.6641   2.8064    77.4902
  8      0.0000     0.0000E+00    0.0000E+00    4.000000E+07  0.00400  3.649E-03    0   0.7851   age104_m42            0.0000     5.0796E+00    13.2673   2.5639    78.7949
  9      0.0000     0.0000E+00    0.0000E+00    5.500000E+07  0.00400  3.098E-03    0   0.7629   age110_m42            0.0000     4.7177E+00    12.6680   2.7169    78.9920
 10      0.0000     0.0000E+00    0.0000E+00    1.015200E+08  0.00400  2.228E-03    0   0.7207   age116_m42            0.0000     4.4849E+00    12.2473   2.7370    79.2705
 11      0.0000     0.0000E+00    0.0000E+00    2.861200E+08  0.00400  1.093E-03    0   0.6648   age125_m42            0.0000     4.4470E+00    12.3017   2.1331    83.0292
 12      0.0000     0.0000E+00    0.0000E+00    5.088000E+08  0.00400  6.597E-04    0   0.6365   age130_m42            0.0000     3.8844E+00    11.3962   2.1071    84.6105
 13      0.0000     0.0000E+00    0.0000E+00    1.434000E+09  0.00400  2.132E-04    0   0.5798   age139_m42            0.0000     2.7606E+00     9.6264   1.0679    89.4629
 14      0.0000     0.0000E+00    0.0000E+00    4.250000E+09  0.00400  5.895E-05    0   0.5377   age158_m42            0.0000     2.0217E+00     8.4033   0.6063    87.2258
 15      0.0000     0.0000E+00    0.0000E+00    7.500000E+09  0.00400  3.510E-05    0   0.5212   age171_m42            0.0000     1.7743E+00     7.8677   0.4053    87.3620
 16      0.0000     0.0000E+00    0.0000E+00    1.300000E+10  0.00400  2.005E-05    0   0.5034   age193_m42            0.0000     1.6056E+00     7.4766   0.2301    87.4608
 17      0.0000     0.0000E+00    0.0000E+00    1.800000E+10  0.00400  1.525E-05    0   0.4967   age213_m42            0.0000     1.6529E+00     7.5487   0.2114    86.8452
 18      0.0000     0.0000E+00    0.0000E+00    1.000000E+06  0.00800  1.238E-02    0   1.0000   age020_m52            0.0000     4.9331E+00    12.6104   4.0000    71.0928
 19      0.0000     0.0000E+00    0.0000E+00    3.160000E+06  0.00800  3.074E-02    0   0.9966   age045_m52            0.0000     4.8461E+00    13.0204   4.0000    69.3705
 20      0.0000     0.0000E+00    0.0000E+00    5.010000E+06  0.00800  2.668E-02    0   0.9443   age055_m52            0.0000     4.7582E+00    12.8920   3.7428    71.3921
 21      0.0000     0.0000E+00    0.0000E+00    6.610000E+06  0.00800  2.136E-02    0   0.9177   age061_m52            0.0000     4.6529E+00    12.8119   2.4131    79.0320
 22      0.0000     0.0000E+00    0.0000E+00    1.000000E+07  0.00800  1.215E-02    0   0.8827   age070_m52            0.0000     5.5246E+00    13.9916   3.1273    76.4057
 23      0.0000     0.0000E+00    0.0000E+00    1.445000E+07  0.00800  8.717E-03    0   0.8552   age078_m52            0.0000     5.2515E+00    13.5895   3.2468    75.5397
 24      0.0000     0.0000E+00    0.0000E+00    2.512000E+07  0.00800  5.592E-03    0   0.8162   age090_m52            0.0000     5.3140E+00    13.6113   2.8648    78.6118
 25      0.0000     0.0000E+00    0.0000E+00    4.000000E+07  0.00800  3.896E-03    0   0.7841   age104_m52            0.0000     5.0089E+00    13.1675   2.7649    79.8330
 26      0.0000     0.0000E+00    0.0000E+00    1.015200E+08  0.00800  2.148E-03    0   0.7226   age116_m52            0.0000     4.4935E+00    12.4034   2.6918    80.3728
 27      0.0000     0.0000E+00    0.0000E+00    2.861200E+08  0.00800  9.925E-04    0   0.6683   age125_m52            0.0000     3.8482E+00    11.3363   2.1701    85.5207
 28      8.8447     2.0815E-01    2.5572E-01    9.047900E+08  0.00800  3.141E-04    0   0.6138   age135_m52            0.0000     2.2509E+00     9.0427   1.2712    94.1183
 29      0.0000     0.0000E+00    0.0000E+00    1.434000E+09  0.00800  1.719E-04    0   0.5853   age139_m52            0.0000     2.0610E+00     8.6137   0.6945    92.0843
 30      0.0000     0.0000E+00    0.0000E+00    2.500000E+09  0.00800  7.872E-05    0   0.5600   age150_m52            0.0000     1.6079E+00     7.5373   0.4141    90.4106
 31      0.0000     0.0000E+00    0.0000E+00    4.250000E+09  0.00800  4.336E-05    0   0.5426   age158_m52            0.0000     1.5998E+00     7.5040   0.3963    89.6936
 32      0.0000     0.0000E+00    0.0000E+00    6.250000E+09  0.00800  3.159E-05    0   0.5319   age166_m52            0.0000     1.3342E+00     6.8626   0.1754    90.7164
 33      0.0000     0.0000E+00    0.0000E+00    1.300000E+10  0.00800  1.361E-05    0   0.5073   age193_m52            0.0000     1.0531E+00     6.1405  -0.3188    91.4960
 34     13.7931     1.0313E+01    1.0301E+01    1.800000E+10  0.00800  9.886E-06    0   0.4990   age213_m52            0.0000     9.2417E-01     5.8600  -0.4393    91.7894
 35      0.0000     0.0000E+00    0.0000E+00    1.000000E+06  0.02000  1.544E-02    0   1.0000   age020_m62            0.0000     4.9455E+00    12.6492   4.0000    71.1263
 36      0.0000     0.0000E+00    0.0000E+00    3.160000E+06  0.02000  3.762E-02    0   0.9858   age045_m62            0.0000     4.8918E+00    13.0012   4.0000    69.8593
 37      0.0000     0.0000E+00    0.0000E+00    5.010000E+06  0.02000  3.296E-02    0   0.9342   age055_m62            0.0000     4.5267E+00    12.4949   3.6090    73.4149
 38      0.0000     0.0000E+00    0.0000E+00    8.710000E+06  0.02000  1.154E-02    0   0.8861   age067_m62            0.0000     7.7182E+00    16.9452   2.5721    78.0193
 39      0.0000     0.0000E+00    0.0000E+00    1.445000E+07  0.02000  7.663E-03    0   0.8472   age078_m62            0.0000     5.9185E+00    14.6349   2.7575    78.6326
 40      0.0000     0.0000E+00    0.0000E+00    2.512000E+07  0.02000  4.532E-03    0   0.8099   age090_m62            0.0000     6.1340E+00    14.8844   2.7539    78.2113
 41      0.0000     0.0000E+00    0.0000E+00    5.500000E+07  0.02000  2.733E-03    0   0.7595   age110_m62            0.0000     5.0817E+00    13.2611   2.7561    78.9080
 42      0.0000     0.0000E+00    0.0000E+00    1.609000E+08  0.02000  1.369E-03    0   0.6985   age120_m62            0.0000     4.4400E+00    12.1281   2.5698    82.3732
 43      0.0000     0.0000E+00    0.0000E+00    2.861200E+08  0.02000  9.013E-04    0   0.6714   age125_m62            0.0000     3.9187E+00    11.2750   2.2838    86.3949
 44      0.0000     0.0000E+00    0.0000E+00    5.088000E+08  0.02000  5.028E-04    0   0.6449   age130_m62            0.0000     2.7449E+00     9.6707   1.8440    91.9054
 45      0.0000     0.0000E+00    0.0000E+00    9.047900E+08  0.02000  2.428E-04    0   0.6179   age135_m62            0.0000     1.9286E+00     8.3381   1.2145    93.6148
 46      0.0001     3.1926E-06    3.7753E-06    1.434000E+09  0.02000  1.263E-04    0   0.5908   age139_m62            0.0000     1.7035E+00     7.7214   0.7605    92.7779
 47      0.0000     0.0000E+00    0.0000E+00    2.500000E+09  0.02000  5.985E-05    0   0.5673   age150_m62            0.0000     1.4016E+00     6.9632   0.3827    92.2817
 48      0.0000     0.0000E+00    0.0000E+00    4.250000E+09  0.02000  3.271E-05    0   0.5468   age158_m62            0.0000     1.0848E+00     6.2068   0.0548    92.7893
 49      0.0000     0.0000E+00    0.0000E+00    1.000000E+10  0.02000  1.360E-05    0   0.5167   age181_m62            0.0000     8.7692E-01     5.7795  -0.3246    94.1303
 50     29.4485     3.0556E+01    3.0660E+01    1.800000E+10  0.02000  7.124E-06    0   0.5013   age213_m62            0.0000     8.5195E-01     5.8108  -0.5456    94.1371
 51      0.0000     0.0000E+00    0.0000E+00    1.000000E+06  0.05000  2.592E-02    0   0.9998   age020_m72            0.0000     5.0025E+00    12.7820   4.0000    70.8597
 52      0.0000     0.0000E+00    0.0000E+00    3.160000E+06  0.05000  4.845E-02    0   0.9577   age045_m72            0.0000     4.7270E+00    12.8480   3.8958    70.4657
 53      0.0000     0.0000E+00    0.0000E+00    5.010000E+06  0.05000  3.072E-02    0   0.9147   age055_m72            0.0000     5.5335E+00    14.2463   3.3792    74.6637
 54      0.0000     0.0000E+00    0.0000E+00    6.610000E+06  0.05000  1.455E-02    0   0.8877   age061_m72            0.0000     9.2243E+00    19.3241   2.6319    78.3671
 55      0.0000     0.0000E+00    0.0000E+00    1.000000E+07  0.05000  9.074E-03    0   0.8524   age070_m72            0.0000     5.7443E+00    14.6985   3.5816    74.1075
 56      0.0000     0.0000E+00    0.0000E+00    2.512000E+07  0.05000  4.250E-03    0   0.7902   age090_m72            0.0000     5.5590E+00    14.2351   3.2513    76.3571
 57      0.0000     0.0000E+00    0.0000E+00    4.000000E+07  0.05000  3.087E-03    0   0.7618   age104_m72            0.0000     5.6276E+00    14.2846   3.0108    78.0349
 58      0.0000     0.0000E+00    0.0000E+00    1.015200E+08  0.05000  1.700E-03    0   0.7096   age116_m72            0.0000     4.7656E+00    12.6887   2.7206    81.5959
 59      0.0000     0.0000E+00    0.0000E+00    2.861200E+08  0.05000  7.384E-04    0   0.6633   age125_m72            0.0000     3.3271E+00    10.4106   2.1204    89.1584
 60      0.0000     0.0000E+00    0.0000E+00    5.088000E+08  0.05000  3.819E-04    0   0.6372   age130_m72            0.0000     2.2577E+00     8.7615   1.5749    93.3576
 61      0.0000     0.0000E+00    0.0000E+00    9.047900E+08  0.05000  1.676E-04    0   0.6110   age135_m72            0.0000     1.5313E+00     7.2661   0.8477    93.5744
 62      0.0000     0.0000E+00    0.0000E+00    1.434000E+09  0.05000  8.837E-05    0   0.5874   age139_m72            0.0000     1.3074E+00     6.6936   0.3735    94.0831
 63      0.0000     0.0000E+00    0.0000E+00    2.500000E+09  0.05000  4.233E-05    0   0.5598   age150_m72            0.0000     9.9768E-01     6.0212   0.0453    94.0865
 64      0.0013     6.4670E-04    6.7945E-04    6.250000E+09  0.05000  1.435E-05    0   0.5249   age166_m72            0.0000     8.5175E-01     5.7297  -0.4214    93.8044
 65     22.3984     2.5421E+01    2.5624E+01    1.300000E+10  0.05000  6.513E-06    0   0.5036   age193_m72            0.0000     8.7684E-01     5.9119  -0.7116    95.4563
 66     20.5169     3.3501E+01    3.3159E+01    1.800000E+10  0.05000  4.527E-06    0   0.4945   age213_m72            0.0000     9.5889E-01     6.1852  -0.8715    95.4036


## Synthesis Results - Average & Chains ##

# j      x_j: min, <> & last-chain-values for 1 ...  7 chains
  1      0.0000      0.0124      0.0000      0.0000      0.0000      0.0000      0.0000      0.0838      0.0000
  2      0.0000      0.0070      0.0000      0.0000      0.0000      0.0000      0.0000      0.0000      0.0000
  3      0.0000      0.0055      0.0000      0.0000      0.0000      0.0000      0.0000      0.0000      0.0000
  4      0.0000      0.0167      0.0000      0.0000      0.0000      0.0000      0.0000      0.0000      0.0000
  5      0.0000      0.0081      0.0000      0.0000      0.0000      0.0000      0.0000      0.0000      0.0049
  6      0.0000      0.0044      0.0000      0.0000      0.0000      0.0000      0.0000      0.0000      0.0000
  7      0.0000      0.0235      0.0000      0.0000      0.0000      0.0000      0.0000      0.0000      0.0000
  8      0.0000      0.0254      0.0000      0.0000      0.0284      0.0000      0.0000      0.0454      0.0000
  9      0.0000      0.0286      0.0000      0.0000      0.0000      0.0000      0.0000      0.0000      0.0000
 10      0.0000      0.0385      0.0000      0.0000      0.0000      0.0000      0.0000      0.0000      0.0000
 11      0.0000      0.0412      0.3255      0.0000      0.0000      0.0000      0.0000      0.0000      0.0000
 12      0.0000      0.0938      0.0000      0.0000      0.1986      0.0196      0.0000      0.0000      0.0000
 13      0.0000      0.3508      0.9750      0.0826      0.0000      0.6601      0.0000      0.0968      0.3417
 14      0.0000      0.1457      0.0000      0.0000      0.2463      0.6826      0.0000      0.0000      0.0000
 15      0.0000      0.3725      0.0000      0.0000      0.0000      0.0000      0.9585      0.0000      0.0000
 16      0.0000      0.3622      0.0000      0.0000      0.0000      0.6610      0.0000      0.0000      0.0000
 17      0.0000      0.4802      0.0000      0.0000      0.4269      1.1870      0.3689      0.1020      0.0000
 18      0.0000      0.0016      0.0000      0.0000      0.0000      0.0000      0.0000      0.0000      0.0000
 19      0.0000      0.0098      0.0000      0.0000      0.0000      0.0000      0.0000      0.0000      0.0000
 20      0.0000      0.0062      0.0000      0.0000      0.0000      0.0000      0.0000      0.0000      0.0000
 21      0.0000      0.0218      0.0000      0.0000      0.0000      0.0000      0.0000      0.0000      0.0000
 22      0.0000      0.0099      0.0000      0.0000      0.0000      0.0000      0.0000      0.0000      0.0000
 23      0.0000      0.0077      0.0000      0.0000      0.0000      0.0000      0.0000      0.0000      0.0000
 24      0.0000      0.0139      0.0000      0.0000      0.0000      0.0000      0.0000      0.0000      0.0000
 25      0.0000      0.0125      0.0000      0.0000      0.0000      0.0000      0.0000      0.0000      0.0000
 26      0.0000      0.0325      0.0000      0.0000      0.0000      0.0000      0.0000      0.0000      0.0000
 27      0.0000      0.0947      0.0025      0.0000      0.0000      0.0000      0.0000      0.0000      0.2270
 28      8.8447      0.3907      0.0000      0.0000      2.4517      0.4285      0.9785      0.8156      2.0736
 29      0.0000      0.2346      0.3744      0.4527      0.0000      0.7092      1.1803      0.0000      0.5057
 30      0.0000      0.6582      0.0000      0.0000      0.0000      0.0000      0.0000      0.0000      0.5877
 31      0.0000      0.4242      0.2977      0.0000      0.4183      0.0000      0.0000      0.0000      0.0000
 32      0.0000      0.6769      0.0000      0.0000      0.0000      0.0000      0.0000      2.0352      0.0000
 33      0.0000      0.9181      0.0000      1.8588      0.0000      0.0000      0.7848      0.0000      0.9887
 34     13.7931      2.3125      3.8683      0.0000      1.3293      0.9926      0.6640      2.8139      1.9352
 35      0.0000      0.0078      0.0000      0.0000      0.0000      0.0000      0.0000      0.0000      0.0000
 36      0.0000      0.0058      0.0000      0.0000      0.0000      0.0000      0.0000      0.0000      0.0000
 37      0.0000      0.0036      0.0840      0.0000      0.0000      0.0000      0.0000      0.0000      0.0000
 38      0.0000      0.0082      0.0000      0.0000      0.0000      0.0000      0.0000      0.0000      0.0000
 39      0.0000      0.0179      0.0000      0.0000      0.0000      0.0000      0.0000      0.0000      0.0000
 40      0.0000      0.0134      0.0000      0.0000      0.0000      0.0000      0.0000      0.0000      0.0000
 41      0.0000      0.0201      0.0000      0.0000      0.0000      0.0000      0.0000      0.1022      0.0000
 42      0.0000      0.0283      0.0000      0.0000      0.0000      0.0000      0.0000      0.0000      0.0000
 43      0.0000      0.0859      0.0000      0.0000      0.0000      0.0000      0.0000      0.0000      0.0000
 44      0.0000      0.7937      0.7927      0.6179      0.1833      0.4568      1.0037      0.2690      1.5795
 45      0.0000      0.6429      0.3583      2.4333      0.0000      0.8463      2.4178      0.0000      0.9444
 46      0.0001      0.5814      0.0000      0.0000      0.7765      1.5159      1.8510      1.4416      0.0000
