###################################################################
## OUTPUT of StarlightChains_v04.for    [Cid@UFSC - 01/Apr/2007] ##
###################################################################

## Some input info
2016aqw.txt                              [arq_obs]
Base.CB07.vall.4m                        [arq_base]
Masks.EmLines.NEW.gm                     [arq_masks]
StCv04.C11.config                        [arq_config]
   66                                    [N_base]
    0                                    [N_YAV_components = # of components with extra extinction!]
    0                                    [i_FitPowerLaw (1/0 = Yes/No)]
-9.99                                    [alpha_PowerLaw]
CCM                                      [red_law_option]
 1.458241                                [q_norm = A(l_norm)/A(V)]

## (Re)Sampling Parameters
 3741.00                                 [l_ini (A)]
 7218.00                                 [l_fin (A)]
    1.00                                 [dl    (A)]     (OBS: dl_cushion =    50.00 A)

## Normalization info
 4020.00                                 [l_norm (A) - for base]
 4010.00                                 [llow_norm (A) - window for f_obs]
 4060.00                                 [lupp_norm (A) - window for f_obs]
2.928585E-17                             [fobs_norm (in input units)]

## S/N
 3691.00                                 [llow_SN (A) - window for S/N]
 7268.00                                 [lupp_SN (A) - window for S/N]
   4.300                                 [S/N in S/N window]
   3.113                                 [S/N in norm. window]
  10.835                                 [S/N_err in S/N window]
   7.844                                 [S/N_err in norm. window]
  1.0000                                 [fscale_chi2]

## etc...
    -2007428                             [idum_orig]
  2384                                   [NOl_eff]
  2382                                   [Nl_eff]
     2    NSIGMA                         [Ntot_cliped & clip_method]
  1088640                                [Nglobal_steps]
   7                                     [N_chains]
  18                                     [NEX0s_base = N_base in EX0s-fits]
 0   0   1       31   2.0   1.247E+01    [Clip-Bug, RC-Crash & Burn-In warning-flags, n_censored_weights, wei_nsig_threshold & wei_limit]
    14     14.478     13.983      0.495  [idt_all, wdt_TotTime, wdt_UsrTime & wdt_SysTime (sec)]

## Synthesis Results - Best model ##

 3.94170E-01                             [chi2/Nl_eff]
     6.49834                             [adev (%)]

   111.79522                             [sum-of-x (%)]
 5.99974E-17                             [Flux_tot (units of input spectrum!)]
 2.23292E-12                             [Mini_tot (???)]
 1.15345E-12                             [Mcor_tot (???)]

 229.34                                  [v0_min  (km/s)]
 152.61                                  [vd_min  (km/s)]
 0.4510                                  [AV_min  (mag)]
 0.0000                                  [YAV_min (mag)]

# j     x_j(%)      Mini_j(%)     Mcor_j(%)     age_j(yr)     Z_j      (L/M)_j    YAV?  Mstars   component_j        a/Fe...       SSP_chi2r SSP_adev(%)   SSP_AV   SSP_x(%)
  1      0.0000     0.0000E+00    0.0000E+00    1.000000E+06  0.00400  1.094E-02    0   1.0000   age020_m42            0.0000     1.0849E+00    13.1467   3.8747    94.3103
  2      0.0000     0.0000E+00    0.0000E+00    3.160000E+06  0.00400  4.007E-02    0   0.9999   age045_m42            0.0000     9.5812E-01    11.6059   3.1504   100.7868
  3      0.0000     0.0000E+00    0.0000E+00    5.010000E+06  0.00400  2.539E-02    0   0.9488   age055_m42            0.0000     1.0063E+00    12.2580   3.4664    98.4594
  4      0.0000     0.0000E+00    0.0000E+00    6.610000E+06  0.00400  2.620E-02    0   0.9220   age061_m42            0.0000     9.4370E-01    11.5065   3.0682   101.4184
  5      0.0000     0.0000E+00    0.0000E+00    1.000000E+07  0.00400  1.322E-02    0   0.8862   age070_m42            0.0000     9.6892E-01    12.4897   2.7302   106.1622
  6      0.0000     0.0000E+00    0.0000E+00    1.445000E+07  0.00400  7.883E-03    0   0.8571   age078_m42            0.0000     1.0048E+00    12.7941   3.0634   103.1855
  7      0.0000     0.0000E+00    0.0000E+00    2.512000E+07  0.00400  5.251E-03    0   0.8174   age090_m42            0.0000     9.8199E-01    12.6127   2.5899   107.2276
  8      0.0000     0.0000E+00    0.0000E+00    4.000000E+07  0.00400  3.649E-03    0   0.7851   age104_m42            0.0000     9.3435E-01    12.1685   2.3665   107.9602
  9      0.0000     0.0000E+00    0.0000E+00    5.500000E+07  0.00400  3.098E-03    0   0.7629   age110_m42            0.0000     9.0146E-01    11.4292   2.5461   106.7611
 10      0.0000     0.0000E+00    0.0000E+00    1.015200E+08  0.00400  2.228E-03    0   0.7207   age116_m42            0.0000     8.7836E-01    10.8760   2.5831   106.1951
 11      0.0000     0.0000E+00    0.0000E+00    2.861200E+08  0.00400  1.093E-03    0   0.6648   age125_m42            0.0000     9.0187E-01    10.9891   1.9911   110.6982
 12      0.0000     0.0000E+00    0.0000E+00    5.088000E+08  0.00400  6.597E-04    0   0.6365   age130_m42            0.0000     8.0974E-01    10.0165   2.0066   110.3883
 13      9.5591     1.0776E+00    1.2095E+00    1.434000E+09  0.00400  2.132E-04    0   0.5798   age139_m42            0.0000     5.7271E-01     8.5418   1.0400   112.4188
 14      0.0000     0.0000E+00    0.0000E+00    4.250000E+09  0.00400  5.895E-05    0   0.5377   age158_m42            0.0000     4.9210E-01     7.9739   0.6307   106.8030
 15      0.0000     0.0000E+00    0.0000E+00    7.500000E+09  0.00400  3.510E-05    0   0.5212   age171_m42            0.0000     4.7427E-01     7.6688   0.4567   105.5705
 16      0.0000     0.0000E+00    0.0000E+00    1.300000E+10  0.00400  2.005E-05    0   0.5034   age193_m42            0.0000     4.7341E-01     7.5365   0.3046   104.5395
 17      0.0000     0.0000E+00    0.0000E+00    1.800000E+10  0.00400  1.525E-05    0   0.4967   age213_m42            0.0000     4.7399E-01     7.6109   0.2775   104.2401
 18      0.0000     0.0000E+00    0.0000E+00    1.000000E+06  0.00800  1.238E-02    0   1.0000   age020_m52            0.0000     1.0841E+00    13.1430   3.8717    94.4616
 19      0.0000     0.0000E+00    0.0000E+00    3.160000E+06  0.00800  3.074E-02    0   0.9966   age045_m52            0.0000     1.0695E+00    12.9724   3.7953    95.2800
 20      0.0000     0.0000E+00    0.0000E+00    5.010000E+06  0.00800  2.668E-02    0   0.9443   age055_m52            0.0000     1.0073E+00    12.4147   3.5455    97.7085
 21      0.0000     0.0000E+00    0.0000E+00    6.610000E+06  0.00800  2.136E-02    0   0.9177   age061_m52            0.0000     8.5818E-01    12.1519   2.2291   107.4632
 22      0.0000     0.0000E+00    0.0000E+00    1.000000E+07  0.00800  1.215E-02    0   0.8827   age070_m52            0.0000     1.0100E+00    13.0779   2.8936   106.6926
 23      0.0000     0.0000E+00    0.0000E+00    1.445000E+07  0.00800  8.717E-03    0   0.8552   age078_m52            0.0000     9.7305E-01    12.6262   3.0261   104.7280
 24      0.0000     0.0000E+00    0.0000E+00    2.512000E+07  0.00800  5.592E-03    0   0.8162   age090_m52            0.0000     9.5744E-01    12.5231   2.6497   108.7159
 25      0.0000     0.0000E+00    0.0000E+00    4.000000E+07  0.00800  3.896E-03    0   0.7841   age104_m52            0.0000     9.2124E-01    11.9732   2.5735   109.0668
 26      0.0000     0.0000E+00    0.0000E+00    1.015200E+08  0.00800  2.148E-03    0   0.7226   age116_m52            0.0000     8.6517E-01    11.0645   2.5365   107.7395
 27      0.5099     1.2349E-02    1.5976E-02    2.861200E+08  0.00800  9.925E-04    0   0.6683   age125_m52            0.0000     7.7108E-01     9.7830   2.0701   111.4642
 28      9.1231     6.9809E-01    8.2949E-01    9.047900E+08  0.00800  3.141E-04    0   0.6138   age135_m52            0.0000     5.6220E-01     7.9234   1.2963   115.0767
 29      0.0000     0.0000E+00    0.0000E+00    1.434000E+09  0.00800  1.719E-04    0   0.5853   age139_m52            0.0000     4.9747E-01     7.8632   0.7165   112.8966
 30      0.0000     0.0000E+00    0.0000E+00    2.500000E+09  0.00800  7.872E-05    0   0.5600   age150_m52            0.0000     4.3928E-01     7.1570   0.4836   108.2644
 31      0.0000     0.0000E+00    0.0000E+00    4.250000E+09  0.00800  4.336E-05    0   0.5426   age158_m52            0.0000     4.4570E-01     7.2074   0.4689   107.2355
 32      0.0000     0.0000E+00    0.0000E+00    6.250000E+09  0.00800  3.159E-05    0   0.5319   age166_m52            0.0000     4.4030E-01     6.8776   0.2870   106.4049
 33      0.0050     8.8635E-03    8.7045E-03    1.300000E+10  0.00800  1.361E-05    0   0.5073   age193_m52            0.0000     4.4999E-01     6.7938  -0.1571   104.7330
 34      0.0000     0.0000E+00    0.0000E+00    1.800000E+10  0.00800  9.886E-06    0   0.4990   age213_m52            0.0000     4.8677E-01     6.9725  -0.2420   103.2845
 35      0.0000     0.0000E+00    0.0000E+00    1.000000E+06  0.02000  1.544E-02    0   1.0000   age020_m62            0.0000     1.0887E+00    13.1863   3.8670    94.7160
 36      0.0000     0.0000E+00    0.0000E+00    3.160000E+06  0.02000  3.762E-02    0   0.9858   age045_m62            0.0000     1.0880E+00    13.1137   3.8086    95.4471
 37      0.0000     0.0000E+00    0.0000E+00    5.010000E+06  0.02000  3.296E-02    0   0.9342   age055_m62            0.0000     9.7393E-01    11.7994   3.4331    99.3941
 38      0.0000     0.0000E+00    0.0000E+00    8.710000E+06  0.02000  1.154E-02    0   0.8861   age067_m62            0.0000     1.4427E+00    16.6887   2.2418   114.8247
 39      0.0000     0.0000E+00    0.0000E+00    1.445000E+07  0.02000  7.663E-03    0   0.8472   age078_m62            0.0000     1.0855E+00    13.9455   2.5063   110.8808
 40      0.0000     0.0000E+00    0.0000E+00    2.512000E+07  0.02000  4.532E-03    0   0.8099   age090_m62            0.0000     1.1296E+00    14.0563   2.4944   110.7986
 41      0.0000     0.0000E+00    0.0000E+00    5.500000E+07  0.02000  2.733E-03    0   0.7595   age110_m62            0.0000     9.0755E-01    12.0009   2.5543   108.3786
 42      0.0000     0.0000E+00    0.0000E+00    1.609000E+08  0.02000  1.369E-03    0   0.6985   age120_m62            0.0000     8.3400E-01    10.5030   2.4227   109.9758
 43      0.0000     0.0000E+00    0.0000E+00    2.861200E+08  0.02000  9.013E-04    0   0.6714   age125_m62            0.0000     7.6310E-01     9.5521   2.1833   112.6065
 44      3.7881     1.8108E-01    2.2606E-01    5.088000E+08  0.02000  5.028E-04    0   0.6449   age130_m62            0.0000     6.4502E-01     8.2951   1.8389   114.0903
 45      0.0000     0.0000E+00    0.0000E+00    9.047900E+08  0.02000  2.428E-04    0   0.6179   age135_m62            0.0000     4.9212E-01     7.3639   1.2647   113.0478
 46      0.0298     5.6802E-03    6.4965E-03    1.434000E+09  0.02000  1.263E-04    0   0.5908   age139_m62            0.0000     4.3390E-01     7.0440   0.8257   111.2584
 47      0.0000     0.0000E+00    0.0000E+00    2.500000E+09  0.02000  5.985E-05    0   0.5673   age150_m62            0.0000     4.2762E-01     6.7642   0.4876   108.5673
 48      0.0000     0.0000E+00    0.0000E+00    4.250000E+09  0.02000  3.271E-05    0   0.5468   age158_m62            0.0000     4.4824E-01     6.7010   0.2135   106.3316
 49      2.7775     4.9085E+00    4.9097E+00    1.000000E+10  0.02000  1.360E-05    0   0.5167   age181_m62            0.0000     5.0803E-01     7.0349  -0.1032   104.6481
 50      3.3909     1.1440E+01    1.1102E+01    1.800000E+10  0.02000  7.124E-06    0   0.5013   age213_m62            0.0000     5.8907E-01     7.5797  -0.2836   102.6540
 51      0.0000     0.0000E+00    0.0000E+00    1.000000E+06  0.05000  2.592E-02    0   0.9998   age020_m72            0.0000     1.1004E+00    13.3484   3.8566    94.8095
 52      0.0000     0.0000E+00    0.0000E+00    3.160000E+06  0.05000  4.845E-02    0   0.9577   age045_m72            0.0000     1.0482E+00    12.5477   3.6967    96.5073
 53      0.0000     0.0000E+00    0.0000E+00    5.010000E+06  0.05000  3.072E-02    0   0.9147   age055_m72            0.0000     1.0963E+00    13.6482   3.1379   104.7216
 54      0.0000     0.0000E+00    0.0000E+00    6.610000E+06  0.05000  1.455E-02    0   0.8877   age061_m72            0.0000     2.3766E+00    19.7075   2.2638   117.9623
 55      0.0000     0.0000E+00    0.0000E+00    1.000000E+07  0.05000  9.074E-03    0   0.8524   age070_m72            0.0000     1.3084E+00    14.2225   3.3363   104.1986
 56      0.0000     0.0000E+00    0.0000E+00    2.512000E+07  0.05000  4.250E-03    0   0.7902   age090_m72            0.0000     1.1548E+00    13.3168   3.0221   106.4690
 57      0.0000     0.0000E+00    0.0000E+00    4.000000E+07  0.05000  3.087E-03    0   0.7618   age104_m72            0.0000     1.1721E+00    13.2403   2.7827   108.7729
 58      0.0000     0.0000E+00    0.0000E+00    1.015200E+08  0.05000  1.700E-03    0   0.7096   age116_m72            0.0000     9.0027E-01    11.1150   2.5506   110.2450
 59      0.0000     0.0000E+00    0.0000E+00    2.861200E+08  0.05000  7.384E-04    0   0.6633   age125_m72            0.0000     6.7518E-01     8.7499   2.0664   113.4768
 60     15.0082     9.4453E-01    1.1651E+00    5.088000E+08  0.05000  3.819E-04    0   0.6372   age130_m72            0.0000     5.1905E-01     7.5360   1.6001   114.1365
 61      7.3229     1.0501E+00    1.2421E+00    9.047900E+08  0.05000  1.676E-04    0   0.6110   age135_m72            0.0000     4.3968E-01     6.7170   0.9418   110.5964
 62     39.9474     1.0865E+01    1.2355E+01    1.434000E+09  0.05000  8.837E-05    0   0.5874   age139_m72            0.0000     4.1063E-01     6.5418   0.4892   110.0761
 63      0.0067     3.8165E-03    4.1359E-03    2.500000E+09  0.05000  4.233E-05    0   0.5598   age150_m72            0.0000     4.5940E-01     6.7562   0.2221   106.8775
 64     10.7621     1.8025E+01    1.8316E+01    6.250000E+09  0.05000  1.435E-05    0   0.5249   age166_m72            0.0000     5.3996E-01     7.2670  -0.1898   103.8007
 65      0.0000     0.0000E+00    0.0000E+00    1.300000E+10  0.05000  6.513E-06    0   0.5036   age193_m72            0.0000     6.6563E-01     8.0197  -0.4325   103.2942
 66      9.5645     5.0780E+01    4.8610E+01    1.800000E+10  0.05000  4.527E-06    0   0.4945   age213_m72            0.0000     7.6410E-01     8.5625  -0.5688   102.1015


## Synthesis Results - Average & Chains ##

# j      x_j: min, <> & last-chain-values for 1 ...  7 chains
  1      0.0000      0.1220      0.1797      0.0000      0.0000      0.0000      0.4897      0.0000      0.0000
  2      0.0000      0.0564      0.7203      0.0000      0.6243      0.2750      0.0000      0.0000      0.0000
  3      0.0000      0.0715      0.0000      0.0000      0.0000      0.0000      0.0000      0.0000      0.0000
  4      0.0000      0.0710      0.0000      0.0000      0.0000      1.1852      0.0927      0.0000      0.0000
  5      0.0000      0.1164      0.0000      0.0000      0.0000      0.0000      0.0000      0.0000      0.0000
  6      0.0000      0.0823      0.0000      0.0000      0.0982      0.0000      0.0000      0.0000      0.0000
  7      0.0000      0.1587      0.0000      0.8431      0.0000      0.0400      0.0000      0.0000      0.0000
  8      0.0000      0.2622      0.0000      0.1139      0.3675      0.0000      0.0000      0.0000      0.0077
  9      0.0000      0.3911      0.0000      1.3738      0.0000      0.0000      0.2402      0.0000      2.0688
 10      0.0000      0.2986      1.1811      0.0000      0.0000      0.0000      0.0794      0.0000      0.0000
 11      0.0000      0.2859      0.0000      0.0000      0.0000      1.8799      0.0000      0.0000      0.0000
 12      0.0000      0.3993      0.0000      0.0000      0.0000      0.0000      0.0000      0.0000      0.0000
 13      9.5591      4.3306      9.9465      9.9798      6.4388      1.6622      8.7737      6.6173      3.7775
 14      0.0000      1.2514      0.0000      0.0000      0.0000      0.1185      0.0610      0.0000      0.7198
 15      0.0000      0.7811      0.0000      0.0000      0.0000      0.0000      0.7372      0.0000      0.0891
 16      0.0000      0.5115      0.0000      0.0000      0.0000      0.0000      0.0000      0.0000      1.6505
 17      0.0000      0.6056      0.0000      0.0000      0.0000      0.0000      0.0000      0.0000      0.0000
 18      0.0000      0.1534      0.0000      0.0000      0.0000      0.0000      0.0000      0.0000      0.0000
 19      0.0000      0.0375      0.0000      0.0201      0.0000      0.0000      0.5150      0.0000      0.0000
 20      0.0000      0.0715      0.0000      0.0000      0.0000      0.0000      0.0000      0.0000      0.0000
 21      0.0000      0.0951      0.0000      0.0000      0.0000      0.0000      0.0000      0.0000      0.0772
 22      0.0000      0.1185      0.2598      0.0000      1.0983      0.0000      0.0000      0.0000      0.0000
 23      0.0000      0.1842      0.1567      0.0210      0.0000      0.0000      0.0000      0.0000      0.0000
 24      0.0000      0.1082      0.0000      0.0000      0.0000      0.0000      0.0000      0.0000      0.0000
 25      0.0000      0.1262      0.0000      0.5138      0.0000      0.0000      0.0000      0.0000      0.0000
 26      0.0000      0.1646      0.0000      0.0000      0.0000      0.0000      0.0000      0.0000      0.0000
 27      0.5099      0.3819      0.0000      0.0000      1.4539      0.0000      0.2980      1.3089      0.0000
 28      9.1231      1.7015      2.5151      4.2164      4.6301      3.4440      0.0000      3.8021      7.7230
 29      0.0000      2.8763      1.7769      0.0000      0.0000      3.1680      5.4002      0.6830      0.1808
 30      0.0000      1.7806      0.0000      0.0000      0.0000      2.4075      0.9798      0.0000      0.0000
 31      0.0000      1.6061      0.0000      0.0000      0.0000      0.4732      0.0000      0.0000      0.0000
 32      0.0000      0.8904      0.0000      0.0000      0.0000      0.0000      0.6304      0.0149      1.0566
 33      0.0050      1.0663      0.0000      0.0000      2.2703      1.6382      0.0000      0.4423      0.0000
 34      0.0000      0.1761      0.0000      0.0000      0.9488      0.0000      0.0000      0.0000      0.3108
 35      0.0000      0.1537      0.0000      0.0000      0.0000      0.0000      0.0000      1.2750      0.0000
 36      0.0000      0.0587      0.0000      0.0835      0.0000      0.0000      0.0000      0.0000      0.0000
 37      0.0000      0.1268      0.0000      0.0000      0.0000      0.0000      0.0000      0.0000      0.0000
 38      0.0000      0.0998      0.0000      0.0000      0.0000      0.0941      0.0000      0.0332      0.0000
 39      0.0000      0.2001      0.0000      0.0000      1.3527      0.0000      0.0000      0.0000      0.2528
 40      0.0000      0.1513      0.0000      0.2978      0.0000      0.0000      0.4625      0.0000      0.5906
 41      0.0000      0.1882      0.1317      0.0000      0.0000      0.0000      0.0000      0.0000      0.0000
 42      0.0000      0.1596      0.0000      0.0000      1.1573      1.0264      0.0000      0.3418      0.0000
 43      0.0000      0.2813      0.0000      0.6402      0.0000      0.0000      1.8624      0.0000      1.5919
 44      3.7881      1.3680      0.6495      0.0000      3.2470      3.1085      0.0748      1.9559      2.4434
 45      0.0000      3.1597      3.1829      3.7438      0.3205      1.4261      2.6539      4.6768      4.6568
 46      0.0298      5.8849      9.5435      5.9875      8.9697      8.3895      7.9558      6.0195      6.4221
