###################################################################
## OUTPUT of StarlightChains_v04.for    [Cid@UFSC - 01/Apr/2007] ##
###################################################################

## Some input info
2016itd.txt                              [arq_obs]
Base.CB07.vall.4m                        [arq_base]
Masks.EmLines.NEW.gm                     [arq_masks]
StCv04.C11.config                        [arq_config]
   66                                    [N_base]
    0                                    [N_YAV_components = # of components with extra extinction!]
    0                                    [i_FitPowerLaw (1/0 = Yes/No)]
-9.99                                    [alpha_PowerLaw]
CCM                                      [red_law_option]
 1.458241                                [q_norm = A(l_norm)/A(V)]

## (Re)Sampling Parameters
 3741.00                                 [l_ini (A)]
 7218.00                                 [l_fin (A)]
    1.00                                 [dl    (A)]     (OBS: dl_cushion =    50.00 A)

## Normalization info
 4020.00                                 [l_norm (A) - for base]
 4010.00                                 [llow_norm (A) - window for f_obs]
 4060.00                                 [lupp_norm (A) - window for f_obs]
7.396159E-17                             [fobs_norm (in input units)]

## S/N
 3691.00                                 [llow_SN (A) - window for S/N]
 7268.00                                 [lupp_SN (A) - window for S/N]
   4.049                                 [S/N in S/N window]
   2.903                                 [S/N in norm. window]
  18.019                                 [S/N_err in S/N window]
  12.922                                 [S/N_err in norm. window]
  1.0000                                 [fscale_chi2]

## etc...
    -2007437                             [idum_orig]
  2385                                   [NOl_eff]
  2311                                   [Nl_eff]
    74    NSIGMA                         [Ntot_cliped & clip_method]
  1777930                                [Nglobal_steps]
   7                                     [N_chains]
  28                                     [NEX0s_base = N_base in EX0s-fits]
 0   0   1       20   2.0   2.937E+01    [Clip-Bug, RC-Crash & Burn-In warning-flags, n_censored_weights, wei_nsig_threshold & wei_limit]
    20     19.588     19.092      0.497  [idt_all, wdt_TotTime, wdt_UsrTime & wdt_SysTime (sec)]

## Synthesis Results - Best model ##

 8.39328E-01                             [chi2/Nl_eff]
     4.70802                             [adev (%)]

    96.26553                             [sum-of-x (%)]
 3.20960E-16                             [Flux_tot (units of input spectrum!)]
 9.58211E-12                             [Mini_tot (???)]
 4.88770E-12                             [Mcor_tot (???)]

 -13.70                                  [v0_min  (km/s)]
 173.31                                  [vd_min  (km/s)]
 1.1212                                  [AV_min  (mag)]
 0.0000                                  [YAV_min (mag)]

# j     x_j(%)      Mini_j(%)     Mcor_j(%)     age_j(yr)     Z_j      (L/M)_j    YAV?  Mstars   component_j        a/Fe...       SSP_chi2r SSP_adev(%)   SSP_AV   SSP_x(%)
  1      0.0348     1.1059E-04    2.1681E-04    1.000000E+06  0.00400  1.094E-02    0   1.0000   age020_m42            0.0000     4.1755E+00     8.4360   4.0000    89.9798
  2      0.0000     0.0000E+00    0.0000E+00    3.160000E+06  0.00400  4.007E-02    0   0.9999   age045_m42            0.0000     2.2009E+00     7.3784   3.6287    82.1040
  3      0.0000     0.0000E+00    0.0000E+00    5.010000E+06  0.00400  2.539E-02    0   0.9488   age055_m42            0.0000     2.4199E+00     7.7889   3.9630    79.4558
  4      0.0000     0.0000E+00    0.0000E+00    6.610000E+06  0.00400  2.620E-02    0   0.9220   age061_m42            0.0000     2.1335E+00     7.2101   3.5455    82.6885
  5      0.0000     0.0000E+00    0.0000E+00    1.000000E+07  0.00400  1.322E-02    0   0.8862   age070_m42            0.0000     1.9666E+00     6.7242   3.1988    87.1207
  6      0.0000     0.0000E+00    0.0000E+00    1.445000E+07  0.00400  7.883E-03    0   0.8571   age078_m42            0.0000     2.1600E+00     7.1405   3.5469    84.0224
  7      0.0006     3.6748E-06    5.8888E-06    2.512000E+07  0.00400  5.251E-03    0   0.8174   age090_m42            0.0000     1.9394E+00     6.6042   3.0539    88.2453
  8      0.0000     0.0000E+00    0.0000E+00    4.000000E+07  0.00400  3.649E-03    0   0.7851   age104_m42            0.0000     1.7900E+00     6.3642   2.8233    89.1506
  9      0.0000     0.0000E+00    0.0000E+00    5.500000E+07  0.00400  3.098E-03    0   0.7629   age110_m42            0.0000     1.7948E+00     6.4045   3.0013    88.1627
 10      0.0019     2.9927E-05    4.2284E-05    1.015200E+08  0.00400  2.228E-03    0   0.7207   age116_m42            0.0000     1.8069E+00     6.4251   3.0356    87.7657
 11      0.0000     0.0000E+00    0.0000E+00    2.861200E+08  0.00400  1.093E-03    0   0.6648   age125_m42            0.0000     1.6270E+00     6.0798   2.4309    92.2248
 12      0.0000     0.0000E+00    0.0000E+00    5.088000E+08  0.00400  6.597E-04    0   0.6365   age130_m42            0.0000     1.5283E+00     5.9727   2.4419    92.0685
 13      0.0000     0.0000E+00    0.0000E+00    1.434000E+09  0.00400  2.132E-04    0   0.5798   age139_m42            0.0000     9.6372E-01     4.8740   1.4524    94.6994
 14      0.0000     0.0000E+00    0.0000E+00    4.250000E+09  0.00400  5.895E-05    0   0.5377   age158_m42            0.0000     1.0782E+00     5.3231   1.0620    88.8764
 15      0.0000     0.0000E+00    0.0000E+00    7.500000E+09  0.00400  3.510E-05    0   0.5212   age171_m42            0.0000     1.1765E+00     5.6190   0.8943    87.5193
 16      0.0000     0.0000E+00    0.0000E+00    1.300000E+10  0.00400  2.005E-05    0   0.5034   age193_m42            0.0000     1.3110E+00     6.0043   0.7503    86.2656
 17      0.0000     0.0000E+00    0.0000E+00    1.800000E+10  0.00400  1.525E-05    0   0.4967   age213_m42            0.0000     1.2936E+00     5.9371   0.7221    86.0672
 18      0.0000     0.0000E+00    0.0000E+00    1.000000E+06  0.00800  1.238E-02    0   1.0000   age020_m52            0.0000     4.1398E+00     8.4221   4.0000    90.0071
 19      0.0000     0.0000E+00    0.0000E+00    3.160000E+06  0.00800  3.074E-02    0   0.9966   age045_m52            0.0000     3.5699E+00     8.0779   4.0000    87.7560
 20      0.0000     0.0000E+00    0.0000E+00    5.010000E+06  0.00800  2.668E-02    0   0.9443   age055_m52            0.0000     2.4530E+00     7.6628   4.0000    80.3976
 21      0.0000     0.0000E+00    0.0000E+00    6.610000E+06  0.00800  2.136E-02    0   0.9177   age061_m52            0.0000     1.6627E+00     6.3458   2.6977    88.1162
 22      0.7753     2.2203E-03    3.8422E-03    1.000000E+07  0.00800  1.215E-02    0   0.8827   age070_m52            0.0000     2.0396E+00     6.8600   3.3687    87.3504
 23      0.0095     3.7754E-05    6.3298E-05    1.445000E+07  0.00800  8.717E-03    0   0.8552   age078_m52            0.0000     2.0377E+00     6.9185   3.5026    85.5956
 24      0.0000     0.0000E+00    0.0000E+00    2.512000E+07  0.00800  5.592E-03    0   0.8162   age090_m52            0.0000     1.8472E+00     6.4560   3.1102    89.6762
 25      0.0000     0.0000E+00    0.0000E+00    4.000000E+07  0.00800  3.896E-03    0   0.7841   age104_m52            0.0000     1.7314E+00     6.2852   3.0261    90.3005
 26      1.8002     2.9162E-02    4.1311E-02    1.015200E+08  0.00800  2.148E-03    0   0.7226   age116_m52            0.0000     1.6431E+00     6.2082   2.9841    89.3350
 27      0.0000     0.0000E+00    0.0000E+00    2.861200E+08  0.00800  9.925E-04    0   0.6683   age125_m52            0.0000     1.4286E+00     5.7887   2.5018    93.1498
 28     22.6861     2.5131E+00    3.0241E+00    9.047900E+08  0.00800  3.141E-04    0   0.6138   age135_m52            0.0000     9.9291E-01     5.0341   1.7051    97.1451
 29      0.0000     0.0000E+00    0.0000E+00    1.434000E+09  0.00800  1.719E-04    0   0.5853   age139_m52            0.0000     9.7218E-01     5.0509   1.1368    94.6260
 30      0.0000     0.0000E+00    0.0000E+00    2.500000E+09  0.00800  7.872E-05    0   0.5600   age150_m52            0.0000     1.1634E+00     5.6161   0.9189    89.8649
 31      0.0000     0.0000E+00    0.0000E+00    4.250000E+09  0.00800  4.336E-05    0   0.5426   age158_m52            0.0000     1.2037E+00     5.7229   0.9076    88.8461
 32      0.0000     0.0000E+00    0.0000E+00    6.250000E+09  0.00800  3.159E-05    0   0.5319   age166_m52            0.0000     1.3895E+00     6.1904   0.7308    87.8489
 33     26.4653     6.7661E+01    6.7291E+01    1.300000E+10  0.00800  1.361E-05    0   0.5073   age193_m52            0.0000     1.6801E+00     6.7910   0.2924    86.1080
 34      8.0066     2.8181E+01    2.7568E+01    1.800000E+10  0.00800  9.886E-06    0   0.4990   age213_m52            0.0000     1.9872E+00     7.3915   0.2160    84.4898
 35      0.0000     0.0000E+00    0.0000E+00    1.000000E+06  0.02000  1.544E-02    0   1.0000   age020_m62            0.0000     4.1259E+00     8.4367   4.0000    90.0492
 36      0.0000     0.0000E+00    0.0000E+00    3.160000E+06  0.02000  3.762E-02    0   0.9858   age045_m62            0.0000     3.7228E+00     8.2250   4.0000    88.4055
 37      0.0000     0.0000E+00    0.0000E+00    5.010000E+06  0.02000  3.296E-02    0   0.9342   age055_m62            0.0000     2.3240E+00     7.6316   3.9246    80.4112
 38      8.1603     2.4605E-02    4.2742E-02    8.710000E+06  0.02000  1.154E-02    0   0.8861   age067_m62            0.0000     3.0272E+00     7.9532   2.7228    94.1538
 39      0.5645     2.5633E-03    4.2574E-03    1.445000E+07  0.02000  7.663E-03    0   0.8472   age078_m62            0.0000     2.0821E+00     6.8141   2.9783    91.0742
 40      0.8414     6.4598E-03    1.0257E-02    2.512000E+07  0.02000  4.532E-03    0   0.8099   age090_m62            0.0000     2.1732E+00     6.8717   2.9640    91.1645
 41      0.0000     0.0000E+00    0.0000E+00    5.500000E+07  0.02000  2.733E-03    0   0.7595   age110_m62            0.0000     1.7449E+00     6.3048   3.0137    89.4081
 42      0.0000     0.0000E+00    0.0000E+00    1.609000E+08  0.02000  1.369E-03    0   0.6985   age120_m62            0.0000     1.6118E+00     6.0385   2.8662    91.3725
 43      3.3081     1.2771E-01    1.6810E-01    2.861200E+08  0.02000  9.013E-04    0   0.6714   age125_m62            0.0000     1.4619E+00     5.7770   2.6127    94.1868
 44      6.5788     4.5527E-01    5.7560E-01    5.088000E+08  0.02000  5.028E-04    0   0.6449   age130_m62            0.0000     1.2797E+00     5.6307   2.2550    95.9203
 45      0.0000     0.0000E+00    0.0000E+00    9.047900E+08  0.02000  2.428E-04    0   0.6179   age135_m62            0.0000     1.0549E+00     5.1983   1.6814    94.8931
 46      0.0000     0.0000E+00    0.0000E+00    1.434000E+09  0.02000  1.263E-04    0   0.5908   age139_m62            0.0000     1.0783E+00     5.3295   1.2520    92.8327
 47      0.0000     0.0000E+00    0.0000E+00    2.500000E+09  0.02000  5.985E-05    0   0.5673   age150_m62            0.0000     1.3557E+00     6.0613   0.9290    89.7448
 48      0.0000     0.0000E+00    0.0000E+00    4.250000E+09  0.02000  3.271E-05    0   0.5468   age158_m62            0.0000     1.7100E+00     6.8123   0.6631    87.4074
 49      0.0000     0.0000E+00    0.0000E+00    1.000000E+10  0.02000  1.360E-05    0   0.5167   age181_m62            0.0000     2.2130E+00     7.7516   0.3584    85.4207
 50      0.0000     0.0000E+00    0.0000E+00    1.800000E+10  0.02000  7.124E-06    0   0.5013   age213_m62            0.0000     2.7009E+00     8.6156   0.1908    83.1825
 51      0.0000     0.0000E+00    0.0000E+00    1.000000E+06  0.05000  2.592E-02    0   0.9998   age020_m72            0.0000     4.0855E+00     8.4641   4.0000    89.7141
 52      0.0000     0.0000E+00    0.0000E+00    3.160000E+06  0.05000  4.845E-02    0   0.9577   age045_m72            0.0000     2.9892E+00     7.7690   4.0000    85.0393
 53      0.0000     0.0000E+00    0.0000E+00    5.010000E+06  0.05000  3.072E-02    0   0.9147   age055_m72            0.0000     2.3114E+00     7.5488   3.6364    84.7605
 54      1.2119     2.8981E-03    5.0436E-03    6.610000E+06  0.05000  1.455E-02    0   0.8877   age061_m72            0.0000     4.9871E+00    10.2152   2.7671    96.1117
 55      0.0002     8.3943E-07    1.4028E-06    1.000000E+07  0.05000  9.074E-03    0   0.8524   age070_m72            0.0000     2.7920E+00     8.3570   3.8493    83.8393
 56      0.0000     0.0000E+00    0.0000E+00    2.512000E+07  0.05000  4.250E-03    0   0.7902   age090_m72            0.0000     2.3187E+00     7.4356   3.5048    86.9644
 57      0.0034     3.8695E-05    5.7790E-05    4.000000E+07  0.05000  3.087E-03    0   0.7618   age104_m72            0.0000     2.2759E+00     7.2419   3.2536    89.4203
 58      1.7033     3.4862E-02    4.8497E-02    1.015200E+08  0.05000  1.700E-03    0   0.7096   age116_m72            0.0000     1.7026E+00     6.1886   2.9965    91.5805
 59      7.4205     3.4967E-01    4.5470E-01    2.861200E+08  0.05000  7.384E-04    0   0.6633   age125_m72            0.0000     1.3121E+00     5.6023   2.4862    95.3017
 60      6.6929     6.0979E-01    7.6176E-01    5.088000E+08  0.05000  3.819E-04    0   0.6372   age130_m72            0.0000     1.1047E+00     5.2522   2.0125    96.0188
 61      0.0000     0.0000E+00    0.0000E+00    9.047900E+08  0.05000  1.676E-04    0   0.6110   age135_m72            0.0000     1.3217E+00     5.8385   1.3734    91.8911
 62      0.0000     0.0000E+00    0.0000E+00    1.434000E+09  0.05000  8.837E-05    0   0.5874   age139_m72            0.0000     1.3995E+00     6.1009   0.9271    91.1393
 63      0.0000     0.0000E+00    0.0000E+00    2.500000E+09  0.05000  4.233E-05    0   0.5598   age150_m72            0.0000     1.8650E+00     7.0935   0.6758    87.6340
 64      0.0000     0.0000E+00    0.0000E+00    6.250000E+09  0.05000  1.435E-05    0   0.5249   age166_m72            0.0000     2.4021E+00     8.0709   0.2758    84.5068
 65      0.0000     0.0000E+00    0.0000E+00    1.300000E+10  0.05000  6.513E-06    0   0.5036   age193_m72            0.0000     3.0676E+00     9.1885   0.0508    83.2595
 66      0.0000     0.0000E+00    0.0000E+00    1.800000E+10  0.05000  4.527E-06    0   0.4945   age213_m72            0.0000     3.5389E+00     9.9024  -0.0727    81.7220


## Synthesis Results - Average & Chains ##

# j      x_j: min, <> & last-chain-values for 1 ...  7 chains
  1      0.0348      0.2681      0.1138      0.0000      0.0408      0.3947      0.9082      0.2404      0.0000
  2      0.0000      0.2492      0.5161      0.0000      0.0000      0.1681      0.0000      0.3741      1.1204
  3      0.0000      0.1778      0.0000      0.5479      0.0000      0.0000      0.0000      0.0000      0.0000
  4      0.0000      0.1275      0.0000      0.0000      0.1972      0.0000      0.2547      0.0000      0.0000
  5      0.0000      0.9798      0.8217      0.0000      1.3255      0.9478      1.3789      1.2671      1.8217
  6      0.0000      0.2778      0.8964      0.6235      0.0000      0.0000      0.0000      1.7991      0.0000
  7      0.0006      0.8246      0.0000      0.7630      0.8406      0.7187      1.0637      0.1025      1.3080
  8      0.0000      0.3609      0.0000      0.5578      0.0000      0.9866      0.0544      0.0000      2.0425
  9      0.0000      0.1714      0.0000      0.0000      0.5557      0.0000      0.0000      0.0000      0.2738
 10      0.0019      1.8397      1.7873      1.7266      1.4412      2.4797      1.8517      2.4185      2.1489
 11      0.0000      0.1833      0.0000      0.0000      0.0000      0.9859      0.0000      0.3803      0.8102
 12      0.0000      0.2471      0.0000      0.0000      0.0000      0.0000      0.0000      0.0000      0.1540
 13      0.0000      3.7767      2.5916      3.9950      3.8646      3.3606      3.4070      1.9618      1.5039
 14      0.0000      0.5063      0.0000      0.3629      0.0000      1.5536      0.0000      0.0000      0.3698
 15      0.0000      0.4698      0.0000      0.0000      0.0000      0.5674      0.0000      0.0000      0.0000
 16      0.0000      0.2781      0.0000      0.0000      0.5825      0.1950      0.0000      1.2077      0.0000
 17      0.0000      0.2602      0.0000      0.0557      0.3196      0.0000      0.0000      0.5082      0.0000
 18      0.0000      0.3412      0.2130      1.0487      0.0000      0.5031      0.0000      0.1319      0.0000
 19      0.0000      0.1699      0.2423      0.0000      0.2559      0.0000      0.2180      0.0000      0.1375
 20      0.0000      0.1911      0.0000      0.0000      0.0424      0.0000      0.0000      0.0000      0.3438
 21      0.0000      0.1841      0.0000      0.1374      0.0000      0.0000      0.0000      0.1633      0.0000
 22      0.7753      0.6182      0.8370      0.7952      0.0000      1.1677      0.9874      1.2437      0.7674
 23      0.0095      0.4161      0.3255      0.1333      0.4558      0.7990      0.5116      0.1393      0.0000
 24      0.0000      0.5783      0.0000      0.7295      0.4804      0.0000      0.0000      1.0269      0.7384
 25      0.0000      0.1775      1.1902      0.0000      0.0007      0.0000      0.0000      0.0000      0.0000
 26      1.8002      1.2458      1.1541      1.1018      2.7791      1.2589      1.2857      1.5501      0.0000
 27      0.0000      1.2146      1.4890      2.2460      1.2572      0.0000      0.8003      0.0184      0.7512
 28     22.6861     10.5990     12.2299     12.0612     13.5139     12.0583     12.5909     11.1314     12.1346
 29      0.0000      1.3037      2.0930      0.4739      0.0000      1.8686      0.0030      0.0000      2.5591
 30      0.0000      0.2737      0.0000      0.0000      0.3207      0.0000      0.2640      0.0000      0.0000
 31      0.0000      0.4472      0.0000      0.0000      0.0000      0.2917      0.0172      0.0000      0.0000
 32      0.0000      0.2233      0.0000      0.8252      0.0000      0.0000      0.1734      0.0544      0.0000
 33     26.4653     17.5363     18.9758     18.9209     18.2165     18.8754     18.6975     19.3143     18.8583
 34      8.0066      7.7965      8.9166      8.6028      8.5631      7.6299      8.2613      8.0147      7.8475
 35      0.0000      0.2717      0.4527      0.3289      0.5261      0.0000      0.0000      0.0000      0.3084
 36      0.0000      0.1634      0.7371      0.0000      0.0000      0.0000      0.0647      0.2755      0.2826
 37      0.0000      0.1073      0.1580      0.0827      0.0000      0.0000      0.0000      0.5650      0.0000
 38      8.1603      3.1007      3.6705      3.8271      3.3233      4.0799      3.6842      3.4892      2.8811
 39      0.5645      0.6566      0.0000      0.3715      0.0000      0.0644      0.6263      0.9079      0.6108
 40      0.8414      0.2471      0.0000      0.3486      0.2608      0.3646      0.3324      0.0000      0.0000
 41      0.0000      0.3125      0.0000      0.0000      0.4044      0.0000      0.5479      0.0000      0.0000
 42      0.0000      0.4679      0.5039      0.3322      0.0000      0.0000      0.2333      1.0560      0.4566
 43      3.3081      2.9224      3.7534      3.4375      1.9390      3.3536      3.1066      2.8840      3.3152
 44      6.5788      4.8408      5.8719      4.4706      5.5076      5.1784      5.0505      4.8583      8.0128
 45      0.0000      0.3482      0.8675      0.4205      0.5208      0.0000      0.0000      0.3851      0.0000
 46      0.0000      0.8908      0.0000      0.0000      0.9065      0.0000      0.4965      0.0000      0.0000
