###################################################################
## OUTPUT of StarlightChains_v04.for    [Cid@UFSC - 01/Apr/2007] ##
###################################################################

## Some input info
2016eob.txt                              [arq_obs]
Base.CB07.vall.4m                        [arq_base]
Masks.EmLines.NEW.gm                     [arq_masks]
StCv04.C11.config                        [arq_config]
   66                                    [N_base]
    0                                    [N_YAV_components = # of components with extra extinction!]
    0                                    [i_FitPowerLaw (1/0 = Yes/No)]
-9.99                                    [alpha_PowerLaw]
CCM                                      [red_law_option]
 1.458241                                [q_norm = A(l_norm)/A(V)]

## (Re)Sampling Parameters
 3741.00                                 [l_ini (A)]
 7218.00                                 [l_fin (A)]
    1.00                                 [dl    (A)]     (OBS: dl_cushion =    50.00 A)

## Normalization info
 4020.00                                 [l_norm (A) - for base]
 4010.00                                 [llow_norm (A) - window for f_obs]
 4060.00                                 [lupp_norm (A) - window for f_obs]
1.983915E-17                             [fobs_norm (in input units)]

## S/N
 3691.00                                 [llow_SN (A) - window for S/N]
 7268.00                                 [lupp_SN (A) - window for S/N]
   8.095                                 [S/N in S/N window]
   8.830                                 [S/N in norm. window]
   9.135                                 [S/N_err in S/N window]
   9.964                                 [S/N_err in norm. window]
  1.0000                                 [fscale_chi2]

## etc...
    -2007431                             [idum_orig]
  2376                                   [NOl_eff]
  2376                                   [Nl_eff]
     0    NSIGMA                         [Ntot_cliped & clip_method]
  1276450                                [Nglobal_steps]
   7                                     [N_chains]
  22                                     [NEX0s_base = N_base in EX0s-fits]
 0   0   1        0   2.0   1.501E+01    [Clip-Bug, RC-Crash & Burn-In warning-flags, n_censored_weights, wei_nsig_threshold & wei_limit]
    11     11.688     11.192      0.496  [idt_all, wdt_TotTime, wdt_UsrTime & wdt_SysTime (sec)]

## Synthesis Results - Best model ##

 4.29908E-01                             [chi2/Nl_eff]
     6.06252                             [adev (%)]

   106.33682                             [sum-of-x (%)]
 2.74362E-17                             [Flux_tot (units of input spectrum!)]
 1.47505E-13                             [Mini_tot (???)]
 8.35644E-14                             [Mcor_tot (???)]

 140.98                                  [v0_min  (km/s)]
 185.68                                  [vd_min  (km/s)]
 0.1956                                  [AV_min  (mag)]
 0.0000                                  [YAV_min (mag)]

# j     x_j(%)      Mini_j(%)     Mcor_j(%)     age_j(yr)     Z_j      (L/M)_j    YAV?  Mstars   component_j        a/Fe...       SSP_chi2r SSP_adev(%)   SSP_AV   SSP_x(%)
  1      0.0000     0.0000E+00    0.0000E+00    1.000000E+06  0.00400  1.094E-02    0   1.0000   age020_m42            0.0000     7.6044E-01     8.5557   2.8758    90.5759
  2      0.0000     0.0000E+00    0.0000E+00    3.160000E+06  0.00400  4.007E-02    0   0.9999   age045_m42            0.0000     6.2423E-01     7.4648   2.1633    96.2531
  3      0.0000     0.0000E+00    0.0000E+00    5.010000E+06  0.00400  2.539E-02    0   0.9488   age055_m42            0.0000     6.6943E-01     7.8472   2.4752    94.2197
  4      0.0000     0.0000E+00    0.0000E+00    6.610000E+06  0.00400  2.620E-02    0   0.9220   age061_m42            0.0000     6.0300E-01     7.3388   2.0856    96.6485
  5      0.0000     0.0000E+00    0.0000E+00    1.000000E+07  0.00400  1.322E-02    0   0.8862   age070_m42            0.0000     5.4961E-01     7.2271   1.7686   100.2829
  6      0.0000     0.0000E+00    0.0000E+00    1.445000E+07  0.00400  7.883E-03    0   0.8571   age078_m42            0.0000     5.8630E-01     7.5056   2.0961    97.6996
  7      0.0000     0.0000E+00    0.0000E+00    2.512000E+07  0.00400  5.251E-03    0   0.8174   age090_m42            0.0000     5.4319E-01     7.1937   1.6334   101.0909
  8      0.4290     2.0565E-02    2.8500E-02    4.000000E+07  0.00400  3.649E-03    0   0.7851   age104_m42            0.0000     5.2250E-01     7.0038   1.4109   101.7291
  9      0.0000     0.0000E+00    0.0000E+00    5.500000E+07  0.00400  3.098E-03    0   0.7629   age110_m42            0.0000     5.2649E-01     6.9034   1.5817   100.9364
 10      0.0000     0.0000E+00    0.0000E+00    1.015200E+08  0.00400  2.228E-03    0   0.7207   age116_m42            0.0000     5.3318E-01     6.8669   1.6142   100.5870
 11      0.0000     0.0000E+00    0.0000E+00    2.861200E+08  0.00400  1.093E-03    0   0.6648   age125_m42            0.0000     5.1193E-01     6.6651   1.0349   104.1169
 12      0.0000     0.0000E+00    0.0000E+00    5.088000E+08  0.00400  6.597E-04    0   0.6365   age130_m42            0.0000     5.0356E-01     6.5276   1.0442   104.1203
 13     78.2022     6.4160E+01    6.5664E+01    1.434000E+09  0.00400  2.132E-04    0   0.5798   age139_m42            0.0000     4.4278E-01     6.0483   0.0868   105.6985
 14      0.0000     0.0000E+00    0.0000E+00    4.250000E+09  0.00400  5.895E-05    0   0.5377   age158_m42            0.0000     5.1630E-01     6.5587  -0.3323   100.7480
 15      0.0259     1.2884E-01    1.1853E-01    7.500000E+09  0.00400  3.510E-05    0   0.5212   age171_m42            0.0000     5.6358E-01     6.8140  -0.5100    99.6657
 16      0.0022     1.9568E-02    1.7388E-02    1.300000E+10  0.00400  2.005E-05    0   0.5034   age193_m42            0.0000     6.1934E-01     7.1077  -0.6654    98.7480
 17      0.0000     0.0000E+00    0.0000E+00    1.800000E+10  0.00400  1.525E-05    0   0.4967   age213_m42            0.0000     6.0948E-01     7.0645  -0.6908    98.4197
 18      0.0000     0.0000E+00    0.0000E+00    1.000000E+06  0.00800  1.238E-02    0   1.0000   age020_m52            0.0000     7.6126E-01     8.5608   2.8722    90.7533
 19      0.4853     2.7613E-03    4.8575E-03    3.160000E+06  0.00800  3.074E-02    0   0.9966   age045_m52            0.0000     7.5139E-01     8.4526   2.7982    91.4575
 20      0.0000     0.0000E+00    0.0000E+00    5.010000E+06  0.00800  2.668E-02    0   0.9443   age055_m52            0.0000     6.8042E-01     7.9594   2.5551    93.4888
 21      0.0000     0.0000E+00    0.0000E+00    6.610000E+06  0.00800  2.136E-02    0   0.9177   age061_m52            0.0000     5.2118E-01     7.0943   1.2703   101.4243
 22      0.0000     0.0000E+00    0.0000E+00    1.000000E+07  0.00800  1.215E-02    0   0.8827   age070_m52            0.0000     5.6505E-01     7.4083   1.9372   100.5444
 23      0.8092     1.6237E-02    2.4511E-02    1.445000E+07  0.00800  8.717E-03    0   0.8552   age078_m52            0.0000     5.6653E-01     7.3733   2.0614    99.0761
 24      0.0000     0.0000E+00    0.0000E+00    2.512000E+07  0.00800  5.592E-03    0   0.8162   age090_m52            0.0000     5.3194E-01     7.1115   1.6964   102.3462
 25      0.0000     0.0000E+00    0.0000E+00    4.000000E+07  0.00800  3.896E-03    0   0.7841   age104_m52            0.0000     5.1770E-01     6.9293   1.6179   102.7141
 26      0.0000     0.0000E+00    0.0000E+00    1.015200E+08  0.00800  2.148E-03    0   0.7226   age116_m52            0.0000     5.1447E-01     6.7578   1.5744   101.7263
 27      0.0000     0.0000E+00    0.0000E+00    2.861200E+08  0.00800  9.925E-04    0   0.6683   age125_m52            0.0000     5.0310E-01     6.5198   1.1080   105.1192
 28      0.0000     0.0000E+00    0.0000E+00    9.047900E+08  0.00800  3.141E-04    0   0.6138   age135_m52            0.0000     4.8981E-01     6.3962   0.3398   108.1683
 29      0.0000     0.0000E+00    0.0000E+00    1.434000E+09  0.00800  1.719E-04    0   0.5853   age139_m52            0.0000     4.8836E-01     6.2889  -0.2387   106.0168
 30      0.0000     0.0000E+00    0.0000E+00    2.500000E+09  0.00800  7.872E-05    0   0.5600   age150_m52            0.0000     5.7342E-01     6.8152  -0.4813   102.0723
 31      0.0492     1.9838E-01    1.9000E-01    4.250000E+09  0.00800  4.336E-05    0   0.5426   age158_m52            0.0000     5.8937E-01     6.9185  -0.4953   101.0581
 32      1.0940     6.0579E+00    5.6877E+00    6.250000E+09  0.00800  3.159E-05    0   0.5319   age166_m52            0.0000     6.6804E-01     7.3500  -0.6812   100.3894
 33      0.0000     0.0000E+00    0.0000E+00    1.300000E+10  0.00800  1.361E-05    0   0.5073   age193_m52            0.0000     8.4809E-01     8.5565  -1.0000    93.7314
 34      0.0000     0.0000E+00    0.0000E+00    1.800000E+10  0.00800  9.886E-06    0   0.4990   age213_m52            0.0000     1.0415E+00     9.5788  -1.0000    89.0838
 35      0.0000     0.0000E+00    0.0000E+00    1.000000E+06  0.02000  1.544E-02    0   1.0000   age020_m62            0.0000     7.6613E-01     8.5930   2.8685    90.9559
 36      0.0569     2.6471E-04    4.6061E-04    3.160000E+06  0.02000  3.762E-02    0   0.9858   age045_m62            0.0000     7.6679E-01     8.5566   2.8078    91.7472
 37      0.0000     0.0000E+00    0.0000E+00    5.010000E+06  0.02000  3.296E-02    0   0.9342   age055_m62            0.0000     6.5625E-01     7.6914   2.4405    95.1648
 38     15.2900     2.3176E-01    3.6250E-01    8.710000E+06  0.02000  1.154E-02    0   0.8861   age067_m62            0.0000     7.7818E-01     9.0647   1.3200   106.6761
 39      2.3811     5.4351E-02    8.1279E-02    1.445000E+07  0.02000  7.663E-03    0   0.8472   age078_m62            0.0000     5.8218E-01     7.6082   1.5625   103.8646
 40      0.0000     0.0000E+00    0.0000E+00    2.512000E+07  0.02000  4.532E-03    0   0.8099   age090_m62            0.0000     5.9844E-01     7.6480   1.5521   103.7095
 41      0.0081     5.1564E-04    6.9128E-04    5.500000E+07  0.02000  2.733E-03    0   0.7595   age110_m62            0.0000     5.1724E-01     6.9404   1.5995   102.0378
 42      0.0000     0.0000E+00    0.0000E+00    1.609000E+08  0.02000  1.369E-03    0   0.6985   age120_m62            0.0000     5.1241E-01     6.6825   1.4612   103.7804
 43      0.0000     0.0000E+00    0.0000E+00    2.861200E+08  0.02000  9.013E-04    0   0.6714   age125_m62            0.0000     5.0993E-01     6.6431   1.2232   106.1978
 44      0.0000     0.0000E+00    0.0000E+00    5.088000E+08  0.02000  5.028E-04    0   0.6449   age130_m62            0.0000     5.2549E-01     6.7201   0.8742   107.7115
 45      1.4790     1.0655E+00    1.1622E+00    9.047900E+08  0.02000  2.428E-04    0   0.6179   age135_m62            0.0000     5.1618E-01     6.5476   0.3023   106.5384
 46      0.0000     0.0000E+00    0.0000E+00    1.434000E+09  0.02000  1.263E-04    0   0.5908   age139_m62            0.0000     5.5309E-01     6.7359  -0.1344   104.7094
 47      3.2933     9.6251E+00    9.6384E+00    2.500000E+09  0.02000  5.985E-05    0   0.5673   age150_m62            0.0000     6.6456E-01     7.3302  -0.4791   102.3899
 48      0.0000     0.0000E+00    0.0000E+00    4.250000E+09  0.02000  3.271E-05    0   0.5468   age158_m62            0.0000     8.1019E-01     8.2860  -0.7585   100.4707
 49      0.0000     0.0000E+00    0.0000E+00    1.000000E+10  0.02000  1.360E-05    0   0.5167   age181_m62            0.0000     1.0333E+00     9.6581  -1.0000    95.7304
 50      0.0000     0.0000E+00    0.0000E+00    1.800000E+10  0.02000  7.124E-06    0   0.5013   age213_m62            0.0000     1.3769E+00    11.1421  -1.0000    86.8494
 51      0.0000     0.0000E+00    0.0000E+00    1.000000E+06  0.05000  2.592E-02    0   0.9998   age020_m72            0.0000     7.7894E-01     8.7072   2.8580    91.0606
 52      0.0000     0.0000E+00    0.0000E+00    3.160000E+06  0.05000  4.845E-02    0   0.9577   age045_m72            0.0000     7.3209E-01     8.2194   2.6977    92.6879
 53      0.0000     0.0000E+00    0.0000E+00    5.010000E+06  0.05000  3.072E-02    0   0.9147   age055_m72            0.0000     6.3468E-01     7.8573   2.1706    98.9371
 54      0.0000     0.0000E+00    0.0000E+00    6.610000E+06  0.05000  1.455E-02    0   0.8877   age061_m72            0.0000     1.2575E+00    11.1244   1.3424   108.9662
 55      0.0000     0.0000E+00    0.0000E+00    1.000000E+07  0.05000  9.074E-03    0   0.8524   age070_m72            0.0000     7.6515E-01     8.3811   2.3569    98.6018
 56      0.0000     0.0000E+00    0.0000E+00    2.512000E+07  0.05000  4.250E-03    0   0.7902   age090_m72            0.0000     6.4105E-01     7.6600   2.0568   100.3771
 57      0.0000     0.0000E+00    0.0000E+00    4.000000E+07  0.05000  3.087E-03    0   0.7618   age104_m72            0.0000     6.3110E-01     7.5495   1.8248   102.2584
 58      0.0000     0.0000E+00    0.0000E+00    1.015200E+08  0.05000  1.700E-03    0   0.7096   age116_m72            0.0000     5.2658E-01     6.8003   1.5927   103.8420
 59      0.0016     3.9065E-04    4.5738E-04    2.861200E+08  0.05000  7.384E-04    0   0.6633   age125_m72            0.0000     5.1347E-01     6.6667   1.1066   106.9469
 60      0.0000     0.0000E+00    0.0000E+00    5.088000E+08  0.05000  3.819E-04    0   0.6372   age130_m72            0.0000     5.2121E-01     6.6278   0.6385   107.6314
 61      0.0000     0.0000E+00    0.0000E+00    9.047900E+08  0.05000  1.676E-04    0   0.6110   age135_m72            0.0000     6.4899E-01     7.3293  -0.0239   104.3523
 62      2.2067     4.3679E+00    4.5289E+00    1.434000E+09  0.05000  8.837E-05    0   0.5874   age139_m72            0.0000     6.9366E-01     7.5115  -0.4751   103.7013
 63      0.0000     0.0000E+00    0.0000E+00    2.500000E+09  0.05000  4.233E-05    0   0.5598   age150_m72            0.0000     8.7042E-01     8.6254  -0.7508   100.9888
 64      0.0000     0.0000E+00    0.0000E+00    6.250000E+09  0.05000  1.435E-05    0   0.5249   age166_m72            0.0000     1.1570E+00    10.2195  -1.0000    91.5357
 65      0.5231     1.4050E+01    1.2489E+01    1.300000E+10  0.05000  6.513E-06    0   0.5036   age193_m72            0.0000     1.7588E+00    12.4420  -1.0000    81.8045
 66      0.0000     0.0000E+00    0.0000E+00    1.800000E+10  0.05000  4.527E-06    0   0.4945   age213_m72            0.0000     2.2331E+00    13.9715  -1.0000    75.9625


## Synthesis Results - Average & Chains ##

# j      x_j: min, <> & last-chain-values for 1 ...  7 chains
  1      0.0000      0.2547      0.7604      0.0000      0.0000      0.0000      0.0000      0.0000      0.0000
  2      0.0000      0.5197      0.0000      0.0000      3.2091      2.2539      3.0667      0.0000      1.2825
  3      0.0000      0.5384      0.0000      0.0000      0.9027      0.0000      0.0000      0.0000      0.0000
  4      0.0000      0.3789      0.0000      0.0000      0.0000      0.1964      0.0000      0.8145      0.0000
  5      0.0000      0.5436      0.0000      0.0000      1.3794      1.4598      0.0000      0.0000      0.1461
  6      0.0000      1.0044      0.0000      0.0000      0.5157      0.3543      0.0000      0.0000      0.7989
  7      0.0000      0.9747      0.0000      0.0000      0.0000      0.0000      0.5472      0.0000      0.2819
  8      0.4290      1.0260      0.5615      0.9266      0.0000      1.6275      0.9823      2.0368      0.0000
  9      0.0000      0.6279      0.0000      2.6955      0.0000      1.1224      2.9778      0.0000      0.0000
 10      0.0000      0.4424      0.0000      0.0000      0.0000      0.0000      1.6439      0.0000      0.0000
 11      0.0000      0.6662      1.6940      0.0000      0.0000      0.0000      0.5392      0.0000      0.2111
 12      0.0000      1.3627      0.0634      0.0000      1.9716      0.0000      1.9217      0.0000      0.0000
 13     78.2022     36.0762     48.1604     53.2353     42.2085     47.2421     44.8206     44.2779     46.3156
 14      0.0000      0.5272      1.6071      0.0000      0.0000      0.0000      0.0000      0.2810      0.0000
 15      0.0259      0.4827      0.0000      3.0646      0.0408      0.0000      1.7832      0.0000      0.0000
 16      0.0022      0.6813      0.6978      5.6622      2.0481      0.0000      0.7550      1.8293      0.0000
 17      0.0000      2.6829      1.1846      0.2985      2.6505      3.8726      1.5972      2.5141      3.1789
 18      0.0000      0.5735      0.0000      0.0000      1.4623      0.0000      1.0739      0.1248      0.0000
 19      0.4853      0.2234      0.0000      1.9200      0.0000      0.0000      0.0000      0.0672      0.0000
 20      0.0000      0.4092      0.0000      0.0000      0.0000      0.0000      0.6829      1.0351      0.0000
 21      0.0000      0.9440      0.2912      0.0000      0.0000      0.0000      0.0000      0.6408      0.0000
 22      0.0000      0.7909      3.3941      0.0000      2.4028      1.3543      1.7688      0.0000      0.0562
 23      0.8092      0.5367      0.0000      4.9963      0.0000      1.1576      0.0000      1.7779      3.9921
 24      0.0000      0.7833      0.6696      0.7068      0.0000      0.0000      0.4599      0.0000      0.0000
 25      0.0000      1.3914      3.4239      0.0000      4.7508      1.2725      0.0000      0.0000      0.0000
 26      0.0000      0.8910      0.0000      0.0000      0.0000      0.0000      0.0000      0.0000      1.9888
 27      0.0000      0.9171      0.1039      0.0000      0.0096      2.1888      0.0000      0.0000      1.7407
 28      0.0000      4.9854      0.0000      0.0000      0.0000      0.0000      0.0000      0.0000      0.9544
 29      0.0000      2.8163      0.0000      0.0000      2.3955      4.7505      0.0000      0.0041      0.3465
 30      0.0000      0.2530      0.0000      0.0000      0.0000      0.0000      1.4653      0.0000      0.0000
 31      0.0492      1.2501      1.5178      2.5966      0.0000      0.0000      0.0000      0.0000      1.9399
 32      1.0940      0.3266      1.4484      1.4536      0.0000      0.0000      0.0000      1.1936      0.0000
 33      0.0000      0.0828      0.0000      0.0000      0.0000      0.0000      0.0000      0.0000      0.0000
 34      0.0000      0.4116      0.0000      0.0390      0.0000      0.5089      0.0000      1.6608      0.8698
 35      0.0000      0.3041      0.0000      0.0000      0.0261      2.1141      0.0000      1.5704      0.0000
 36      0.0569      0.4655      0.0000      1.1248      0.0000      0.0000      0.0000      0.0000      0.2800
 37      0.0000      0.6296      0.0000      0.3342      2.4149      0.0000      0.5524      1.4190      0.0000
 38     15.2900      3.6712      6.3709      3.3827      3.5560      5.2755      5.8870      8.6103      1.9223
 39      2.3811      1.2855      0.0000      3.3268      0.1826      0.0000      1.3732      0.0000      3.2600
 40      0.0000      2.8357      3.8527      0.0000      5.2237      3.4248      3.1758      3.2436      5.8641
 41      0.0081      1.4576      1.0012      2.8215      0.0000      1.9720      2.2218      0.6913      0.2194
 42      0.0000      0.6579      0.0000      0.0000      0.0000      0.0000      1.3084      2.7806      0.0000
 43      0.0000      1.2055      0.9361      4.0869      0.9571      0.0000      3.5443      0.0000      0.3270
 44      0.0000      2.1181      2.4497      2.2297      2.2597      0.0000      0.0000      6.7203      0.1878
 45      1.4790      4.7049      0.0000      1.5294      0.3020      6.0364      2.4892      2.0323      1.6838
 46      0.0000      2.7566      2.6069      0.0000      2.6525      0.0000      2.9733      6.1040      2.6873
