###################################################################
## OUTPUT of StarlightChains_v04.for    [Cid@UFSC - 01/Apr/2007] ##
###################################################################

## Some input info
2016esw.txt                              [arq_obs]
Base.CB07.vall.4m                        [arq_base]
Masks.EmLines.NEW.gm                     [arq_masks]
StCv04.C11.config                        [arq_config]
   66                                    [N_base]
    0                                    [N_YAV_components = # of components with extra extinction!]
    0                                    [i_FitPowerLaw (1/0 = Yes/No)]
-9.99                                    [alpha_PowerLaw]
CCM                                      [red_law_option]
 1.458241                                [q_norm = A(l_norm)/A(V)]

## (Re)Sampling Parameters
 3741.00                                 [l_ini (A)]
 7218.00                                 [l_fin (A)]
    1.00                                 [dl    (A)]     (OBS: dl_cushion =    50.00 A)

## Normalization info
 4020.00                                 [l_norm (A) - for base]
 4010.00                                 [llow_norm (A) - window for f_obs]
 4060.00                                 [lupp_norm (A) - window for f_obs]
1.060522E-17                             [fobs_norm (in input units)]

## S/N
 3691.00                                 [llow_SN (A) - window for S/N]
 7268.00                                 [lupp_SN (A) - window for S/N]
   4.071                                 [S/N in S/N window]
   4.361                                 [S/N in norm. window]
   6.265                                 [S/N_err in S/N window]
   6.711                                 [S/N_err in norm. window]
  1.0000                                 [fscale_chi2]

## etc...
    -2007432                             [idum_orig]
  2303                                   [NOl_eff]
  2152                                   [Nl_eff]
   151    NSIGMA                         [Ntot_cliped & clip_method]
   456540                                [Nglobal_steps]
   7                                     [N_chains]
   8                                     [NEX0s_base = N_base in EX0s-fits]
 0   0   1       40   2.0   2.359E+01    [Clip-Bug, RC-Crash & Burn-In warning-flags, n_censored_weights, wei_nsig_threshold & wei_limit]
    12     10.788     10.250      0.539  [idt_all, wdt_TotTime, wdt_UsrTime & wdt_SysTime (sec)]

## Synthesis Results - Best model ##

 6.72357E-01                             [chi2/Nl_eff]
    10.20096                             [adev (%)]

   107.49420                             [sum-of-x (%)]
 2.97583E-18                             [Flux_tot (units of input spectrum!)]
 9.85780E-14                             [Mini_tot (???)]
 5.30039E-14                             [Mcor_tot (???)]

-152.31                                  [v0_min  (km/s)]
 251.37                                  [vd_min  (km/s)]
-1.0000                                  [AV_min  (mag)]
 0.0000                                  [YAV_min (mag)]

# j     x_j(%)      Mini_j(%)     Mcor_j(%)     age_j(yr)     Z_j      (L/M)_j    YAV?  Mstars   component_j        a/Fe...       SSP_chi2r SSP_adev(%)   SSP_AV   SSP_x(%)
  1      0.0000     0.0000E+00    0.0000E+00    1.000000E+06  0.00400  1.094E-02    0   1.0000   age020_m42            0.0000     1.8815E+00    15.5011   3.0835    77.6983
  2      0.0000     0.0000E+00    0.0000E+00    3.160000E+06  0.00400  4.007E-02    0   0.9999   age045_m42            0.0000     1.7369E+00    14.8098   2.3149    84.8885
  3      0.0000     0.0000E+00    0.0000E+00    5.010000E+06  0.00400  2.539E-02    0   0.9488   age055_m42            0.0000     1.8463E+00    15.2801   2.6644    81.5534
  4      0.0000     0.0000E+00    0.0000E+00    6.610000E+06  0.00400  2.620E-02    0   0.9220   age061_m42            0.0000     1.7911E+00    15.0176   2.2491    84.7273
  5      0.0000     0.0000E+00    0.0000E+00    1.000000E+07  0.00400  1.322E-02    0   0.8862   age070_m42            0.0000     2.0426E+00    16.1513   1.9801    85.7478
  6      0.0000     0.0000E+00    0.0000E+00    1.445000E+07  0.00400  7.883E-03    0   0.8571   age078_m42            0.0000     2.0564E+00    16.2049   2.3186    83.1220
  7      0.0000     0.0000E+00    0.0000E+00    2.512000E+07  0.00400  5.251E-03    0   0.8174   age090_m42            0.0000     2.0834E+00    16.3188   1.8477    86.2979
  8      0.0000     0.0000E+00    0.0000E+00    4.000000E+07  0.00400  3.649E-03    0   0.7851   age104_m42            0.0000     1.9939E+00    15.9698   1.6032    87.8110
  9      0.0000     0.0000E+00    0.0000E+00    5.500000E+07  0.00400  3.098E-03    0   0.7629   age110_m42            0.0000     1.8951E+00    15.4494   1.7517    88.1679
 10      0.0000     0.0000E+00    0.0000E+00    1.015200E+08  0.00400  2.228E-03    0   0.7207   age116_m42            0.0000     1.8370E+00    15.1186   1.7677    88.5937
 11      0.0000     0.0000E+00    0.0000E+00    2.861200E+08  0.00400  1.093E-03    0   0.6648   age125_m42            0.0000     1.8248E+00    15.1707   1.1738    92.4299
 12      0.0000     0.0000E+00    0.0000E+00    5.088000E+08  0.00400  6.597E-04    0   0.6365   age130_m42            0.0000     1.6573E+00    14.3825   1.1405    94.4169
 13      0.0000     0.0000E+00    0.0000E+00    1.434000E+09  0.00400  2.132E-04    0   0.5798   age139_m42            0.0000     1.2739E+00    12.9330   0.0840   100.5325
 14      0.0000     0.0000E+00    0.0000E+00    4.250000E+09  0.00400  5.895E-05    0   0.5377   age158_m42            0.0000     9.3646E-01    11.5837  -0.4176    99.7078
 15      0.0000     0.0000E+00    0.0000E+00    7.500000E+09  0.00400  3.510E-05    0   0.5212   age171_m42            0.0000     8.5230E-01    11.1662  -0.6281   100.2361
 16      0.0000     0.0000E+00    0.0000E+00    1.300000E+10  0.00400  2.005E-05    0   0.5034   age193_m42            0.0000     8.0331E-01    10.8947  -0.8096   100.5778
 17      0.0000     0.0000E+00    0.0000E+00    1.800000E+10  0.00400  1.525E-05    0   0.4967   age213_m42            0.0000     8.1180E-01    10.9248  -0.8304   100.0022
 18      0.0000     0.0000E+00    0.0000E+00    1.000000E+06  0.00800  1.238E-02    0   1.0000   age020_m52            0.0000     1.8803E+00    15.4855   3.0788    77.8872
 19      0.0000     0.0000E+00    0.0000E+00    3.160000E+06  0.00800  3.074E-02    0   0.9966   age045_m52            0.0000     1.8691E+00    15.4249   3.0013    78.6129
 20      0.0000     0.0000E+00    0.0000E+00    5.010000E+06  0.00800  2.668E-02    0   0.9443   age055_m52            0.0000     1.8646E+00    15.3910   2.7516    80.6215
 21      0.0000     0.0000E+00    0.0000E+00    6.610000E+06  0.00800  2.136E-02    0   0.9177   age061_m52            0.0000     1.7986E+00    15.3688   1.4369    88.6632
 22      0.0000     0.0000E+00    0.0000E+00    1.000000E+07  0.00800  1.215E-02    0   0.8827   age070_m52            0.0000     2.1356E+00    16.5699   2.1678    85.1696
 23      0.0000     0.0000E+00    0.0000E+00    1.445000E+07  0.00800  8.717E-03    0   0.8552   age078_m52            0.0000     2.0454E+00    16.1754   2.2802    84.4408
 24      0.0000     0.0000E+00    0.0000E+00    2.512000E+07  0.00800  5.592E-03    0   0.8162   age090_m52            0.0000     2.0848E+00    16.3303   1.9075    87.5318
 25      0.0000     0.0000E+00    0.0000E+00    4.000000E+07  0.00800  3.896E-03    0   0.7841   age104_m52            0.0000     1.9866E+00    15.9108   1.8047    88.9761
 26      0.0000     0.0000E+00    0.0000E+00    1.015200E+08  0.00800  2.148E-03    0   0.7226   age116_m52            0.0000     1.8188E+00    15.1942   1.7257    89.7261
 27      0.0000     0.0000E+00    0.0000E+00    2.861200E+08  0.00800  9.925E-04    0   0.6683   age125_m52            0.0000     1.6482E+00    14.3990   1.2026    95.4297
 28      0.0000     0.0000E+00    0.0000E+00    9.047900E+08  0.00800  3.141E-04    0   0.6138   age135_m52            0.0000     1.0622E+00    12.0623   0.2641   106.8095
 29      0.0000     0.0000E+00    0.0000E+00    1.434000E+09  0.00800  1.719E-04    0   0.5853   age139_m52            0.0000     1.0094E+00    11.9081  -0.3110   104.4177
 30      0.0000     0.0000E+00    0.0000E+00    2.500000E+09  0.00800  7.872E-05    0   0.5600   age150_m52            0.0000     8.3252E-01    11.0605  -0.6137   103.3988
 31      0.0000     0.0000E+00    0.0000E+00    4.250000E+09  0.00800  4.336E-05    0   0.5426   age158_m52            0.0000     8.0382E-01    10.8907  -0.6401   102.9744
 32      0.0000     0.0000E+00    0.0000E+00    6.250000E+09  0.00800  3.159E-05    0   0.5319   age166_m52            0.0000     7.3635E-01    10.4859  -0.8668   104.2901
 33      0.0000     0.0000E+00    0.0000E+00    1.300000E+10  0.00800  1.361E-05    0   0.5073   age193_m52            0.0000     9.0922E-01    12.7721  -1.0000    90.4327
 34      0.0000     0.0000E+00    0.0000E+00    1.800000E+10  0.00800  9.886E-06    0   0.4990   age213_m52            0.0000     1.0439E+00    13.6722  -1.0000    86.0064
 35      0.0000     0.0000E+00    0.0000E+00    1.000000E+06  0.02000  1.544E-02    0   1.0000   age020_m62            0.0000     1.8825E+00    15.4996   3.0758    78.0282
 36      0.0000     0.0000E+00    0.0000E+00    3.160000E+06  0.02000  3.762E-02    0   0.9858   age045_m62            0.0000     1.8829E+00    15.5120   3.0185    78.5878
 37      0.0000     0.0000E+00    0.0000E+00    5.010000E+06  0.02000  3.296E-02    0   0.9342   age055_m62            0.0000     1.8065E+00    15.0988   2.6187    82.8322
 38      0.0000     0.0000E+00    0.0000E+00    8.710000E+06  0.02000  1.154E-02    0   0.8861   age067_m62            0.0000     2.8057E+00    19.4677   1.6416    86.0646
 39      0.0000     0.0000E+00    0.0000E+00    1.445000E+07  0.02000  7.663E-03    0   0.8472   age078_m62            0.0000     2.2447E+00    17.1377   1.8047    87.4603
 40      0.0000     0.0000E+00    0.0000E+00    2.512000E+07  0.02000  4.532E-03    0   0.8099   age090_m62            0.0000     2.3319E+00    17.4432   1.8070    86.7754
 41      0.0000     0.0000E+00    0.0000E+00    5.500000E+07  0.02000  2.733E-03    0   0.7595   age110_m62            0.0000     2.0091E+00    16.0113   1.7969    87.8899
 42      0.0000     0.0000E+00    0.0000E+00    1.609000E+08  0.02000  1.369E-03    0   0.6985   age120_m62            0.0000     1.8404E+00    15.1743   1.6105    91.6156
 43      0.0000     0.0000E+00    0.0000E+00    2.861200E+08  0.02000  9.013E-04    0   0.6714   age125_m62            0.0000     1.6923E+00    14.4897   1.3223    96.1143
 44      0.0000     0.0000E+00    0.0000E+00    5.088000E+08  0.02000  5.028E-04    0   0.6449   age130_m62            0.0000     1.2700E+00    12.7705   0.8522   103.5383
 45      0.0000     0.0000E+00    0.0000E+00    9.047900E+08  0.02000  2.428E-04    0   0.6179   age135_m62            0.0000     9.3148E-01    11.4709   0.1926   106.8633
 46      0.0000     0.0000E+00    0.0000E+00    1.434000E+09  0.02000  1.263E-04    0   0.5908   age139_m62            0.0000     8.4063E-01    11.0634  -0.2715   106.3460
 47      0.0000     0.0000E+00    0.0000E+00    2.500000E+09  0.02000  5.985E-05    0   0.5673   age150_m62            0.0000     7.4361E-01    10.5549  -0.6599   106.1201
 48      0.0000     0.0000E+00    0.0000E+00    4.250000E+09  0.02000  3.271E-05    0   0.5468   age158_m62            0.0000     6.8341E-01    10.1910  -0.9888   106.5363
 49      5.7222     1.1816E+01    1.1355E+01    1.000000E+10  0.02000  1.360E-05    0   0.5167   age181_m62            0.0000     8.7785E-01    12.3830  -1.0000    92.6321
 50      7.7334     3.0485E+01    2.8422E+01    1.800000E+10  0.02000  7.124E-06    0   0.5013   age213_m62            0.0000     1.1866E+00    14.3252  -1.0000    83.9679
 51      0.0000     0.0000E+00    0.0000E+00    1.000000E+06  0.05000  2.592E-02    0   0.9998   age020_m72            0.0000     1.8899E+00    15.5517   3.0682    78.0131
 52      0.0000     0.0000E+00    0.0000E+00    3.160000E+06  0.05000  4.845E-02    0   0.9577   age045_m72            0.0000     1.8493E+00    15.3278   2.8964    79.8610
 53      0.0000     0.0000E+00    0.0000E+00    5.010000E+06  0.05000  3.072E-02    0   0.9147   age055_m72            0.0000     2.1121E+00    16.5145   2.4086    83.6724
 54      0.0000     0.0000E+00    0.0000E+00    6.610000E+06  0.05000  1.455E-02    0   0.8877   age061_m72            0.0000     3.2374E+00    21.2348   1.7082    86.2926
 55      0.0000     0.0000E+00    0.0000E+00    1.000000E+07  0.05000  9.074E-03    0   0.8524   age070_m72            0.0000     2.1703E+00    16.6941   2.6113    82.9924
 56      0.0000     0.0000E+00    0.0000E+00    2.512000E+07  0.05000  4.250E-03    0   0.7902   age090_m72            0.0000     2.1561E+00    16.5841   2.2889    85.2218
 57      0.0000     0.0000E+00    0.0000E+00    4.000000E+07  0.05000  3.087E-03    0   0.7618   age104_m72            0.0000     2.1975E+00    16.7480   2.0554    86.8418
 58      0.0000     0.0000E+00    0.0000E+00    1.015200E+08  0.05000  1.700E-03    0   0.7096   age116_m72            0.0000     1.9502E+00    15.6492   1.7649    90.6616
 59      0.0000     0.0000E+00    0.0000E+00    2.861200E+08  0.05000  7.384E-04    0   0.6633   age125_m72            0.0000     1.4854E+00    13.6287   1.1456    99.7527
 60      0.0000     0.0000E+00    0.0000E+00    5.088000E+08  0.05000  3.819E-04    0   0.6372   age130_m72            0.0000     1.0694E+00    11.9836   0.5645   106.0606
 61      9.4561     1.5845E+00    1.8005E+00    9.047900E+08  0.05000  1.676E-04    0   0.6110   age135_m72            0.0000     7.6090E-01    10.6392  -0.1993   107.8731
 62      0.0000     0.0000E+00    0.0000E+00    1.434000E+09  0.05000  8.837E-05    0   0.5874   age139_m72            0.0000     7.1957E-01    10.3831  -0.6781   108.6458
 63     84.5826     5.6115E+01    5.8423E+01    2.500000E+09  0.05000  4.233E-05    0   0.5598   age150_m72            0.0000     6.7256E-01    10.1298  -0.9993   108.0077
 64      0.0000     0.0000E+00    0.0000E+00    6.250000E+09  0.05000  1.435E-05    0   0.5249   age166_m72            0.0000     9.9961E-01    13.2712  -1.0000    88.4948
 65      0.0000     0.0000E+00    0.0000E+00    1.300000E+10  0.05000  6.513E-06    0   0.5036   age193_m72            0.0000     1.4895E+00    16.0447  -1.0000    78.9555
 66      0.0000     0.0000E+00    0.0000E+00    1.800000E+10  0.05000  4.527E-06    0   0.4945   age213_m72            0.0000     1.8437E+00    17.7229  -1.0000    73.2395


## Synthesis Results - Average & Chains ##

# j      x_j: min, <> & last-chain-values for 1 ...  7 chains
  1      0.0000      0.0106      0.0000      0.0000      0.0000      0.0000      0.0000      0.0000      0.0000
  2      0.0000      0.0085      0.0000      0.0000      0.0000      0.0000      0.0000      0.0000      0.0000
  3      0.0000      0.0047      0.0000      0.0000      0.0000      0.0000      0.0000      0.0000      0.0000
  4      0.0000      0.0058      0.0000      0.0000      0.0000      0.0000      0.1235      0.0000      0.0000
  5      0.0000      0.0104      0.0000      0.0000      0.0000      0.0000      0.0000      0.0000      0.0000
  6      0.0000      0.0176      0.0000      0.0000      0.0000      0.0000      0.0000      0.0000      0.0000
  7      0.0000      0.0059      0.0000      0.0000      0.0000      0.0000      0.0000      0.0000      0.0000
  8      0.0000      0.0153      0.0000      0.0000      0.0000      0.0000      0.0000      0.0000      0.0000
  9      0.0000      0.0316      0.0000      0.0000      0.0000      0.0000      0.0000      0.0000      0.0000
 10      0.0000      0.0183      0.0000      0.0236      0.0000      0.0000      0.0000      0.0000      0.0000
 11      0.0000      0.0315      0.0000      0.0000      0.0000      0.0000      0.0000      0.0000      0.0000
 12      0.0000      0.0408      0.0000      0.0000      0.0000      0.0000      0.0000      0.0000      0.0000
 13      0.0000      0.0819      0.0000      0.0357      0.0000      0.0000      0.0000      0.0000      0.0000
 14      0.0000      0.2131      0.0000      0.0000      0.0000      0.0000      0.1694      0.0000      0.0000
 15      0.0000      0.4712      0.0000      0.0000      2.3662      0.5600      0.0000      0.2609      0.0000
 16      0.0000      0.5811      0.0000      2.9214      0.0000      0.0000      0.0000      0.0000      0.3471
 17      0.0000      0.5542      0.0000      0.0000      0.2995      0.0000      0.0000      0.0000      0.0000
 18      0.0000      0.0117      0.0000      0.0000      0.0000      0.0000      0.0000      0.0000      0.0000
 19      0.0000      0.0094      0.0000      0.0000      0.0000      0.0000      0.0000      0.0000      0.0000
 20      0.0000      0.0067      0.0000      0.0000      0.0000      0.0000      0.0000      0.0000      0.0000
 21      0.0000      0.0085      0.0000      0.0000      0.0000      0.0000      0.0000      0.0000      0.0000
 22      0.0000      0.0058      0.0000      0.0000      0.0000      0.0000      0.0000      0.0000      0.0000
 23      0.0000      0.0115      0.0000      0.0000      0.0000      0.0000      0.0000      0.0000      0.0000
 24      0.0000      0.0170      0.0141      0.0000      0.0000      0.0000      0.0000      0.0000      0.0000
 25      0.0000      0.0118      0.0000      0.0000      0.0000      0.0000      0.0000      0.0000      0.0000
 26      0.0000      0.0125      0.0000      0.0000      0.0000      0.0000      0.0000      0.0000      0.0000
 27      0.0000      0.0284      0.0000      0.0175      0.0000      0.0000      0.0000      0.0000      0.0000
 28      0.0000      0.1566      0.0000      0.9804      0.0000      0.0000      0.0817      0.0000      0.0000
 29      0.0000      0.1734      0.0000      0.5320      0.0000      0.0000      0.0000      0.0000      0.0000
 30      0.0000      0.5111      0.0000      0.0000      0.0000      1.0992      0.0000      0.0407      0.0000
 31      0.0000      0.7153      0.0000      4.9213      0.0000      0.0000      0.0000      0.0000      1.1791
 32      0.0000      0.8215      0.0000      0.0000      0.0000      0.0000      0.0000      1.6008      0.4333
 33      0.0000      0.1419      0.0000      0.0000      0.0000      0.0000      0.0000      0.6357      0.0000
 34      0.0000      0.3776      0.0000      0.0000      0.0000      0.0000      0.0000      0.0000      1.0652
 35      0.0000      0.0035      0.0000      0.0000      0.0000      0.0000      0.0000      0.0000      0.0000
 36      0.0000      0.0072      0.0000      0.0000      0.0000      0.0000      0.0000      0.0000      0.0000
 37      0.0000      0.0029      0.0000      0.0000      0.0000      0.0000      0.0000      0.0000      0.0000
 38      0.0000      0.0032      0.0000      0.0000      0.0000      0.0000      0.0000      0.0000      0.0000
 39      0.0000      0.0097      0.0000      0.0000      0.0000      0.0000      0.0000      0.0000      0.0000
 40      0.0000      0.0046      0.0000      0.0000      0.0000      0.0000      0.0000      0.0000      0.0000
 41      0.0000      0.0091      0.0000      0.0000      0.0000      0.0000      0.0000      0.0000      0.0000
 42      0.0000      0.0152      0.0000      0.0000      0.0000      0.0000      0.0000      0.0000      0.0000
 43      0.0000      0.0153      0.0000      0.0000      0.0000      0.0000      0.0000      0.0000      0.0000
 44      0.0000      0.1996      0.0000      0.0000      0.0000      0.0000      0.0000      0.0000      0.0000
 45      0.0000      0.4664      0.8960      0.0764      0.0000      0.0000      0.4973      0.0000      0.0000
 46      0.0000      1.1511      1.7993      3.2723      0.0000      0.0000      0.0000      1.3103      4.2297
