###################################################################
## OUTPUT of StarlightChains_v04.for    [Cid@UFSC - 01/Apr/2007] ##
###################################################################

## Some input info
2016hnk.txt                              [arq_obs]
Base.CB07.vall.4m                        [arq_base]
Masks.EmLines.NEW.gm                     [arq_masks]
StCv04.C11.config                        [arq_config]
   66                                    [N_base]
    0                                    [N_YAV_components = # of components with extra extinction!]
    0                                    [i_FitPowerLaw (1/0 = Yes/No)]
-9.99                                    [alpha_PowerLaw]
CCM                                      [red_law_option]
 1.458241                                [q_norm = A(l_norm)/A(V)]

## (Re)Sampling Parameters
 3741.00                                 [l_ini (A)]
 7218.00                                 [l_fin (A)]
    1.00                                 [dl    (A)]     (OBS: dl_cushion =    50.00 A)

## Normalization info
 4020.00                                 [l_norm (A) - for base]
 4010.00                                 [llow_norm (A) - window for f_obs]
 4060.00                                 [lupp_norm (A) - window for f_obs]
9.853193E-17                             [fobs_norm (in input units)]

## S/N
 3691.00                                 [llow_SN (A) - window for S/N]
 7268.00                                 [lupp_SN (A) - window for S/N]
   4.306                                 [S/N in S/N window]
   5.042                                 [S/N in norm. window]
   0.000                                 [S/N_err in S/N window]
   0.000                                 [S/N_err in norm. window]
  1.0000                                 [fscale_chi2]

## etc...
    -2007435                             [idum_orig]
  2203                                   [NOl_eff]
  2095                                   [Nl_eff]
   108    NSIGMA                         [Ntot_cliped & clip_method]
  1701350                                [Nglobal_steps]
   7                                     [N_chains]
  23                                     [NEX0s_base = N_base in EX0s-fits]
 0   0   1        4   2.0   4.502E+01    [Clip-Bug, RC-Crash & Burn-In warning-flags, n_censored_weights, wei_nsig_threshold & wei_limit]
    16     16.099     15.599      0.500  [idt_all, wdt_TotTime, wdt_UsrTime & wdt_SysTime (sec)]

## Synthesis Results - Best model ##

 1.23799E+00                             [chi2/Nl_eff]
    21.78909                             [adev (%)]

    99.87507                             [sum-of-x (%)]
 2.14671E-16                             [Flux_tot (units of input spectrum!)]
 2.89503E-12                             [Mini_tot (???)]
 1.48060E-12                             [Mcor_tot (???)]

  83.40                                  [v0_min  (km/s)]
 130.23                                  [vd_min  (km/s)]
 0.5807                                  [AV_min  (mag)]
 0.0000                                  [YAV_min (mag)]

# j     x_j(%)      Mini_j(%)     Mcor_j(%)     age_j(yr)     Z_j      (L/M)_j    YAV?  Mstars   component_j        a/Fe...       SSP_chi2r SSP_adev(%)   SSP_AV   SSP_x(%)
  1      0.0000     0.0000E+00    0.0000E+00    1.000000E+06  0.00400  1.094E-02    0   1.0000   age020_m42            0.0000     2.0628E+00    20.5217   3.2824    67.6029
  2      0.0000     0.0000E+00    0.0000E+00    3.160000E+06  0.00400  4.007E-02    0   0.9999   age045_m42            0.0000     1.9237E+00    19.3230   2.5264    73.4727
  3      0.0000     0.0000E+00    0.0000E+00    5.010000E+06  0.00400  2.539E-02    0   0.9488   age055_m42            0.0000     1.9626E+00    19.8150   2.8493    71.5078
  4      0.0000     0.0000E+00    0.0000E+00    6.610000E+06  0.00400  2.620E-02    0   0.9220   age061_m42            0.0000     1.8652E+00    19.1583   2.4295    74.5155
  5      0.0001     5.3276E-07    9.2317E-07    1.000000E+07  0.00400  1.322E-02    0   0.8862   age070_m42            0.0000     1.6115E+00    19.4219   1.9897    82.2573
  6      0.0000     0.0000E+00    0.0000E+00    1.445000E+07  0.00400  7.883E-03    0   0.8571   age078_m42            0.0000     1.6979E+00    19.7517   2.3474    78.9701
  7      0.0000     0.0000E+00    0.0000E+00    2.512000E+07  0.00400  5.251E-03    0   0.8174   age090_m42            0.0000     1.5696E+00    19.4392   1.8234    84.1971
  8      0.0000     0.0000E+00    0.0000E+00    4.000000E+07  0.00400  3.649E-03    0   0.7851   age104_m42            0.0000     1.5470E+00    19.1238   1.6055    84.5060
  9      0.0000     0.0000E+00    0.0000E+00    5.500000E+07  0.00400  3.098E-03    0   0.7629   age110_m42            0.0000     1.6275E+00    18.7057   1.8279    81.7581
 10      0.0000     0.0000E+00    0.0000E+00    1.015200E+08  0.00400  2.228E-03    0   0.7207   age116_m42            0.0000     1.6676E+00    18.4191   1.8869    80.3754
 11      0.0000     0.0000E+00    0.0000E+00    2.861200E+08  0.00400  1.093E-03    0   0.6648   age125_m42            0.0000     1.5280E+00    18.1906   1.2455    85.9552
 12      0.0005     5.6215E-05    6.9962E-05    5.088000E+08  0.00400  6.597E-04    0   0.6365   age130_m42            0.0000     1.5534E+00    17.7107   1.3008    83.8704
 13      0.0000     0.0000E+00    0.0000E+00    1.434000E+09  0.00400  2.132E-04    0   0.5798   age139_m42            0.0000     1.3902E+00    17.0863   0.3353    84.9403
 14      0.0000     0.0000E+00    0.0000E+00    4.250000E+09  0.00400  5.895E-05    0   0.5377   age158_m42            0.0000     1.4521E+00    17.5646   0.0149    76.9491
 15      0.0000     0.0000E+00    0.0000E+00    7.500000E+09  0.00400  3.510E-05    0   0.5212   age171_m42            0.0000     1.4504E+00    17.6454  -0.1250    74.7357
 16      0.0000     0.0000E+00    0.0000E+00    1.300000E+10  0.00400  2.005E-05    0   0.5034   age193_m42            0.0000     1.4567E+00    17.7484  -0.2445    72.7813
 17      0.0000     0.0000E+00    0.0000E+00    1.800000E+10  0.00400  1.525E-05    0   0.4967   age213_m42            0.0000     1.4478E+00    17.7381  -0.2855    73.0274
 18      0.0000     0.0000E+00    0.0000E+00    1.000000E+06  0.00800  1.238E-02    0   1.0000   age020_m52            0.0000     2.0587E+00    20.5204   3.2787    67.7303
 19      0.4839     1.1687E-03    2.2775E-03    3.160000E+06  0.00800  3.074E-02    0   0.9966   age045_m52            0.0000     2.0471E+00    20.4332   3.2025    68.2930
 20      0.0000     0.0000E+00    0.0000E+00    5.010000E+06  0.00800  2.668E-02    0   0.9443   age055_m52            0.0000     1.9477E+00    19.9333   2.9298    70.9031
 21      0.0008     2.7329E-06    4.9039E-06    6.610000E+06  0.00800  2.136E-02    0   0.9177   age061_m52            0.0000     1.5579E+00    19.3616   1.5100    82.2121
 22      0.0010     6.1527E-06    1.0619E-05    1.000000E+07  0.00800  1.215E-02    0   0.8827   age070_m52            0.0000     1.5618E+00    19.7838   2.1286    83.7124
 23      0.0005     4.3637E-06    7.2968E-06    1.445000E+07  0.00800  8.717E-03    0   0.8552   age078_m52            0.0000     1.6388E+00    19.5897   2.2971    80.6275
 24      0.0000     0.0000E+00    0.0000E+00    2.512000E+07  0.00800  5.592E-03    0   0.8162   age090_m52            0.0000     1.5092E+00    19.3428   1.8691    85.9113
 25      0.0000     0.0000E+00    0.0000E+00    4.000000E+07  0.00800  3.896E-03    0   0.7841   age104_m52            0.0000     1.5172E+00    18.9390   1.8124    85.3581
 26      0.0000     0.0000E+00    0.0000E+00    1.015200E+08  0.00800  2.148E-03    0   0.7226   age116_m52            0.0000     1.5930E+00    18.4523   1.8197    82.4148
 27      0.0000     0.0000E+00    0.0000E+00    2.861200E+08  0.00800  9.925E-04    0   0.6683   age125_m52            0.0000     1.5208E+00    17.5531   1.3697    84.4860
 28      0.0000     0.0000E+00    0.0000E+00    9.047900E+08  0.00800  3.141E-04    0   0.6138   age135_m52            0.0000     1.4406E+00    16.8693   0.6391    84.9739
 29      0.0000     0.0000E+00    0.0000E+00    1.434000E+09  0.00800  1.719E-04    0   0.5853   age139_m52            0.0000     1.3794E+00    17.1090   0.0609    82.9960
 30      0.0000     0.0000E+00    0.0000E+00    2.500000E+09  0.00800  7.872E-05    0   0.5600   age150_m52            0.0000     1.4291E+00    17.3419  -0.0843    76.0772
 31      0.0000     0.0000E+00    0.0000E+00    4.250000E+09  0.00800  4.336E-05    0   0.5426   age158_m52            0.0000     1.4314E+00    17.4558  -0.0915    75.0830
 32      0.0000     0.0000E+00    0.0000E+00    6.250000E+09  0.00800  3.159E-05    0   0.5319   age166_m52            0.0000     1.4398E+00    17.4673  -0.2405    73.1909
 33      3.7239     2.0315E+01    2.0151E+01    1.300000E+10  0.00800  1.361E-05    0   0.5073   age193_m52            0.0000     1.4660E+00    17.5762  -0.6463    70.5108
 34      1.8053     1.3558E+01    1.3229E+01    1.800000E+10  0.00800  9.886E-06    0   0.4990   age213_m52            0.0000     1.4893E+00    17.6986  -0.6977    68.3124
 35      0.0000     0.0000E+00    0.0000E+00    1.000000E+06  0.02000  1.544E-02    0   1.0000   age020_m62            0.0000     2.0583E+00    20.5594   3.2764    67.8229
 36      1.0462     2.0647E-03    3.9797E-03    3.160000E+06  0.02000  3.762E-02    0   0.9858   age045_m62            0.0000     2.0554E+00    20.5434   3.2203    68.2704
 37      0.0000     0.0000E+00    0.0000E+00    5.010000E+06  0.02000  3.296E-02    0   0.9342   age055_m62            0.0000     1.9398E+00    19.5001   2.8219    71.9615
 38     76.8337     4.9432E-01    8.5646E-01    8.710000E+06  0.02000  1.154E-02    0   0.8861   age067_m62            0.0000     1.2822E+00    22.8600   1.2579   100.8444
 39      0.0007     7.0078E-06    1.1609E-05    1.445000E+07  0.02000  7.663E-03    0   0.8472   age078_m62            0.0000     1.4225E+00    20.3228   1.6704    90.1733
 40      0.0000     0.0000E+00    0.0000E+00    2.512000E+07  0.02000  4.532E-03    0   0.8099   age090_m62            0.0000     1.4056E+00    20.3776   1.6379    91.0735
 41      0.0000     0.0000E+00    0.0000E+00    5.500000E+07  0.02000  2.733E-03    0   0.7595   age110_m62            0.0000     1.5018E+00    19.0001   1.7915    84.8436
 42      0.0000     0.0000E+00    0.0000E+00    1.609000E+08  0.02000  1.369E-03    0   0.6985   age120_m62            0.0000     1.5420E+00    18.0139   1.7060    84.1207
 43      0.0000     0.0000E+00    0.0000E+00    2.861200E+08  0.02000  9.013E-04    0   0.6714   age125_m62            0.0000     1.5164E+00    17.3478   1.4781    85.5429
 44      0.0000     0.0000E+00    0.0000E+00    5.088000E+08  0.02000  5.028E-04    0   0.6449   age130_m62            0.0000     1.5441E+00    16.8933   1.1958    83.8323
 45      0.0000     0.0000E+00    0.0000E+00    9.047900E+08  0.02000  2.428E-04    0   0.6179   age135_m62            0.0000     1.4639E+00    16.9593   0.6617    81.1678
 46      0.0000     0.0000E+00    0.0000E+00    1.434000E+09  0.02000  1.263E-04    0   0.5908   age139_m62            0.0000     1.4300E+00    17.1522   0.2453    78.8093
 47      0.0000     0.0000E+00    0.0000E+00    2.500000E+09  0.02000  5.985E-05    0   0.5673   age150_m62            0.0000     1.4656E+00    17.4357  -0.0365    74.5895
 48      0.0000     0.0000E+00    0.0000E+00    4.250000E+09  0.02000  3.271E-05    0   0.5468   age158_m62            0.0000     1.4908E+00    17.6180  -0.2621    71.1612
 49      4.5591     2.4889E+01    2.5145E+01    1.000000E+10  0.02000  1.360E-05    0   0.5167   age181_m62            0.0000     1.5125E+00    17.7715  -0.5317    68.2829
 50      0.0000     0.0000E+00    0.0000E+00    1.800000E+10  0.02000  7.124E-06    0   0.5013   age213_m62            0.0000     1.5481E+00    17.9836  -0.6742    65.6369
 51      0.0000     0.0000E+00    0.0000E+00    1.000000E+06  0.05000  2.592E-02    0   0.9998   age020_m72            0.0000     2.0595E+00    20.6849   3.2623    67.9974
 52      0.0000     0.0000E+00    0.0000E+00    3.160000E+06  0.05000  4.845E-02    0   0.9577   age045_m72            0.0000     2.0388E+00    20.1467   3.1072    69.0649
 53      0.0000     0.0000E+00    0.0000E+00    5.010000E+06  0.05000  3.072E-02    0   0.9147   age055_m72            0.0000     1.6541E+00    20.2693   2.4086    80.6861
 54      6.6542     3.3954E-02    5.8935E-02    6.610000E+06  0.05000  1.455E-02    0   0.8877   age061_m72            0.0000     1.7628E+00    25.8414   1.2159   107.4790
 55      0.0000     0.0000E+00    0.0000E+00    1.000000E+07  0.05000  9.074E-03    0   0.8524   age070_m72            0.0000     1.8278E+00    20.7330   2.6511    78.8148
 56      0.0026     4.4713E-05    6.9085E-05    2.512000E+07  0.05000  4.250E-03    0   0.7902   age090_m72            0.0000     1.6547E+00    19.8821   2.2734    82.9556
 57      0.0000     0.0000E+00    0.0000E+00    4.000000E+07  0.05000  3.087E-03    0   0.7618   age104_m72            0.0000     1.6064E+00    19.7155   1.9911    86.5084
 58      0.0000     0.0000E+00    0.0000E+00    1.015200E+08  0.05000  1.700E-03    0   0.7096   age116_m72            0.0000     1.5240E+00    18.3124   1.7991    85.8174
 59      0.0000     0.0000E+00    0.0000E+00    2.861200E+08  0.05000  7.384E-04    0   0.6633   age125_m72            0.0000     1.5004E+00    16.9911   1.3881    84.8942
 60      0.0000     0.0000E+00    0.0000E+00    5.088000E+08  0.05000  3.819E-04    0   0.6372   age130_m72            0.0000     1.5041E+00    16.8293   0.9798    82.6732
 61      0.0000     0.0000E+00    0.0000E+00    9.047900E+08  0.05000  1.676E-04    0   0.6110   age135_m72            0.0000     1.5332E+00    17.2987   0.4121    76.2438
 62      0.0000     0.0000E+00    0.0000E+00    1.434000E+09  0.05000  8.837E-05    0   0.5874   age139_m72            0.0000     1.4810E+00    17.3692  -0.0330    75.4797
 63      0.0000     0.0000E+00    0.0000E+00    2.500000E+09  0.05000  4.233E-05    0   0.5598   age150_m72            0.0000     1.5319E+00    17.6750  -0.2377    70.8865
 64      2.1819     1.1289E+01    1.1586E+01    6.250000E+09  0.05000  1.435E-05    0   0.5249   age166_m72            0.0000     1.5592E+00    17.8802  -0.6111    67.3636
 65      2.5806     2.9418E+01    2.8968E+01    1.300000E+10  0.05000  6.513E-06    0   0.5036   age193_m72            0.0000     1.6151E+00    18.1962  -0.8061    65.3567
 66      0.0000     0.0000E+00    0.0000E+00    1.800000E+10  0.05000  4.527E-06    0   0.4945   age213_m72            0.0000     1.6697E+00    18.4325  -0.9146    63.6423


## Synthesis Results - Average & Chains ##

# j      x_j: min, <> & last-chain-values for 1 ...  7 chains
  1      0.0000      0.2419      0.0000      1.4405      0.1506      0.0080      0.8939      0.4462      0.0000
  2      0.0000      0.1685      0.0000      0.0000      0.0000      0.0000      0.0000      0.0000      0.0000
  3      0.0000      0.3766      0.0000      0.1199      0.0204      0.0000      0.0000      0.0000      0.2023
  4      0.0000      0.1574      0.0000      0.0000      0.2847      0.0000      0.0888      0.0000      0.0000
  5      0.0001      0.6392      0.0000      0.8314      0.0000      0.1165      0.7284      0.0000      0.5902
  6      0.0000      0.2117      1.5060      0.0000      1.6488      0.0000      0.0000      0.0000      0.5612
  7      0.0000      0.3919      0.0000      0.0000      0.3621      1.6573      0.0000      1.2292      0.0000
  8      0.0000      0.3601      0.0000      0.0000      0.3814      0.0000      0.0751      1.3125      0.0000
  9      0.0000      0.3214      0.7665      0.1084      0.3006      0.3298      0.7986      0.3231      0.0000
 10      0.0000      0.2979      0.0000      0.0000      0.0000      0.0000      0.0000      0.2386      0.2983
 11      0.0000      0.2922      0.0000      0.0000      0.0000      0.0000      0.0000      0.0000      0.0000
 12      0.0005      0.3824      0.0000      0.0000      0.0000      0.0000      0.0000      0.0000      0.5334
 13      0.0000      0.1735      0.0000      0.0000      0.3218      0.0000      0.0000      0.3475      0.0000
 14      0.0000      0.1224      0.0000      0.0000      0.4199      0.0000      0.0200      0.0000      0.2957
 15      0.0000      0.0606      0.0000      0.0794      0.1616      0.2868      0.0000      0.0000      0.0000
 16      0.0000      0.0652      0.0000      0.0932      0.0000      0.0000      0.6430      0.0000      0.0000
 17      0.0000      0.0406      0.0000      0.0425      0.0000      0.0000      0.0000      0.0000      0.0000
 18      0.0000      0.1292      0.0000      0.2127      0.0000      0.0000      0.0000      0.2142      0.0000
 19      0.4839      0.4691      0.9150      0.0000      0.2291      0.0000      0.8047      0.0000      0.7725
 20      0.0000      0.2053      0.0000      0.2826      0.0000      0.0000      0.0000      0.0000      0.2116
 21      0.0008      0.4756      0.3595      0.0000      0.4126      0.0000      0.0000      0.0000      1.1825
 22      0.0010      0.4106      0.5885      0.5840      1.0733      0.0000      0.3748      0.0000      1.1892
 23      0.0005      1.6176      1.7837      2.5058      1.2823      1.2594      0.1734      2.2732      3.5913
 24      0.0000      0.5590      1.0936      0.6932      1.9136      0.0000      1.2883      0.0000      0.0000
 25      0.0000      0.6496      1.0582      0.0000      0.6293      0.6702      0.0000      1.6335      0.0000
 26      0.0000      0.4958      0.0000      0.0000      0.2828      0.0000      0.3709      1.5138      0.0000
 27      0.0000      0.2935      0.0000      0.0000      0.0000      0.5321      0.0000      0.0883      0.0000
 28      0.0000      0.3229      0.0000      0.0805      0.0000      0.0000      0.0000      0.0000      0.0000
 29      0.0000      0.0978      0.0000      0.0646      0.0000      0.0000      0.0000      0.0000      0.0000
 30      0.0000      3.3612      3.0088      3.5774      2.9763      3.7305      4.4670      3.8096      2.0173
 31      0.0000      0.0838      0.0000      0.6497      0.0000      0.0000      0.0000      0.0000      0.0000
 32      0.0000      0.5075      0.0000      0.5222      0.3197      0.0000      0.6367      0.9556      0.9563
 33      3.7239      3.2893      3.9674      3.0503      3.6671      3.2823      3.2720      3.5856      3.7107
 34      1.8053      1.2676      1.3087      1.2958      1.2539      1.4700      1.1458      1.5049      1.6868
 35      0.0000      0.1609      0.3435      0.0000      0.7915      0.0000      0.0000      0.0000      0.0051
 36      1.0462      0.3530      1.2799      0.3540      0.0000      0.8647      0.0834      0.0000      0.8557
 37      0.0000      0.2936      0.3297      1.3341      0.0000      0.1754      0.0000      0.0000      0.0000
 38     76.8337     44.1102     46.2941     47.5408     48.5419     49.9963     46.8893     47.5175     49.4720
 39      0.0007      1.9580      3.2218      2.5085      0.2882      2.0123      1.6188      2.7425      0.3942
 40      0.0000      0.5554      0.0000      0.1794      0.4777      0.0000      0.0717      0.9192      0.8351
 41      0.0000      0.5289      0.0000      1.2362      0.1935      1.1256      5.4478      0.0000      0.0000
 42      0.0000      0.4925      0.4668      0.6386      0.0000      0.0411      0.0000      0.0000      1.0168
 43      0.0000      0.3899      0.9858      0.0000      0.4966      0.6334      0.0000      0.0000      0.2114
 44      0.0000      0.4215      0.0752      0.0000      0.2042      0.5420      0.0000      0.0000      0.0000
 45      0.0000      0.4088      0.5262      0.0000      0.0000      0.7835      0.0000      0.0000      0.0000
 46      0.0000      0.8356      0.0000      0.7085      0.2159      0.0000      0.2872      0.0000      0.0000
