###################################################################
## OUTPUT of StarlightChains_v04.for    [Cid@UFSC - 01/Apr/2007] ##
###################################################################

## Some input info
2016bkv.txt                              [arq_obs]
Base.CB07.vall.4m                        [arq_base]
Masks.EmLines.NEW.gm                     [arq_masks]
StCv04.C11.config                        [arq_config]
   66                                    [N_base]
    0                                    [N_YAV_components = # of components with extra extinction!]
    0                                    [i_FitPowerLaw (1/0 = Yes/No)]
-9.99                                    [alpha_PowerLaw]
CCM                                      [red_law_option]
 1.458241                                [q_norm = A(l_norm)/A(V)]

## (Re)Sampling Parameters
 3741.00                                 [l_ini (A)]
 7218.00                                 [l_fin (A)]
    1.00                                 [dl    (A)]     (OBS: dl_cushion =    50.00 A)

## Normalization info
 4020.00                                 [l_norm (A) - for base]
 4010.00                                 [llow_norm (A) - window for f_obs]
 4060.00                                 [lupp_norm (A) - window for f_obs]
4.044476E-15                             [fobs_norm (in input units)]

## S/N
 3691.00                                 [llow_SN (A) - window for S/N]
 7268.00                                 [lupp_SN (A) - window for S/N]
   8.631                                 [S/N in S/N window]
   8.613                                 [S/N in norm. window]
  10.000                                 [S/N_err in S/N window]
   9.979                                 [S/N_err in norm. window]
  1.0000                                 [fscale_chi2]

## etc...
    -2007430                             [idum_orig]
  2405                                   [NOl_eff]
  2402                                   [Nl_eff]
     3    NSIGMA                         [Ntot_cliped & clip_method]
  1488550                                [Nglobal_steps]
   7                                     [N_chains]
  25                                     [NEX0s_base = N_base in EX0s-fits]
 0   0   1      108   2.0   1.329E+01    [Clip-Bug, RC-Crash & Burn-In warning-flags, n_censored_weights, wei_nsig_threshold & wei_limit]
    13     12.935     12.443      0.492  [idt_all, wdt_TotTime, wdt_UsrTime & wdt_SysTime (sec)]

## Synthesis Results - Best model ##

 3.31738E-01                             [chi2/Nl_eff]
     4.27178                             [adev (%)]

    98.22198                             [sum-of-x (%)]
 5.75446E-15                             [Flux_tot (units of input spectrum!)]
 1.50048E-10                             [Mini_tot (???)]
 7.81463E-11                             [Mcor_tot (???)]

-150.47                                  [v0_min  (km/s)]
 351.96                                  [vd_min  (km/s)]
 0.2759                                  [AV_min  (mag)]
 0.0000                                  [YAV_min (mag)]

# j     x_j(%)      Mini_j(%)     Mcor_j(%)     age_j(yr)     Z_j      (L/M)_j    YAV?  Mstars   component_j        a/Fe...       SSP_chi2r SSP_adev(%)   SSP_AV   SSP_x(%)
  1      4.1118     1.4675E-02    2.8177E-02    1.000000E+06  0.00400  1.094E-02    0   1.0000   age020_m42            0.0000     7.0554E-01     6.2646   3.3038    84.1939
  2      0.0000     0.0000E+00    0.0000E+00    3.160000E+06  0.00400  4.007E-02    0   0.9999   age045_m42            0.0000     6.2037E-01     5.8408   2.5675    90.3452
  3      0.0000     0.0000E+00    0.0000E+00    5.010000E+06  0.00400  2.539E-02    0   0.9488   age055_m42            0.0000     6.3940E-01     5.9195   2.8928    87.9523
  4      0.0000     0.0000E+00    0.0000E+00    6.610000E+06  0.00400  2.620E-02    0   0.9220   age061_m42            0.0000     6.2259E-01     5.7585   2.4930    90.5685
  5      0.0094     2.7898E-05    4.7472E-05    1.000000E+07  0.00400  1.322E-02    0   0.8862   age070_m42            0.0000     6.0216E-01     5.6390   2.2085    92.4310
  6      0.0000     0.0000E+00    0.0000E+00    1.445000E+07  0.00400  7.883E-03    0   0.8571   age078_m42            0.0000     6.2553E-01     5.7744   2.5396    89.9491
  7      0.0000     0.0000E+00    0.0000E+00    2.512000E+07  0.00400  5.251E-03    0   0.8174   age090_m42            0.0000     6.1329E-01     5.7132   2.0783    92.9255
  8      0.0000     0.0000E+00    0.0000E+00    4.000000E+07  0.00400  3.649E-03    0   0.7851   age104_m42            0.0000     5.9037E-01     5.5799   1.8471    93.8813
  9      0.0000     0.0000E+00    0.0000E+00    5.500000E+07  0.00400  3.098E-03    0   0.7629   age110_m42            0.0000     6.2304E-01     5.6093   2.0007    93.9512
 10      0.0000     0.0000E+00    0.0000E+00    1.015200E+08  0.00400  2.228E-03    0   0.7207   age116_m42            0.0000     6.6537E-01     5.7199   2.0207    94.1841
 11      0.0000     0.0000E+00    0.0000E+00    2.861200E+08  0.00400  1.093E-03    0   0.6648   age125_m42            0.0000     6.6864E-01     5.7819   1.4425    97.2896
 12      0.0000     0.0000E+00    0.0000E+00    5.088000E+08  0.00400  6.597E-04    0   0.6365   age130_m42            0.0000     7.0622E-01     5.8359   1.4315    98.2699
 13      0.0000     0.0000E+00    0.0000E+00    1.434000E+09  0.00400  2.132E-04    0   0.5798   age139_m42            0.0000     5.6483E-01     5.2229   0.4511   100.8140
 14      4.1924     2.7768E+00    2.8668E+00    4.250000E+09  0.00400  5.895E-05    0   0.5377   age158_m42            0.0000     4.6952E-01     5.0822   0.0052    97.3583
 15      5.3674     5.9707E+00    5.9752E+00    7.500000E+09  0.00400  3.510E-05    0   0.5212   age171_m42            0.0000     5.2110E-01     5.3771  -0.1856    96.9030
 16     13.3471     2.5992E+01    2.5123E+01    1.300000E+10  0.00400  2.005E-05    0   0.5034   age193_m42            0.0000     5.8866E-01     5.7498  -0.3533    96.5440
 17      0.0000     0.0000E+00    0.0000E+00    1.800000E+10  0.00400  1.525E-05    0   0.4967   age213_m42            0.0000     5.6875E-01     5.6639  -0.3755    96.0765
 18      1.8278     5.7645E-03    1.1068E-02    1.000000E+06  0.00800  1.238E-02    0   1.0000   age020_m52            0.0000     7.0515E-01     6.2604   3.3016    84.3159
 19      4.5574     5.7886E-03    1.1077E-02    3.160000E+06  0.00800  3.074E-02    0   0.9966   age045_m52            0.0000     6.9512E-01     6.1940   3.2239    85.1068
 20      0.0000     0.0000E+00    0.0000E+00    5.010000E+06  0.00800  2.668E-02    0   0.9443   age055_m52            0.0000     6.4410E-01     5.9253   2.9763    87.1274
 21      2.3066     4.2163E-03    7.4295E-03    6.610000E+06  0.00800  2.136E-02    0   0.9177   age061_m52            0.0000     4.7051E-01     5.0710   1.7037    93.7897
 22      0.0000     0.0000E+00    0.0000E+00    1.000000E+07  0.00800  1.215E-02    0   0.8827   age070_m52            0.0000     6.2531E-01     5.7847   2.3889    92.1239
 23      0.0000     0.0000E+00    0.0000E+00    1.445000E+07  0.00800  8.717E-03    0   0.8552   age078_m52            0.0000     6.0951E-01     5.6807   2.5040    91.2411
 24      0.0000     0.0000E+00    0.0000E+00    2.512000E+07  0.00800  5.592E-03    0   0.8162   age090_m52            0.0000     6.1543E-01     5.7120   2.1404    94.0841
 25      0.0116     1.1650E-04    1.7539E-04    4.000000E+07  0.00800  3.896E-03    0   0.7841   age104_m52            0.0000     6.1004E-01     5.6360   2.0504    94.9397
 26      0.0000     0.0000E+00    0.0000E+00    1.015200E+08  0.00800  2.148E-03    0   0.7226   age116_m52            0.0000     6.1258E-01     5.5388   1.9874    94.9432
 27      0.0000     0.0000E+00    0.0000E+00    2.861200E+08  0.00800  9.925E-04    0   0.6683   age125_m52            0.0000     7.0879E-01     5.7730   1.4959    99.2041
 28      0.0000     0.0000E+00    0.0000E+00    9.047900E+08  0.00800  3.141E-04    0   0.6138   age135_m52            0.0000     6.8360E-01     5.7126   0.6862   104.0436
 29      0.0000     0.0000E+00    0.0000E+00    1.434000E+09  0.00800  1.719E-04    0   0.5853   age139_m52            0.0000     5.3679E-01     5.2966   0.1030   102.1563
 30      0.0000     0.0000E+00    0.0000E+00    2.500000E+09  0.00800  7.872E-05    0   0.5600   age150_m52            0.0000     5.8880E-01     5.6181  -0.1676    99.7232
 31      0.0000     0.0000E+00    0.0000E+00    4.250000E+09  0.00800  4.336E-05    0   0.5426   age158_m52            0.0000     5.9411E-01     5.6755  -0.1839    98.8406
 32      1.3317     1.6460E+00    1.6810E+00    6.250000E+09  0.00800  3.159E-05    0   0.5319   age166_m52            0.0000     7.2584E-01     6.2753  -0.3896    99.0983
 33      0.0000     0.0000E+00    0.0000E+00    1.300000E+10  0.00800  1.361E-05    0   0.5073   age193_m52            0.0000     9.5172E-01     7.1129  -0.8615    98.7344
 34      0.0000     0.0000E+00    0.0000E+00    1.800000E+10  0.00800  9.886E-06    0   0.4990   age213_m52            0.0000     1.1676E+00     7.8599  -0.9710    98.3914
 35      7.0830     1.7912E-02    3.4392E-02    1.000000E+06  0.02000  1.544E-02    0   1.0000   age020_m62            0.0000     7.0888E-01     6.2783   3.2979    84.5018
 36      4.0017     4.1533E-03    7.8615E-03    3.160000E+06  0.02000  3.762E-02    0   0.9858   age045_m62            0.0000     7.0891E-01     6.2574   3.2358    85.2882
 37      0.0000     0.0000E+00    0.0000E+00    5.010000E+06  0.02000  3.296E-02    0   0.9342   age055_m62            0.0000     6.3892E-01     5.8722   2.8493    89.1895
 38      5.2957     1.7918E-02    3.0485E-02    8.710000E+06  0.02000  1.154E-02    0   0.8861   age067_m62            0.0000     9.9319E-01     7.8438   1.8389    94.3309
 39      0.0000     0.0000E+00    0.0000E+00    1.445000E+07  0.02000  7.663E-03    0   0.8472   age078_m62            0.0000     6.6537E-01     6.1292   2.0317    94.2557
 40      0.0000     0.0000E+00    0.0000E+00    2.512000E+07  0.02000  4.532E-03    0   0.8099   age090_m62            0.0000     7.0903E-01     6.3417   2.0230    93.9999
 41      0.0000     0.0000E+00    0.0000E+00    5.500000E+07  0.02000  2.733E-03    0   0.7595   age110_m62            0.0000     5.9545E-01     5.5372   2.0326    94.2943
 42      0.0000     0.0000E+00    0.0000E+00    1.609000E+08  0.02000  1.369E-03    0   0.6985   age120_m62            0.0000     6.8908E-01     5.6774   1.8668    97.1793
 43      0.0000     0.0000E+00    0.0000E+00    2.861200E+08  0.02000  9.013E-04    0   0.6714   age125_m62            0.0000     7.9364E-01     5.9190   1.6119   100.2232
 44      0.0000     0.0000E+00    0.0000E+00    5.088000E+08  0.02000  5.028E-04    0   0.6449   age130_m62            0.0000     8.5431E-01     6.1749   1.2283   103.3045
 45      0.0000     0.0000E+00    0.0000E+00    9.047900E+08  0.02000  2.428E-04    0   0.6179   age135_m62            0.0000     6.6675E-01     5.7120   0.6323   103.3165
 46      0.0000     0.0000E+00    0.0000E+00    1.434000E+09  0.02000  1.263E-04    0   0.5908   age139_m62            0.0000     6.0312E-01     5.5723   0.1833   102.1347
 47     13.9066     9.0724E+00    9.8823E+00    2.500000E+09  0.02000  5.985E-05    0   0.5673   age150_m62            0.0000     7.1275E-01     6.1754  -0.1867   101.0694
 48     18.1465     2.1661E+01    2.2742E+01    4.250000E+09  0.02000  3.271E-05    0   0.5468   age158_m62            0.0000     9.4951E-01     7.1462  -0.4953   100.5264
 49      0.0000     0.0000E+00    0.0000E+00    1.000000E+10  0.02000  1.360E-05    0   0.5167   age181_m62            0.0000     1.3478E+00     8.4144  -0.8460   100.3509
 50      0.0000     0.0000E+00    0.0000E+00    1.800000E+10  0.02000  7.124E-06    0   0.5013   age213_m62            0.0000     1.7061E+00     9.2875  -1.0000    97.6158
 51      4.6547     7.0116E-03    1.3460E-02    1.000000E+06  0.05000  2.592E-02    0   0.9998   age020_m72            0.0000     7.2232E-01     6.3295   3.2897    84.5024
 52      2.2208     1.7897E-03    3.2911E-03    3.160000E+06  0.05000  4.845E-02    0   0.9577   age045_m72            0.0000     6.8050E-01     6.1130   3.1160    86.5396
 53      0.0000     0.0000E+00    0.0000E+00    5.010000E+06  0.05000  3.072E-02    0   0.9147   age055_m72            0.0000     6.6621E-01     6.0255   2.6246    90.5441
 54      0.0000     0.0000E+00    0.0000E+00    6.610000E+06  0.05000  1.455E-02    0   0.8877   age061_m72            0.0000     1.5585E+00    10.1735   1.8824    95.0139
 55      0.0000     0.0000E+00    0.0000E+00    1.000000E+07  0.05000  9.074E-03    0   0.8524   age070_m72            0.0000     7.8510E-01     6.6393   2.8087    90.2460
 56      0.0000     0.0000E+00    0.0000E+00    2.512000E+07  0.05000  4.250E-03    0   0.7902   age090_m72            0.0000     7.1640E-01     6.2681   2.5018    92.1653
 57      0.0000     0.0000E+00    0.0000E+00    4.000000E+07  0.05000  3.087E-03    0   0.7618   age104_m72            0.0000     7.4548E-01     6.3844   2.2706    93.7971
 58      0.0000     0.0000E+00    0.0000E+00    1.015200E+08  0.05000  1.700E-03    0   0.7096   age116_m72            0.0000     7.0501E-01     5.8091   2.0097    96.6717
 59      0.0000     0.0000E+00    0.0000E+00    2.861200E+08  0.05000  7.384E-04    0   0.6633   age125_m72            0.0000     8.4586E-01     6.0896   1.4767   101.8009
 60      0.0000     0.0000E+00    0.0000E+00    5.088000E+08  0.05000  3.819E-04    0   0.6372   age130_m72            0.0000     7.6269E-01     5.9105   0.9765   104.0212
 61      0.0000     0.0000E+00    0.0000E+00    9.047900E+08  0.05000  1.676E-04    0   0.6110   age135_m72            0.0000     7.4929E-01     6.2659   0.2728   102.8486
 62      0.0000     0.0000E+00    0.0000E+00    1.434000E+09  0.05000  8.837E-05    0   0.5874   age139_m72            0.0000     7.7823E-01     6.4325  -0.1896   102.6794
 63      0.4123     3.8030E-01    4.0877E-01    2.500000E+09  0.05000  4.233E-05    0   0.5598   age150_m72            0.0000     1.0550E+00     7.5362  -0.4980   101.5215
 64      2.4517     6.6710E+00    6.7234E+00    6.250000E+09  0.05000  1.435E-05    0   0.5249   age166_m72            0.0000     1.4414E+00     8.7741  -0.9426    99.9825
 65      0.0000     0.0000E+00    0.0000E+00    1.300000E+10  0.05000  6.513E-06    0   0.5036   age193_m72            0.0000     2.0592E+00     9.7844  -1.0000    92.8695
 66      2.9856     2.5751E+01    2.4450E+01    1.800000E+10  0.05000  4.527E-06    0   0.4945   age213_m72            0.0000     2.6497E+00    10.8806  -1.0000    86.9553


## Synthesis Results - Average & Chains ##

# j      x_j: min, <> & last-chain-values for 1 ...  7 chains
  1      4.1118      1.2405      0.0000      2.5763      2.5216      2.1013      1.2873      1.1604      0.0000
  2      0.0000      0.1472      0.2497      0.0000      0.0893      0.0000      0.0000      0.5166      0.0000
  3      0.0000      0.2882      0.0000      0.0287      0.0000      0.0000      0.0000      1.5744      1.1567
  4      0.0000      0.3826      2.0001      0.7874      1.0163      0.0000      0.9761      0.0000      0.0000
  5      0.0094      0.3854      0.7588      0.0000      0.7789      0.0000      0.0000      0.0000      0.0000
  6      0.0000      0.4850      0.0000      0.0000      0.0000      0.0000      0.9932      0.0000      0.0000
  7      0.0000      0.3487      0.0000      0.0380      0.0000      0.0000      0.0000      0.0000      0.5355
  8      0.0000      0.2533      0.0000      0.0000      0.0000      0.0000      1.7670      1.4971      0.0000
  9      0.0000      0.2547      0.0000      0.0081      0.0000      1.6192      0.3654      0.0000      0.0000
 10      0.0000      0.1908      0.0000      0.0000      0.0000      0.0000      0.0000      0.0000      0.0000
 11      0.0000      0.2435      0.0000      0.0000      0.0000      0.0000      0.0000      0.0000      0.0000
 12      0.0000      0.3575      0.0000      0.0000      0.0000      1.0295      0.0000      0.0000      0.0000
 13      0.0000      0.6268      0.0000      0.2147      0.0000      0.0000      0.0000      0.0000      0.0000
 14      4.1924      4.6843      1.7738      6.7589      3.4379      5.3227      5.4718      1.5561      4.9445
 15      5.3674      4.7008      6.4329      4.0465      6.7610      0.0000      5.1686      4.5735      7.3748
 16     13.3471      5.4603      5.9531      6.1431      5.6440      9.0232      6.2099      9.0187      3.0155
 17      0.0000      1.6673      1.4975      1.7044      0.0000      1.1892      2.0296      0.0000      2.5041
 18      1.8278      1.7144      4.8285      2.0247      1.9351      0.6763      2.2254      0.0000      1.1604
 19      4.5574      4.4948      3.8805      5.5353      4.4238      4.8960      3.6589      2.3161      5.9351
 20      0.0000      0.6416      0.4340      0.0000      0.5560      2.2010      0.7079      0.0000      2.4013
 21      2.3066      1.6154      2.3798      2.5283      1.3732      3.9747      1.6118      2.5289      2.9318
 22      0.0000      0.6413      0.0000      0.0000      0.0000      2.6233      0.0000      1.2835      0.0000
 23      0.0000      0.4150      0.0000      3.2614      0.0000      0.0000      0.0000      0.9481      0.0000
 24      0.0000      0.3340      0.0000      0.0000      0.0000      0.0000      1.7550      0.0000      0.0000
 25      0.0116      0.5094      0.0000      0.3425      2.8083      0.0000      0.0708      0.0000      0.0000
 26      0.0000      0.3257      0.0000      0.0000      0.0000      0.5439      0.0000      0.9362      0.0282
 27      0.0000      0.2010      0.0000      0.0000      0.0007      0.0000      0.0000      0.0000      0.0000
 28      0.0000      0.3702      0.0000      0.0000      0.0000      0.0000      0.0000      0.0000      0.0000
 29      0.0000      0.7274      1.7029      2.7148      0.0000      0.0000      0.0000      0.3222      0.0000
 30      0.0000      1.8205      2.3701      0.6286      0.0000      1.1782      0.0000      0.0000      0.6814
 31      0.0000      1.6856      0.0000      0.0000      0.0000      0.0000      0.0000      3.8336      1.6810
 32      1.3317      1.5187      2.7555      0.7690      2.1565      2.0671      4.5755      0.0000      1.1173
 33      0.0000      0.4018      0.0000      0.0000      0.3524      2.1333      0.0000      1.0508      0.0000
 34      0.0000      0.1731      0.0000      0.0000      0.0000      0.0000      0.0000      0.0000      0.0000
 35      7.0830      4.1789      5.6927      6.7160      4.4634      4.5201      6.0992      4.4933      5.4338
 36      4.0017      3.8655      4.8110      2.9748      3.8403      3.6847      2.9311      4.9681      3.7906
 37      0.0000      0.4272      0.2905      1.0412      0.2704      0.0000      0.6194      0.0000      2.6263
 38      5.2957      5.6962      6.5634      4.9324      4.6379      3.3120      7.8155      6.0773      7.0455
 39      0.0000      0.4130      0.0000      0.0000      0.0000      0.8980      0.0000      0.3009      0.0000
 40      0.0000      0.4244      0.0000      0.0000      1.2629      0.0000      0.0000      0.0000      0.0000
 41      0.0000      0.1969      0.3386      0.0000      0.0000      0.0000      0.0000      0.0000      0.0000
 42      0.0000      0.1592      0.0000      0.0000      0.0000      0.0000      0.0000      0.0000      0.0000
 43      0.0000      0.2522      0.3171      0.0000      0.0000      0.0000      0.0000      0.0000      0.0000
 44      0.0000      0.2776      1.0245      0.0000      0.0000      0.0000      0.0000      0.0000      0.0000
 45      0.0000      0.5908      0.0000      0.5584      0.0000      0.0000      0.0000      0.0000      0.0000
 46      0.0000      1.4286      0.0000      0.0000      0.0000      0.6596      0.0000      0.5701      0.0000
