###################################################################
## OUTPUT of StarlightChains_v04.for    [Cid@UFSC - 01/Apr/2007] ##
###################################################################

## Some input info
2017glq.txt                              [arq_obs]
Base.CB07.vall.4m                        [arq_base]
Masks.EmLines.NEW.gm                     [arq_masks]
StCv04.C11.config                        [arq_config]
   66                                    [N_base]
    0                                    [N_YAV_components = # of components with extra extinction!]
    0                                    [i_FitPowerLaw (1/0 = Yes/No)]
-9.99                                    [alpha_PowerLaw]
CCM                                      [red_law_option]
 1.458241                                [q_norm = A(l_norm)/A(V)]

## (Re)Sampling Parameters
 3741.00                                 [l_ini (A)]
 7218.00                                 [l_fin (A)]
    1.00                                 [dl    (A)]     (OBS: dl_cushion =    50.00 A)

## Normalization info
 4020.00                                 [l_norm (A) - for base]
 4010.00                                 [llow_norm (A) - window for f_obs]
 4060.00                                 [lupp_norm (A) - window for f_obs]
7.038370E-17                             [fobs_norm (in input units)]

## S/N
 3691.00                                 [llow_SN (A) - window for S/N]
 7268.00                                 [lupp_SN (A) - window for S/N]
   6.604                                 [S/N in S/N window]
   7.197                                 [S/N in norm. window]
  10.000                                 [S/N_err in S/N window]
  10.898                                 [S/N_err in norm. window]
  1.0000                                 [fscale_chi2]

## etc...
    -2007440                             [idum_orig]
  2378                                   [NOl_eff]
  2302                                   [Nl_eff]
    76    NSIGMA                         [Ntot_cliped & clip_method]
   898100                                [Nglobal_steps]
   7                                     [N_chains]
  16                                     [NEX0s_base = N_base in EX0s-fits]
 0   0   1       21   2.0   2.879E+01    [Clip-Bug, RC-Crash & Burn-In warning-flags, n_censored_weights, wei_nsig_threshold & wei_limit]
    11     11.323     10.823      0.500  [idt_all, wdt_TotTime, wdt_UsrTime & wdt_SysTime (sec)]

## Synthesis Results - Best model ##

 5.94071E-01                             [chi2/Nl_eff]
     5.70390                             [adev (%)]

   100.63547                             [sum-of-x (%)]
 4.61281E-17                             [Flux_tot (units of input spectrum!)]
 2.12691E-12                             [Mini_tot (???)]
 1.08415E-12                             [Mcor_tot (???)]

 -15.13                                  [v0_min  (km/s)]
 188.98                                  [vd_min  (km/s)]
-0.3193                                  [AV_min  (mag)]
 0.0000                                  [YAV_min (mag)]

# j     x_j(%)      Mini_j(%)     Mcor_j(%)     age_j(yr)     Z_j      (L/M)_j    YAV?  Mstars   component_j        a/Fe...       SSP_chi2r SSP_adev(%)   SSP_AV   SSP_x(%)
  1      0.0000     0.0000E+00    0.0000E+00    1.000000E+06  0.00400  1.094E-02    0   1.0000   age020_m42            0.0000     1.8184E+00     8.6232   3.2107    78.1049
  2      0.0000     0.0000E+00    0.0000E+00    3.160000E+06  0.00400  4.007E-02    0   0.9999   age045_m42            0.0000     1.3732E+00     7.6936   2.4479    84.9618
  3      0.0000     0.0000E+00    0.0000E+00    5.010000E+06  0.00400  2.539E-02    0   0.9488   age055_m42            0.0000     1.5739E+00     8.0898   2.7841    82.2176
  4      0.0000     0.0000E+00    0.0000E+00    6.610000E+06  0.00400  2.620E-02    0   0.9220   age061_m42            0.0000     1.3744E+00     7.6502   2.3711    85.2417
  5      0.0000     0.0000E+00    0.0000E+00    1.000000E+07  0.00400  1.322E-02    0   0.8862   age070_m42            0.0000     1.5651E+00     8.1501   2.0916    86.6546
  6      0.0000     0.0000E+00    0.0000E+00    1.445000E+07  0.00400  7.883E-03    0   0.8571   age078_m42            0.0000     1.6721E+00     8.3560   2.4301    84.0223
  7      0.0000     0.0000E+00    0.0000E+00    2.512000E+07  0.00400  5.251E-03    0   0.8174   age090_m42            0.0000     1.5866E+00     8.2658   1.9609    87.1292
  8      0.0000     0.0000E+00    0.0000E+00    4.000000E+07  0.00400  3.649E-03    0   0.7851   age104_m42            0.0000     1.4719E+00     7.9987   1.7243    88.2800
  9      0.0000     0.0000E+00    0.0000E+00    5.500000E+07  0.00400  3.098E-03    0   0.7629   age110_m42            0.0000     1.3409E+00     7.5970   1.8714    88.6939
 10      0.0000     0.0000E+00    0.0000E+00    1.015200E+08  0.00400  2.228E-03    0   0.7207   age116_m42            0.0000     1.2631E+00     7.3599   1.8855    89.2110
 11      0.0000     0.0000E+00    0.0000E+00    2.861200E+08  0.00400  1.093E-03    0   0.6648   age125_m42            0.0000     1.2268E+00     7.4535   1.2994    92.4704
 12      0.0000     0.0000E+00    0.0000E+00    5.088000E+08  0.00400  6.597E-04    0   0.6365   age130_m42            0.0000     1.0767E+00     6.9888   1.2808    93.8168
 13      0.0000     0.0000E+00    0.0000E+00    1.434000E+09  0.00400  2.132E-04    0   0.5798   age139_m42            0.0000     7.6883E-01     6.2259   0.2960    96.5437
 14      0.0000     0.0000E+00    0.0000E+00    4.250000E+09  0.00400  5.895E-05    0   0.5377   age158_m42            0.0000     7.1508E-01     6.0121  -0.1358    92.6981
 15      0.0000     0.0000E+00    0.0000E+00    7.500000E+09  0.00400  3.510E-05    0   0.5212   age171_m42            0.0000     7.1318E-01     5.9971  -0.3258    92.2579
 16      0.0000     0.0000E+00    0.0000E+00    1.300000E+10  0.00400  2.005E-05    0   0.5034   age193_m42            0.0000     7.2972E-01     6.0513  -0.4931    91.9329
 17      3.4572     4.8857E+00    4.7607E+00    1.800000E+10  0.00400  1.525E-05    0   0.4967   age213_m42            0.0000     7.3923E-01     6.0712  -0.5138    91.4171
 18      0.0000     0.0000E+00    0.0000E+00    1.000000E+06  0.00800  1.238E-02    0   1.0000   age020_m52            0.0000     1.8157E+00     8.6182   3.2070    78.2631
 19      0.0000     0.0000E+00    0.0000E+00    3.160000E+06  0.00800  3.074E-02    0   0.9966   age045_m52            0.0000     1.7817E+00     8.5398   3.1285    79.0433
 20      0.0000     0.0000E+00    0.0000E+00    5.010000E+06  0.00800  2.668E-02    0   0.9443   age055_m52            0.0000     1.6323E+00     8.1998   2.8722    81.2642
 21      0.0000     0.0000E+00    0.0000E+00    6.610000E+06  0.00800  2.136E-02    0   0.9177   age061_m52            0.0000     1.4502E+00     7.9187   1.5936    87.6815
 22      0.0000     0.0000E+00    0.0000E+00    1.000000E+07  0.00800  1.215E-02    0   0.8827   age070_m52            0.0000     1.7098E+00     8.5524   2.2770    86.0915
 23      0.0000     0.0000E+00    0.0000E+00    1.445000E+07  0.00800  8.717E-03    0   0.8552   age078_m52            0.0000     1.6302E+00     8.2659   2.3917    85.3347
 24      0.0000     0.0000E+00    0.0000E+00    2.512000E+07  0.00800  5.592E-03    0   0.8162   age090_m52            0.0000     1.5742E+00     8.2655   2.0221    88.2477
 25      0.0000     0.0000E+00    0.0000E+00    4.000000E+07  0.00800  3.896E-03    0   0.7841   age104_m52            0.0000     1.4487E+00     7.9591   1.9253    89.3749
 26      0.0000     0.0000E+00    0.0000E+00    1.015200E+08  0.00800  2.148E-03    0   0.7226   age116_m52            0.0000     1.2706E+00     7.4678   1.8536    89.8231
 27      0.0000     0.0000E+00    0.0000E+00    2.861200E+08  0.00800  9.925E-04    0   0.6683   age125_m52            0.0000     1.0610E+00     6.9384   1.3429    94.7877
 28     46.0417     3.1590E+00    3.8039E+00    9.047900E+08  0.00800  3.141E-04    0   0.6138   age135_m52            0.0000     7.0640E-01     6.0929   0.5183   100.2614
 29      0.0000     0.0000E+00    0.0000E+00    1.434000E+09  0.00800  1.719E-04    0   0.5853   age139_m52            0.0000     6.8054E-01     6.0249  -0.0520    97.8756
 30      0.0000     0.0000E+00    0.0000E+00    2.500000E+09  0.00800  7.872E-05    0   0.5600   age150_m52            0.0000     6.5442E-01     5.8695  -0.3188    95.4479
 31      0.0000     0.0000E+00    0.0000E+00    4.250000E+09  0.00800  4.336E-05    0   0.5426   age158_m52            0.0000     6.8020E-01     5.9254  -0.3312    94.4346
 32      0.0000     0.0000E+00    0.0000E+00    6.250000E+09  0.00800  3.159E-05    0   0.5319   age166_m52            0.0000     6.8992E-01     5.9958  -0.5410    94.9071
 33      0.0000     0.0000E+00    0.0000E+00    1.300000E+10  0.00800  1.361E-05    0   0.5073   age193_m52            0.0000     7.5516E-01     6.2455  -1.0000    94.2194
 34      0.0000     0.0000E+00    0.0000E+00    1.800000E+10  0.00800  9.886E-06    0   0.4990   age213_m52            0.0000     9.0444E-01     6.7284  -1.0000    90.1538
 35      0.0000     0.0000E+00    0.0000E+00    1.000000E+06  0.02000  1.544E-02    0   1.0000   age020_m62            0.0000     1.8280E+00     8.6463   3.2047    78.3906
 36      0.0000     0.0000E+00    0.0000E+00    3.160000E+06  0.02000  3.762E-02    0   0.9858   age045_m62            0.0000     1.8241E+00     8.6412   3.1427    79.1198
 37      0.0000     0.0000E+00    0.0000E+00    5.010000E+06  0.02000  3.296E-02    0   0.9342   age055_m62            0.0000     1.4728E+00     7.8674   2.7361    83.5972
 38      0.0000     0.0000E+00    0.0000E+00    8.710000E+06  0.02000  1.154E-02    0   0.8861   age067_m62            0.0000     2.5948E+00    11.2837   1.7421    87.2343
 39      0.0000     0.0000E+00    0.0000E+00    1.445000E+07  0.02000  7.663E-03    0   0.8472   age078_m62            0.0000     1.8714E+00     9.1876   1.9225    87.9014
 40      0.0000     0.0000E+00    0.0000E+00    2.512000E+07  0.02000  4.532E-03    0   0.8099   age090_m62            0.0000     1.9140E+00     9.3339   1.9120    87.7182
 41      0.0000     0.0000E+00    0.0000E+00    5.500000E+07  0.02000  2.733E-03    0   0.7595   age110_m62            0.0000     1.4713E+00     7.9696   1.9098    88.6653
 42      0.0000     0.0000E+00    0.0000E+00    1.609000E+08  0.02000  1.369E-03    0   0.6985   age120_m62            0.0000     1.2189E+00     7.2712   1.7234    92.3784
 43      0.0000     0.0000E+00    0.0000E+00    2.861200E+08  0.02000  9.013E-04    0   0.6714   age125_m62            0.0000     1.0821E+00     6.9065   1.4538    95.9995
 44     14.1182     6.0513E-01    7.6560E-01    5.088000E+08  0.02000  5.028E-04    0   0.6449   age130_m62            0.0000     8.4144E-01     6.3756   1.0569    99.7085
 45      0.0036     3.2259E-04    3.9105E-04    9.047900E+08  0.02000  2.428E-04    0   0.6179   age135_m62            0.0000     6.5497E-01     5.8707   0.4672    99.4968
 46      0.0000     0.0000E+00    0.0000E+00    1.434000E+09  0.02000  1.263E-04    0   0.5908   age139_m62            0.0000     6.5570E-01     5.8442   0.0282    97.9177
 47      0.0000     0.0000E+00    0.0000E+00    2.500000E+09  0.02000  5.985E-05    0   0.5673   age150_m62            0.0000     6.8415E-01     5.9722  -0.3394    96.8419
 48      0.0000     0.0000E+00    0.0000E+00    4.250000E+09  0.02000  3.271E-05    0   0.5468   age158_m62            0.0000     7.3883E-01     6.2649  -0.6551    96.7084
 49     15.7395     2.4941E+01    2.5282E+01    1.000000E+10  0.02000  1.360E-05    0   0.5167   age181_m62            0.0000     9.0525E-01     6.8924  -1.0000    96.5151
 50     15.0397     4.5497E+01    4.4744E+01    1.800000E+10  0.02000  7.124E-06    0   0.5013   age213_m62            0.0000     1.2955E+00     7.8942  -1.0000    88.4754
 51      0.0000     0.0000E+00    0.0000E+00    1.000000E+06  0.05000  2.592E-02    0   0.9998   age020_m72            0.0000     1.8764E+00     8.7317   3.1988    78.3025
 52      0.0000     0.0000E+00    0.0000E+00    3.160000E+06  0.05000  4.845E-02    0   0.9577   age045_m72            0.0000     1.6817E+00     8.3476   3.0155    80.5936
 53      0.0000     0.0000E+00    0.0000E+00    5.010000E+06  0.05000  3.072E-02    0   0.9147   age055_m72            0.0000     1.8593E+00     8.9090   2.5196    84.3142
 54      0.0000     0.0000E+00    0.0000E+00    6.610000E+06  0.05000  1.455E-02    0   0.8877   age061_m72            0.0000     3.4097E+00    13.4501   1.7855    87.6615
 55      0.0000     0.0000E+00    0.0000E+00    1.000000E+07  0.05000  9.074E-03    0   0.8524   age070_m72            0.0000     2.0226E+00     9.3794   2.7000    84.1213
 56      0.0000     0.0000E+00    0.0000E+00    2.512000E+07  0.05000  4.250E-03    0   0.7902   age090_m72            0.0000     1.7685E+00     8.8079   2.3843    86.3413
 57      0.0000     0.0000E+00    0.0000E+00    4.000000E+07  0.05000  3.087E-03    0   0.7618   age104_m72            0.0000     1.7363E+00     8.7975   2.1478    88.1037
 58      0.0000     0.0000E+00    0.0000E+00    1.015200E+08  0.05000  1.700E-03    0   0.7096   age116_m72            0.0000     1.3290E+00     7.6219   1.8691    91.7161
 59      0.0000     0.0000E+00    0.0000E+00    2.861200E+08  0.05000  7.384E-04    0   0.6633   age125_m72            0.0000     9.4848E-01     6.5617   1.3104    97.9715
 60      0.0000     0.0000E+00    0.0000E+00    5.088000E+08  0.05000  3.819E-04    0   0.6372   age130_m72            0.0000     7.1353E-01     5.9919   0.8076   100.3461
 61      0.0000     0.0000E+00    0.0000E+00    9.047900E+08  0.05000  1.676E-04    0   0.6110   age135_m72            0.0000     6.7319E-01     5.9653   0.1126    98.8888
 62      0.0000     0.0000E+00    0.0000E+00    1.434000E+09  0.05000  8.837E-05    0   0.5874   age139_m72            0.0000     6.9649E-01     6.0382  -0.3469    98.6107
 63      0.0087     4.4210E-03    4.8553E-03    2.500000E+09  0.05000  4.233E-05    0   0.5598   age150_m72            0.0000     7.7958E-01     6.4327  -0.6613    97.8463
 64      0.0000     0.0000E+00    0.0000E+00    6.250000E+09  0.05000  1.435E-05    0   0.5249   age166_m72            0.0000     1.0163E+00     7.2098  -1.0000    92.7298
 65      6.0176     1.9912E+01    1.9672E+01    1.300000E+10  0.05000  6.513E-06    0   0.5036   age193_m72            0.0000     1.8040E+00     9.3088  -1.0000    83.8387
 66      0.2091     9.9559E-01    9.6584E-01    1.800000E+10  0.05000  4.527E-06    0   0.4945   age213_m72            0.0000     2.5070E+00    11.0015  -1.0000    78.2261


## Synthesis Results - Average & Chains ##

# j      x_j: min, <> & last-chain-values for 1 ...  7 chains
  1      0.0000      0.0208      0.0000      0.0000      0.0000      0.0000      0.0000      0.0000      0.0000
  2      0.0000      0.0639      0.0000      0.0000      0.0000      0.0000      0.0000      0.0000      0.0000
  3      0.0000      0.0276      0.0000      0.0000      0.0000      0.0000      0.0000      0.0000      0.0000
  4      0.0000      0.0703      0.0000      0.0000      0.0000      0.0000      0.0000      0.0000      0.0000
  5      0.0000      0.0226      0.0000      0.0000      0.0000      0.0000      0.0000      0.0000      0.0000
  6      0.0000      0.0239      0.0000      0.0000      0.0000      0.0000      0.0000      0.0000      0.0000
  7      0.0000      0.0709      0.0000      0.0000      0.0000      0.0000      0.0000      0.0000      0.0000
  8      0.0000      0.0650      0.0000      0.0000      0.0000      0.0000      0.0000      0.0000      0.0000
  9      0.0000      0.1147      0.0000      0.0000      0.0000      0.0000      0.0000      0.0000      0.0000
 10      0.0000      0.1017      0.0000      0.0000      0.0000      0.0000      0.1727      0.0000      0.0000
 11      0.0000      0.1106      0.0000      0.0000      0.0000      0.0000      0.0000      0.0000      1.7928
 12      0.0000      0.5604      0.5845      0.0000      0.0000      0.0659      0.5304      1.2291      0.0000
 13      0.0000      4.8092      7.7800      2.4281      6.3423      6.0700      1.6408     12.3451      5.0059
 14      0.0000      1.7516      2.9540      0.7491      0.0000      1.7592      0.0000      0.0000      0.0000
 15      0.0000      0.9818      1.8627      1.0517      0.0000      0.0000      0.0000      0.0000      0.0000
 16      0.0000      0.7012      0.0000      1.2325      2.6080      0.6694      0.0000      0.0000      0.0000
 17      3.4572      1.0193      0.9593      0.0000      0.8538      0.0000      0.0000      1.5801      0.1105
 18      0.0000      0.0229      0.0000      0.0000      0.0000      0.1137      0.0000      0.0000      0.0000
 19      0.0000      0.0161      0.0000      0.0000      0.0000      0.0000      0.0000      0.0000      0.0000
 20      0.0000      0.0205      0.0000      0.0000      0.0000      0.0000      0.0000      0.0000      0.0000
 21      0.0000      0.0381      0.0000      0.0000      0.0000      0.6502      0.0000      0.1688      0.0000
 22      0.0000      0.0428      0.0000      0.0000      0.0000      0.0000      0.0000      0.0000      0.0000
 23      0.0000      0.0488      0.0000      0.0000      0.3293      0.0000      0.0000      0.0124      0.0000
 24      0.0000      0.0939      0.0000      0.0000      0.0000      0.0000      0.0000      0.0000      0.0000
 25      0.0000      0.0480      0.0000      0.0000      0.0000      0.0000      0.2716      0.0000      0.0000
 26      0.0000      0.0744      0.0000      0.0000      0.0000      0.0000      0.0000      0.0000      0.0000
 27      0.0000      0.6139      0.0000      0.4031      0.0000      0.0000      0.0000      0.0000      3.2399
 28     46.0417     14.8274     16.3538     18.5024     16.4302     14.3123     18.3719     23.4844     18.8626
 29      0.0000      2.5357      3.2362      0.3120      5.9259      4.2626      0.3683      0.0000      0.0000
 30      0.0000      1.6082      3.9849      1.6387      0.0000      1.1039      2.1808      1.5416      1.0039
 31      0.0000      1.3718      0.0000      1.5751      0.0000      0.0000      0.0000      0.0000      0.0000
 32      0.0000      3.2470      1.7615      1.7042      2.0737      7.7079      6.0637      0.2559      2.3667
 33      0.0000      0.4868      0.0000      0.0000      0.2135      0.0000      0.1114      0.4262      0.4917
 34      0.0000      1.0799      1.2447      0.5098      0.0000      0.7296      0.8180      0.0000      1.6615
 35      0.0000      0.0134      0.0000      0.0000      0.0000      0.0000      0.0000      0.0000      0.0000
 36      0.0000      0.0160      0.0000      0.0000      0.0000      0.0000      0.0000      0.0088      0.0000
 37      0.0000      0.0341      0.0000      0.0000      0.0000      0.0000      0.0000      0.0000      0.0000
 38      0.0000      0.0500      0.0000      0.0000      0.0000      0.0000      0.0000      0.0000      0.0000
 39      0.0000      0.0521      0.0000      0.0000      0.0000      0.0000      0.0000      0.0000      0.0000
 40      0.0000      0.0241      0.0000      0.0000      0.0000      0.0000      0.3309      0.0000      0.0000
 41      0.0000      0.0808      0.0000      0.6259      0.0000      0.0000      0.0000      0.0418      0.0000
 42      0.0000      0.1578      0.1233      0.4928      0.0000      0.0000      0.5759      0.0000      0.0000
 43      0.0000      0.6175      0.0000      1.3493      1.8402      0.2943      0.0000      0.0000      0.0000
 44     14.1182     11.0075     12.9373     14.9503     12.4023     12.6139     13.6730      6.0617     13.6397
 45      0.0036      5.7027      6.2526      5.4125      5.2629      6.0638      6.1991      2.3261      7.5579
 46      0.0000      1.0402      0.0000      0.0000      0.0000      0.2714      1.6549      0.0000      0.0000
