###################################################################
## OUTPUT of StarlightChains_v04.for    [Cid@UFSC - 01/Apr/2007] ##
###################################################################

## Some input info
2017cio.txt                              [arq_obs]
Base.CB07.vall.4m                        [arq_base]
Masks.EmLines.NEW.gm                     [arq_masks]
StCv04.C11.config                        [arq_config]
   66                                    [N_base]
    0                                    [N_YAV_components = # of components with extra extinction!]
    0                                    [i_FitPowerLaw (1/0 = Yes/No)]
-9.99                                    [alpha_PowerLaw]
CCM                                      [red_law_option]
 1.458241                                [q_norm = A(l_norm)/A(V)]

## (Re)Sampling Parameters
 3741.00                                 [l_ini (A)]
 7218.00                                 [l_fin (A)]
    1.00                                 [dl    (A)]     (OBS: dl_cushion =    50.00 A)

## Normalization info
 4020.00                                 [l_norm (A) - for base]
 4010.00                                 [llow_norm (A) - window for f_obs]
 4060.00                                 [lupp_norm (A) - window for f_obs]
4.886733E-17                             [fobs_norm (in input units)]

## S/N
 3691.00                                 [llow_SN (A) - window for S/N]
 7268.00                                 [lupp_SN (A) - window for S/N]
   3.403                                 [S/N in S/N window]
   5.442                                 [S/N in norm. window]
   3.259                                 [S/N_err in S/N window]
   5.211                                 [S/N_err in norm. window]
  1.0000                                 [fscale_chi2]

## etc...
    -2007438                             [idum_orig]
  2384                                   [NOl_eff]
  2383                                   [Nl_eff]
     1    NSIGMA                         [Ntot_cliped & clip_method]
   582330                                [Nglobal_steps]
   7                                     [N_chains]
  15                                     [NEX0s_base = N_base in EX0s-fits]
 0   0   1       51   2.0   1.211E+01    [Clip-Bug, RC-Crash & Burn-In warning-flags, n_censored_weights, wei_nsig_threshold & wei_limit]
    10     10.839     10.347      0.492  [idt_all, wdt_TotTime, wdt_UsrTime & wdt_SysTime (sec)]

## Synthesis Results - Best model ##

 1.86692E-01                             [chi2/Nl_eff]
    10.16832                             [adev (%)]

    95.96737                             [sum-of-x (%)]
 7.96439E-17                             [Flux_tot (units of input spectrum!)]
 1.42942E-14                             [Mini_tot (???)]
 1.14933E-14                             [Mcor_tot (???)]

-179.90                                  [v0_min  (km/s)]
 155.62                                  [vd_min  (km/s)]
 0.3943                                  [AV_min  (mag)]
 0.0000                                  [YAV_min (mag)]

# j     x_j(%)      Mini_j(%)     Mcor_j(%)     age_j(yr)     Z_j      (L/M)_j    YAV?  Mstars   component_j        a/Fe...       SSP_chi2r SSP_adev(%)   SSP_AV   SSP_x(%)
  1      0.0000     0.0000E+00    0.0000E+00    1.000000E+06  0.00400  1.094E-02    0   1.0000   age020_m42            0.0000     2.4024E-01    11.5542   1.8818    84.1706
  2      0.0000     0.0000E+00    0.0000E+00    3.160000E+06  0.00400  4.007E-02    0   0.9999   age045_m42            0.0000     2.2499E-01    11.1280   1.1848    88.8062
  3      0.0000     0.0000E+00    0.0000E+00    5.010000E+06  0.00400  2.539E-02    0   0.9488   age055_m42            0.0000     2.2893E-01    11.2133   1.4908    87.1800
  4      0.0023     5.1676E-04    5.9256E-04    6.610000E+06  0.00400  2.620E-02    0   0.9220   age061_m42            0.0000     2.2082E-01    11.0564   1.1094    89.0925
  5      0.0000     0.0000E+00    0.0000E+00    1.000000E+07  0.00400  1.322E-02    0   0.8862   age070_m42            0.0000     1.9823E-01    10.4245   0.8011    92.2119
  6      0.0000     0.0000E+00    0.0000E+00    1.445000E+07  0.00400  7.883E-03    0   0.8571   age078_m42            0.0000     2.0336E-01    10.5620   1.1227    90.0853
  7      0.0000     0.0000E+00    0.0000E+00    2.512000E+07  0.00400  5.251E-03    0   0.8174   age090_m42            0.0000     1.9447E-01    10.3198   0.6682    92.8820
  8     43.6044     6.9379E+01    6.7743E+01    4.000000E+07  0.00400  3.649E-03    0   0.7851   age104_m42            0.0000     1.9510E-01    10.3562   0.4471    93.3586
  9      0.0000     0.0000E+00    0.0000E+00    5.500000E+07  0.00400  3.098E-03    0   0.7629   age110_m42            0.0000     2.0331E-01    10.6410   0.6181    92.5792
 10      0.0000     0.0000E+00    0.0000E+00    1.015200E+08  0.00400  2.228E-03    0   0.7207   age116_m42            0.0000     2.0983E-01    10.8815   0.6502    92.2280
 11      0.0000     0.0000E+00    0.0000E+00    2.861200E+08  0.00400  1.093E-03    0   0.6648   age125_m42            0.0000     2.0615E-01    10.7883   0.0772    95.1440
 12      0.0000     0.0000E+00    0.0000E+00    5.088000E+08  0.00400  6.597E-04    0   0.6365   age130_m42            0.0000     2.1640E-01    11.1820   0.0868    95.0415
 13      0.0000     0.0000E+00    0.0000E+00    1.434000E+09  0.00400  2.132E-04    0   0.5798   age139_m42            0.0000     2.2463E-01    11.5229  -0.8684    96.1237
 14      0.0000     0.0000E+00    0.0000E+00    4.250000E+09  0.00400  5.895E-05    0   0.5377   age158_m42            0.0000     2.8388E-01    13.2847  -1.0000    81.3881
 15      0.0000     0.0000E+00    0.0000E+00    7.500000E+09  0.00400  3.510E-05    0   0.5212   age171_m42            0.0000     3.4701E-01    14.7281  -1.0000    74.5534
 16      0.0000     0.0000E+00    0.0000E+00    1.300000E+10  0.00400  2.005E-05    0   0.5034   age193_m42            0.0000     4.1872E-01    16.1235  -1.0000    68.9115
 17      0.0000     0.0000E+00    0.0000E+00    1.800000E+10  0.00400  1.525E-05    0   0.4967   age213_m42            0.0000     4.2841E-01    16.2961  -1.0000    67.8919
 18      0.0000     0.0000E+00    0.0000E+00    1.000000E+06  0.00800  1.238E-02    0   1.0000   age020_m52            0.0000     2.4047E-01    11.5579   1.8782    84.3330
 19      0.0000     0.0000E+00    0.0000E+00    3.160000E+06  0.00800  3.074E-02    0   0.9966   age045_m52            0.0000     2.4019E-01    11.5310   1.8047    84.9573
 20      0.0000     0.0000E+00    0.0000E+00    5.010000E+06  0.00800  2.668E-02    0   0.9443   age055_m52            0.0000     2.2965E-01    11.2356   1.5676    86.6236
 21      0.0000     0.0000E+00    0.0000E+00    6.610000E+06  0.00800  2.136E-02    0   0.9177   age061_m52            0.0000     2.0162E-01    10.4944   0.3009    93.2179
 22      0.0000     0.0000E+00    0.0000E+00    1.000000E+07  0.00800  1.215E-02    0   0.8827   age070_m52            0.0000     1.9558E-01    10.3530   0.9674    92.5702
 23      0.0000     0.0000E+00    0.0000E+00    1.445000E+07  0.00800  8.717E-03    0   0.8552   age078_m52            0.0000     2.0136E-01    10.5060   1.0885    91.3104
 24      0.0000     0.0000E+00    0.0000E+00    2.512000E+07  0.00800  5.592E-03    0   0.8162   age090_m52            0.0000     1.9359E-01    10.3009   0.7308    94.0111
 25      0.0000     0.0000E+00    0.0000E+00    4.000000E+07  0.00800  3.896E-03    0   0.7841   age104_m52            0.0000     1.9606E-01    10.3943   0.6544    94.2368
 26      0.0000     0.0000E+00    0.0000E+00    1.015200E+08  0.00800  2.148E-03    0   0.7226   age116_m52            0.0000     2.0397E-01    10.6879   0.6106    93.2913
 27      0.0000     0.0000E+00    0.0000E+00    2.861200E+08  0.00800  9.925E-04    0   0.6683   age125_m52            0.0000     2.1484E-01    11.1581   0.1515    95.9400
 28      0.2379     4.3974E+00    3.3569E+00    9.047900E+08  0.00800  3.141E-04    0   0.6138   age135_m52            0.0000     2.3812E-01    12.0232  -0.6106    98.1780
 29      0.0000     0.0000E+00    0.0000E+00    1.434000E+09  0.00800  1.719E-04    0   0.5853   age139_m52            0.0000     2.6044E-01    12.7232  -1.0000    89.0009
 30      0.0000     0.0000E+00    0.0000E+00    2.500000E+09  0.00800  7.872E-05    0   0.5600   age150_m52            0.0000     3.4392E-01    14.7644  -1.0000    77.2613
 31      0.0000     0.0000E+00    0.0000E+00    4.250000E+09  0.00800  4.336E-05    0   0.5426   age158_m52            0.0000     3.5159E-01    14.8744  -1.0000    76.0336
 32      0.0000     0.0000E+00    0.0000E+00    6.250000E+09  0.00800  3.159E-05    0   0.5319   age166_m52            0.0000     4.4021E-01    16.6123  -1.0000    69.5016
 33      0.0000     0.0000E+00    0.0000E+00    1.300000E+10  0.00800  1.361E-05    0   0.5073   age193_m52            0.0000     6.9784E-01    20.7762  -1.0000    55.5507
 34      0.0000     0.0000E+00    0.0000E+00    1.800000E+10  0.00800  9.886E-06    0   0.4990   age213_m52            0.0000     7.6882E-01    21.7580  -1.0000    52.5191
 35      0.0000     0.0000E+00    0.0000E+00    1.000000E+06  0.02000  1.544E-02    0   1.0000   age020_m62            0.0000     2.4126E-01    11.5780   1.8736    84.5492
 36      0.0000     0.0000E+00    0.0000E+00    3.160000E+06  0.02000  3.762E-02    0   0.9858   age045_m62            0.0000     2.4254E-01    11.5992   1.8138    85.2374
 37      0.0000     0.0000E+00    0.0000E+00    5.010000E+06  0.02000  3.296E-02    0   0.9342   age055_m62            0.0000     2.3012E-01    11.2710   1.4575    87.9709
 38     52.1228     2.6224E+01    2.8899E+01    8.710000E+06  0.02000  1.154E-02    0   0.8861   age067_m62            0.0000     1.9282E-01    10.4973   0.3599    97.9686
 39      0.0000     0.0000E+00    0.0000E+00    1.445000E+07  0.02000  7.663E-03    0   0.8472   age078_m62            0.0000     1.9075E-01    10.2526   0.5975    95.4253
 40      0.0000     0.0000E+00    0.0000E+00    2.512000E+07  0.02000  4.532E-03    0   0.8099   age090_m62            0.0000     1.9065E-01    10.2514   0.5891    95.2103
 41      0.0000     0.0000E+00    0.0000E+00    5.500000E+07  0.02000  2.733E-03    0   0.7595   age110_m62            0.0000     1.9704E-01    10.4239   0.6337    93.6876
 42      0.0000     0.0000E+00    0.0000E+00    1.609000E+08  0.02000  1.369E-03    0   0.6985   age120_m62            0.0000     2.0824E-01    10.9043   0.5016    94.9471
 43      0.0000     0.0000E+00    0.0000E+00    2.861200E+08  0.02000  9.013E-04    0   0.6714   age125_m62            0.0000     2.1719E-01    11.2991   0.2679    96.8778
 44      0.0000     0.0000E+00    0.0000E+00    5.088000E+08  0.02000  5.028E-04    0   0.6449   age130_m62            0.0000     2.3735E-01    12.0597  -0.0784    97.9559
 45      0.0000     0.0000E+00    0.0000E+00    9.047900E+08  0.02000  2.428E-04    0   0.6179   age135_m62            0.0000     2.5186E-01    12.3618  -0.6532    96.8106
 46      0.0000     0.0000E+00    0.0000E+00    1.434000E+09  0.02000  1.263E-04    0   0.5908   age139_m62            0.0000     2.6990E-01    12.8530  -1.0000    91.6909
 47      0.0000     0.0000E+00    0.0000E+00    2.500000E+09  0.02000  5.985E-05    0   0.5673   age150_m62            0.0000     3.6488E-01    15.1742  -1.0000    77.5167
 48      0.0000     0.0000E+00    0.0000E+00    4.250000E+09  0.02000  3.271E-05    0   0.5468   age158_m62            0.0000     5.0229E-01    17.7261  -1.0000    67.0884
 49      0.0000     0.0000E+00    0.0000E+00    1.000000E+10  0.02000  1.360E-05    0   0.5167   age181_m62            0.0000     6.9981E-01    20.7654  -1.0000    56.8472
 50      0.0000     0.0000E+00    0.0000E+00    1.800000E+10  0.02000  7.124E-06    0   0.5013   age213_m62            0.0000     8.3476E-01    22.5893  -1.0000    51.0402
 51      0.0000     0.0000E+00    0.0000E+00    1.000000E+06  0.05000  2.592E-02    0   0.9998   age020_m72            0.0000     2.4213E-01    11.6067   1.8626    84.6765
 52      0.0000     0.0000E+00    0.0000E+00    3.160000E+06  0.05000  4.845E-02    0   0.9577   age045_m72            0.0000     2.3976E-01    11.4940   1.7065    85.9887
 53      0.0000     0.0000E+00    0.0000E+00    5.010000E+06  0.05000  3.072E-02    0   0.9147   age055_m72            0.0000     2.0688E-01    10.6933   1.1958    91.2476
 54      0.0000     0.0000E+00    0.0000E+00    6.610000E+06  0.05000  1.455E-02    0   0.8877   age061_m72            0.0000     2.3653E-01    11.5578   0.3850    99.9865
 55      0.0000     0.0000E+00    0.0000E+00    1.000000E+07  0.05000  9.074E-03    0   0.8524   age070_m72            0.0000     2.2142E-01    11.0500   1.3827    90.9145
 56      0.0000     0.0000E+00    0.0000E+00    2.512000E+07  0.05000  4.250E-03    0   0.7902   age090_m72            0.0000     2.0589E-01    10.6275   1.0880    92.3390
 57      0.0000     0.0000E+00    0.0000E+00    4.000000E+07  0.05000  3.087E-03    0   0.7618   age104_m72            0.0000     2.0405E-01    10.5896   0.8592    93.8944
 58      0.0000     0.0000E+00    0.0000E+00    1.015200E+08  0.05000  1.700E-03    0   0.7096   age116_m72            0.0000     2.0372E-01    10.7421   0.6315    95.1106
 59      0.0000     0.0000E+00    0.0000E+00    2.861200E+08  0.05000  7.384E-04    0   0.6633   age125_m72            0.0000     2.2766E-01    11.6968   0.1522    97.4204
 60      0.0000     0.0000E+00    0.0000E+00    5.088000E+08  0.05000  3.819E-04    0   0.6372   age130_m72            0.0000     2.4736E-01    12.3158  -0.3174    97.8827
 61      0.0000     0.0000E+00    0.0000E+00    9.047900E+08  0.05000  1.676E-04    0   0.6110   age135_m72            0.0000     2.8944E-01    13.2398  -0.9845    94.8490
 62      0.0000     0.0000E+00    0.0000E+00    1.434000E+09  0.05000  8.837E-05    0   0.5874   age139_m72            0.0000     3.7300E-01    15.3401  -1.0000    78.5864
 63      0.0000     0.0000E+00    0.0000E+00    2.500000E+09  0.05000  4.233E-05    0   0.5598   age150_m72            0.0000     5.1100E-01    17.8755  -1.0000    67.6248
 64      0.0000     0.0000E+00    0.0000E+00    6.250000E+09  0.05000  1.435E-05    0   0.5249   age166_m72            0.0000     7.6271E-01    21.6469  -1.0000    54.0526
 65      0.0000     0.0000E+00    0.0000E+00    1.300000E+10  0.05000  6.513E-06    0   0.5036   age193_m72            0.0000     9.4901E-01    24.0629  -1.0000    47.6822
 66      0.0000     0.0000E+00    0.0000E+00    1.800000E+10  0.05000  4.527E-06    0   0.4945   age213_m72            0.0000     1.0617E+00    25.4222  -1.0000    43.9799


## Synthesis Results - Average & Chains ##

# j      x_j: min, <> & last-chain-values for 1 ...  7 chains
  1      0.0000      0.2806      0.0000      0.0000      0.0000      0.0000      0.0000      0.0000      2.3929
  2      0.0000      1.0829      0.0000      2.4491      2.1657      0.0000      3.0084      0.0000      0.0000
  3      0.0000      0.7088      2.0552      0.3461      0.0000      0.0000      0.0000      0.0000      0.0000
  4      0.0023      0.7962      0.5414      0.0000      0.0000      0.0000      0.0000      0.1642      0.0000
  5      0.0000      3.4276     16.3001      0.0000      0.0000      0.0000     19.8720      2.2312      0.0000
  6      0.0000      1.0430      4.6654      9.6337      0.0000      0.0000      0.0000      0.0000      1.0366
  7      0.0000      5.1799      0.0000     18.7301      0.0000      0.1715      0.0000      0.0000      0.0000
  8     43.6044      3.6881      8.2495      0.0000      5.5665      0.0000      0.0000      2.6915      4.8545
  9      0.0000      4.1898      0.0000      0.0000      2.8421     16.0475      0.0000     14.6543      0.0000
 10      0.0000      2.6782      0.4086      0.0000      1.6874      0.0000      0.0000      0.0000      5.1157
 11      0.0000      0.4560      0.0000      0.0000      0.0432      4.3116      0.0000      0.8706      0.0000
 12      0.0000      0.5253      0.0000      0.0000      0.0000      0.0000      0.0000      0.0000      0.2430
 13      0.0000      0.0599      0.0000      0.0000      0.0000      0.0000      0.0000      0.0000      0.0000
 14      0.0000      0.0493      0.2058      0.0000      0.0000      0.0000      0.0000      0.0000      0.0000
 15      0.0000      0.0116      0.0000      0.0000      0.0000      0.0000      0.0000      0.0000      0.0000
 16      0.0000      0.0023      0.0000      0.0000      0.0000      0.0000      0.0000      0.0000      0.0000
 17      0.0000      0.0406      0.0000      0.0000      0.0000      0.0000      0.0000      0.0000      0.0000
 18      0.0000      0.5507      0.0000      0.8624      0.0000      0.0000      0.0000      0.0000      3.0264
 19      0.0000      0.3401      0.0000      0.0000      0.0000      0.0000      4.3288      0.0000      0.4378
 20      0.0000      0.3688      0.0000      0.0000      0.0000      0.0000      0.0000      1.2541      0.0000
 21      0.0000      2.1624      0.6981      1.2100      4.6538      0.6810      1.1059      0.0000      0.0000
 22      0.0000      2.2359      0.0000      0.0000      0.0000      9.1642      1.2221      0.0000      0.6799
 23      0.0000      1.0242      0.0000      0.0000      0.1987      1.0289      0.0000      7.7188      2.0568
 24      0.0000      4.1314     13.5691      0.0000      0.0000      0.0000      0.0000      6.6467     10.4095
 25      0.0000      5.7014      0.0000      0.0000     18.8940      1.1272      0.0000      0.0000      0.0000
 26      0.0000      2.6336      2.4551     14.0095      5.4999      0.0000      0.0000      0.0000     10.9590
 27      0.0000      1.2280      1.3444      3.7320      0.0000      0.0000      0.0000      1.0664      3.3750
 28      0.2379      0.0611      1.0615      0.0000      0.0000      0.0000      0.0549      0.0000      1.1928
 29      0.0000      0.0566      0.9447      0.0000      0.0000      0.0000      0.0000      0.0000      0.0000
 30      0.0000      0.0062      0.2799      0.0952      0.0000      0.0000      0.0000      0.0000      0.0000
 31      0.0000      0.0159      0.0000      0.0000      0.0000      0.0000      0.0000      0.0000      0.0000
 32      0.0000      0.0380      0.0000      0.0000      0.0000      0.0000      0.0000      0.0000      0.0000
 33      0.0000      0.0070      0.0000      0.0000      0.0000      0.0000      0.0000      0.0000      0.0000
 34      0.0000      0.0010      0.0000      0.0000      0.0000      0.0000      0.0000      0.0000      0.0000
 35      0.0000      0.3275      0.2928      0.0000      0.0000      0.0000      0.0000      1.2580      0.0000
 36      0.0000      0.2555      0.0000      0.0000      0.0000      5.0412      0.0000      0.0000      0.0000
 37      0.0000      0.5928      0.0000      0.0000      1.3489      0.0000      0.0000      0.0000      0.0000
 38     52.1228     13.3572     26.5682     34.3434     33.2004     29.2227     30.0136     28.8254     26.9501
 39      0.0000      8.4094      0.0000      0.0000      4.6206      5.3761      7.4103     15.8248     11.5202
 40      0.0000      7.2610     11.8100      0.0000      1.3778     11.8479     20.2183      4.3642      0.0000
 41      0.0000      4.2511      0.0000      0.0000      0.0000      3.8168      2.0231      0.0000      0.0000
 42      0.0000      1.2540      0.0000      1.1403      2.1160      0.0000      2.7189      0.0000      3.5044
 43      0.0000      1.0991      0.0000      0.0000      0.0000      0.0000      1.7034      0.5953      0.0000
 44      0.0000      0.3584      0.0000      0.0000      0.0000      0.0000      0.0000      0.0000      0.0000
 45      0.0000      0.1439      0.0000      0.0000      0.0000      0.0000      0.0000      0.0000      0.0000
 46      0.0000      0.0558      0.0000      0.0000      0.0620      0.0000      0.0000      0.0000      0.0000
