###################################################################
## OUTPUT of StarlightChains_v04.for    [Cid@UFSC - 01/Apr/2007] ##
###################################################################

## Some input info
2017fqo.txt                              [arq_obs]
Base.CB07.vall.4m                        [arq_base]
Masks.EmLines.NEW.gm                     [arq_masks]
StCv04.C11.config                        [arq_config]
   66                                    [N_base]
    0                                    [N_YAV_components = # of components with extra extinction!]
    0                                    [i_FitPowerLaw (1/0 = Yes/No)]
-9.99                                    [alpha_PowerLaw]
CCM                                      [red_law_option]
 1.458241                                [q_norm = A(l_norm)/A(V)]

## (Re)Sampling Parameters
 3741.00                                 [l_ini (A)]
 7218.00                                 [l_fin (A)]
    1.00                                 [dl    (A)]     (OBS: dl_cushion =    50.00 A)

## Normalization info
 4020.00                                 [l_norm (A) - for base]
 4010.00                                 [llow_norm (A) - window for f_obs]
 4060.00                                 [lupp_norm (A) - window for f_obs]
1.718087E-16                             [fobs_norm (in input units)]

## S/N
 3691.00                                 [llow_SN (A) - window for S/N]
 7268.00                                 [lupp_SN (A) - window for S/N]
   6.285                                 [S/N in S/N window]
   7.084                                 [S/N in norm. window]
  10.000                                 [S/N_err in S/N window]
  11.271                                 [S/N_err in norm. window]
  1.0000                                 [fscale_chi2]

## etc...
    -2007439                             [idum_orig]
  2378                                   [NOl_eff]
  2271                                   [Nl_eff]
   107    NSIGMA                         [Ntot_cliped & clip_method]
   794570                                [Nglobal_steps]
   7                                     [N_chains]
  11                                     [NEX0s_base = N_base in EX0s-fits]
 0   0   1       86   2.0   1.595E+01    [Clip-Bug, RC-Crash & Burn-In warning-flags, n_censored_weights, wei_nsig_threshold & wei_limit]
    12     12.137     11.642      0.496  [idt_all, wdt_TotTime, wdt_UsrTime & wdt_SysTime (sec)]

## Synthesis Results - Best model ##

 1.47191E+00                             [chi2/Nl_eff]
     9.40958                             [adev (%)]

   104.39018                             [sum-of-x (%)]
 4.18227E-16                             [Flux_tot (units of input spectrum!)]
 1.85946E-12                             [Mini_tot (???)]
 1.01719E-12                             [Mcor_tot (???)]

 111.70                                  [v0_min  (km/s)]
 256.98                                  [vd_min  (km/s)]
 0.6304                                  [AV_min  (mag)]
 0.0000                                  [YAV_min (mag)]

# j     x_j(%)      Mini_j(%)     Mcor_j(%)     age_j(yr)     Z_j      (L/M)_j    YAV?  Mstars   component_j        a/Fe...       SSP_chi2r SSP_adev(%)   SSP_AV   SSP_x(%)
  1      0.0000     0.0000E+00    0.0000E+00    1.000000E+06  0.00400  1.094E-02    0   1.0000   age020_m42            0.0000     2.2531E+00    12.4166   2.8485    86.0268
  2      0.0000     0.0000E+00    0.0000E+00    3.160000E+06  0.00400  4.007E-02    0   0.9999   age045_m42            0.0000     1.9362E+00    11.0971   2.0828    93.7884
  3      0.0000     0.0000E+00    0.0000E+00    5.010000E+06  0.00400  2.539E-02    0   0.9488   age055_m42            0.0000     2.0524E+00    11.6175   2.4205    90.6863
  4      0.0000     0.0000E+00    0.0000E+00    6.610000E+06  0.00400  2.620E-02    0   0.9220   age061_m42            0.0000     1.9106E+00    10.9725   2.0075    94.1018
  5      0.0000     0.0000E+00    0.0000E+00    1.000000E+07  0.00400  1.322E-02    0   0.8862   age070_m42            0.0000     1.7183E+00    10.4179   1.7407    95.5682
  6      0.0000     0.0000E+00    0.0000E+00    1.445000E+07  0.00400  7.883E-03    0   0.8571   age078_m42            0.0000     1.8142E+00    10.8409   2.0769    92.6824
  7      0.0000     0.0000E+00    0.0000E+00    2.512000E+07  0.00400  5.251E-03    0   0.8174   age090_m42            0.0000     1.6806E+00    10.2731   1.6105    96.1520
  8      0.0000     0.0000E+00    0.0000E+00    4.000000E+07  0.00400  3.649E-03    0   0.7851   age104_m42            0.0000     1.6489E+00    10.0963   1.3739    97.3973
  9      0.0000     0.0000E+00    0.0000E+00    5.500000E+07  0.00400  3.098E-03    0   0.7629   age110_m42            0.0000     1.7238E+00    10.2204   1.5146    97.9430
 10      0.0000     0.0000E+00    0.0000E+00    1.015200E+08  0.00400  2.228E-03    0   0.7207   age116_m42            0.0000     1.8083E+00    10.3893   1.5256    98.5252
 11      0.0000     0.0000E+00    0.0000E+00    2.861200E+08  0.00400  1.093E-03    0   0.6648   age125_m42            0.0000     1.7009E+00    10.0445   0.9513   101.8702
 12      0.0000     0.0000E+00    0.0000E+00    5.088000E+08  0.00400  6.597E-04    0   0.6365   age130_m42            0.0000     1.8473E+00    10.4606   0.9282   103.3087
 13      0.0000     0.0000E+00    0.0000E+00    1.434000E+09  0.00400  2.132E-04    0   0.5798   age139_m42            0.0000     1.8564E+00    10.6256  -0.0509   105.8419
 14      0.0000     0.0000E+00    0.0000E+00    4.250000E+09  0.00400  5.895E-05    0   0.5377   age158_m42            0.0000     2.0540E+00    11.2934  -0.4819   101.2463
 15      0.0000     0.0000E+00    0.0000E+00    7.500000E+09  0.00400  3.510E-05    0   0.5212   age171_m42            0.0000     2.2045E+00    11.7225  -0.6707   100.6012
 16      0.0000     0.0000E+00    0.0000E+00    1.300000E+10  0.00400  2.005E-05    0   0.5034   age193_m42            0.0000     2.3572E+00    12.1119  -0.8355   100.0481
 17      0.0000     0.0000E+00    0.0000E+00    1.800000E+10  0.00400  1.525E-05    0   0.4967   age213_m42            0.0000     2.3327E+00    12.0545  -0.8572    99.5440
 18      0.0000     0.0000E+00    0.0000E+00    1.000000E+06  0.00800  1.238E-02    0   1.0000   age020_m52            0.0000     2.2543E+00    12.4206   2.8448    86.1961
 19      0.0000     0.0000E+00    0.0000E+00    3.160000E+06  0.00800  3.074E-02    0   0.9966   age045_m52            0.0000     2.2411E+00    12.3597   2.7657    87.0705
 20      0.0000     0.0000E+00    0.0000E+00    5.010000E+06  0.00800  2.668E-02    0   0.9443   age055_m52            0.0000     2.0812E+00    11.7650   2.5086    89.6341
 21      0.0000     0.0000E+00    0.0000E+00    6.610000E+06  0.00800  2.136E-02    0   0.9177   age061_m52            0.0000     1.6969E+00    10.4412   1.2461    96.4852
 22      0.0000     0.0000E+00    0.0000E+00    1.000000E+07  0.00800  1.215E-02    0   0.8827   age070_m52            0.0000     1.7141E+00    10.5058   1.9298    94.9244
 23      0.0000     0.0000E+00    0.0000E+00    1.445000E+07  0.00800  8.717E-03    0   0.8552   age078_m52            0.0000     1.7744E+00    10.6895   2.0391    94.1401
 24      0.0000     0.0000E+00    0.0000E+00    2.512000E+07  0.00800  5.592E-03    0   0.8162   age090_m52            0.0000     1.6517E+00    10.1597   1.6718    97.4332
 25      0.0000     0.0000E+00    0.0000E+00    4.000000E+07  0.00800  3.896E-03    0   0.7841   age104_m52            0.0000     1.6361E+00    10.0151   1.5741    98.6678
 26      0.0000     0.0000E+00    0.0000E+00    1.015200E+08  0.00800  2.148E-03    0   0.7226   age116_m52            0.0000     1.7063E+00    10.1207   1.4987    99.1250
 27      0.0000     0.0000E+00    0.0000E+00    2.861200E+08  0.00800  9.925E-04    0   0.6683   age125_m52            0.0000     1.8301E+00    10.3620   0.9911   104.3779
 28     42.3005     2.9016E+01    3.2558E+01    9.047900E+08  0.00800  3.141E-04    0   0.6138   age135_m52            0.0000     1.9724E+00    10.9842   0.1749   109.7032
 29      0.0000     0.0000E+00    0.0000E+00    1.434000E+09  0.00800  1.719E-04    0   0.5853   age139_m52            0.0000     1.9601E+00    11.0299  -0.3920   106.8421
 30      0.0000     0.0000E+00    0.0000E+00    2.500000E+09  0.00800  7.872E-05    0   0.5600   age150_m52            0.0000     2.2475E+00    11.9063  -0.6613   103.9574
 31      0.0000     0.0000E+00    0.0000E+00    4.250000E+09  0.00800  4.336E-05    0   0.5426   age158_m52            0.0000     2.2845E+00    11.9735  -0.6730   102.8072
 32      0.0000     0.0000E+00    0.0000E+00    6.250000E+09  0.00800  3.159E-05    0   0.5319   age166_m52            0.0000     2.5389E+00    12.6626  -0.8816   103.0872
 33      4.1727     6.6057E+01    6.1259E+01    1.300000E+10  0.00800  1.361E-05    0   0.5073   age193_m52            0.0000     3.3794E+00    14.4991  -1.0000    89.8872
 34      0.0000     0.0000E+00    0.0000E+00    1.800000E+10  0.00800  9.886E-06    0   0.4990   age213_m52            0.0000     3.9898E+00    15.5699  -1.0000    85.6658
 35      0.0000     0.0000E+00    0.0000E+00    1.000000E+06  0.02000  1.544E-02    0   1.0000   age020_m62            0.0000     2.2658E+00    12.4662   2.8425    86.3318
 36      0.0000     0.0000E+00    0.0000E+00    3.160000E+06  0.02000  3.762E-02    0   0.9858   age045_m62            0.0000     2.2751E+00    12.4797   2.7790    87.1752
 37      0.0000     0.0000E+00    0.0000E+00    5.010000E+06  0.02000  3.296E-02    0   0.9342   age055_m62            0.0000     2.0297E+00    11.4696   2.3688    92.3111
 38      0.0000     0.0000E+00    0.0000E+00    8.710000E+06  0.02000  1.154E-02    0   0.8861   age067_m62            0.0000     1.8378E+00    11.0299   1.4183    96.0178
 39      0.0000     0.0000E+00    0.0000E+00    1.445000E+07  0.02000  7.663E-03    0   0.8472   age078_m62            0.0000     1.6413E+00    10.3034   1.5854    96.7973
 40      0.0000     0.0000E+00    0.0000E+00    2.512000E+07  0.02000  4.532E-03    0   0.8099   age090_m62            0.0000     1.6387E+00    10.2551   1.5749    96.6636
 41      0.0000     0.0000E+00    0.0000E+00    5.500000E+07  0.02000  2.733E-03    0   0.7595   age110_m62            0.0000     1.6596E+00    10.1206   1.5603    97.7942
 42      0.0000     0.0000E+00    0.0000E+00    1.609000E+08  0.02000  1.369E-03    0   0.6985   age120_m62            0.0000     1.7851E+00    10.2453   1.3689   101.9059
 43      0.0164     3.9153E-03    4.8054E-03    2.861200E+08  0.02000  9.013E-04    0   0.6714   age125_m62            0.0000     1.9290E+00    10.5949   1.1007   105.7361
 44      4.6103     1.9756E+00    2.3290E+00    5.088000E+08  0.02000  5.028E-04    0   0.6449   age130_m62            0.0000     2.1172E+00    11.1709   0.7052   109.4504
 45      0.0000     0.0000E+00    0.0000E+00    9.047900E+08  0.02000  2.428E-04    0   0.6179   age135_m62            0.0000     2.1044E+00    11.3932   0.1221   108.6881
 46      0.0000     0.0000E+00    0.0000E+00    1.434000E+09  0.02000  1.263E-04    0   0.5908   age139_m62            0.0000     2.1968E+00    11.7027  -0.3153   106.7462
 47      0.0000     0.0000E+00    0.0000E+00    2.500000E+09  0.02000  5.985E-05    0   0.5673   age150_m62            0.0000     2.4978E+00    12.5926  -0.6823   105.3008
 48      0.0000     0.0000E+00    0.0000E+00    4.250000E+09  0.02000  3.271E-05    0   0.5468   age158_m62            0.0000     2.9286E+00    13.7571  -0.9957   104.7619
 49      0.0000     0.0000E+00    0.0000E+00    1.000000E+10  0.02000  1.360E-05    0   0.5167   age181_m62            0.0000     3.9232E+00    15.5880  -1.0000    91.7826
 50      0.0000     0.0000E+00    0.0000E+00    1.800000E+10  0.02000  7.124E-06    0   0.5013   age213_m62            0.0000     4.9766E+00    17.1307  -1.0000    83.6396
 51      0.0000     0.0000E+00    0.0000E+00    1.000000E+06  0.05000  2.592E-02    0   0.9998   age020_m72            0.0000     2.2994E+00    12.6004   2.8389    86.1608
 52      0.0000     0.0000E+00    0.0000E+00    3.160000E+06  0.05000  4.845E-02    0   0.9577   age045_m72            0.0000     2.1979E+00    12.1567   2.6489    88.9050
 53      0.0000     0.0000E+00    0.0000E+00    5.010000E+06  0.05000  3.072E-02    0   0.9147   age055_m72            0.0000     1.8224E+00    10.9810   2.1774    92.7553
 54     45.5011     6.7379E-01    1.0934E+00    6.610000E+06  0.05000  1.455E-02    0   0.8877   age061_m72            0.0000     2.1296E+00    11.9121   1.4804    96.3212
 55      0.0000     0.0000E+00    0.0000E+00    1.000000E+07  0.05000  9.074E-03    0   0.8524   age070_m72            0.0000     1.8790E+00    11.0953   2.3643    92.4330
 56      0.0000     0.0000E+00    0.0000E+00    2.512000E+07  0.05000  4.250E-03    0   0.7902   age090_m72            0.0000     1.7245E+00    10.4610   2.0422    95.1185
 57      0.0000     0.0000E+00    0.0000E+00    4.000000E+07  0.05000  3.087E-03    0   0.7618   age104_m72            0.0000     1.6776E+00    10.2175   1.8056    97.1399
 58      0.0000     0.0000E+00    0.0000E+00    1.015200E+08  0.05000  1.700E-03    0   0.7096   age116_m72            0.0000     1.7301E+00    10.1237   1.5182   101.1734
 59      7.7892     2.2728E+00    2.7559E+00    2.861200E+08  0.05000  7.384E-04    0   0.6633   age125_m72            0.0000     2.0306E+00    10.8732   0.9573   107.7564
 60      0.0000     0.0000E+00    0.0000E+00    5.088000E+08  0.05000  3.819E-04    0   0.6372   age130_m72            0.0000     2.1324E+00    11.4128   0.4548   109.9989
 61      0.0000     0.0000E+00    0.0000E+00    9.047900E+08  0.05000  1.676E-04    0   0.6110   age135_m72            0.0000     2.4428E+00    12.4373  -0.2361   107.8117
 62      0.0000     0.0000E+00    0.0000E+00    1.434000E+09  0.05000  8.837E-05    0   0.5874   age139_m72            0.0000     2.5925E+00    12.8227  -0.6877   107.0886
 63      0.0000     0.0000E+00    0.0000E+00    2.500000E+09  0.05000  4.233E-05    0   0.5598   age150_m72            0.0000     3.0788E+00    14.1115  -1.0000   105.8312
 64      0.0000     0.0000E+00    0.0000E+00    6.250000E+09  0.05000  1.435E-05    0   0.5249   age166_m72            0.0000     4.2949E+00    16.2108  -1.0000    87.9649
 65      0.0000     0.0000E+00    0.0000E+00    1.300000E+10  0.05000  6.513E-06    0   0.5036   age193_m72            0.0000     5.8445E+00    18.4269  -1.0000    78.9912
 66      0.0000     0.0000E+00    0.0000E+00    1.800000E+10  0.05000  4.527E-06    0   0.4945   age213_m72            0.0000     6.8764E+00    19.8385  -1.0000    73.4685


## Synthesis Results - Average & Chains ##

# j      x_j: min, <> & last-chain-values for 1 ...  7 chains
  1      0.0000      0.3219      0.0000      0.0000      0.0000      0.0000      0.0000      0.0000      0.0000
  2      0.0000      0.1657      0.0000      0.0000      0.0000      0.6600      0.0000      0.0000      0.0000
  3      0.0000      0.1516      0.0000      0.0000      0.0000      0.0000      0.0000      0.0000      0.1494
  4      0.0000      0.2008      0.0000      1.2278      0.0000      0.0000      0.0986      0.0000      0.0000
  5      0.0000      0.3448      0.0000      0.0000      0.0000      0.0000      0.0000      0.0000      0.0000
  6      0.0000      0.3459      0.2841      0.0000      0.0000      0.0000      0.0000      0.0000      0.0000
  7      0.0000      0.2802      0.0000      0.0000      0.0000      0.0000      0.0000      0.0000      0.0000
  8      0.0000      0.4594      0.8114      0.0000      0.0000      0.0000      0.0000      0.1777      0.6473
  9      0.0000      0.3156      0.0000      0.0000      0.1589      0.0000      0.0000      0.0000      0.0000
 10      0.0000      0.3013      2.2007      0.0000      0.4713      0.0000      0.0000      0.0000      0.0000
 11      0.0000      0.4706      0.0000      0.0000      0.0000      0.0574      0.0000      0.0000      0.0000
 12      0.0000      0.3198      0.0000      0.0000      0.1864      0.0000      0.0000      0.0000      0.0000
 13      0.0000      0.4814      0.0000      0.0000      0.4883      0.0000      0.1446      0.0000      0.0000
 14      0.0000      0.1930      0.0000      0.0000      0.0000      0.0000      0.0000      0.0000      0.0000
 15      0.0000      0.1028      0.0000      0.0000      0.0000      0.0000      0.0000      0.0000      0.1737
 16      0.0000      0.0196      0.0000      0.0000      0.0000      0.0000      0.0000      0.0000      0.0000
 17      0.0000      0.1624      0.0000      0.0000      0.0000      0.0000      0.0000      0.0000      0.0718
 18      0.0000      0.1760      0.0000      0.1297      0.0000      0.0000      1.2847      0.0000      0.0000
 19      0.0000      0.0918      0.0000      1.1177      1.4814      0.0000      0.1886      0.0036      0.0000
 20      0.0000      0.1865      0.0000      0.0000      0.0000      0.0000      0.0000      0.0000      0.0000
 21      0.0000      0.3859      0.0000      0.0000      0.0000      0.0000      0.0000      0.0000      0.0000
 22      0.0000      0.4323      0.0000      0.0000      1.0109      3.6198      2.0371      0.0000      0.0000
 23      0.0000      0.3115      0.0000      1.3171      0.0000      0.0997      0.0004      0.0437      0.0000
 24      0.0000      0.3696      0.0000      0.0000      0.0000      0.0000      3.7058      0.0000      0.0000
 25      0.0000      0.8152      0.0000      0.0000      0.0000      1.6461      0.0000      0.1166      1.0071
 26      0.0000      0.4334      0.0000      0.0000      0.0910      1.2307      0.0000      0.0000      0.0000
 27      0.0000      0.7941      0.0000      0.0000      0.0000      0.0000      0.0000      0.0000      0.0000
 28     42.3005     19.8608     26.5829     23.4987     26.2286     21.6315     21.1476     19.8990     25.7006
 29      0.0000      0.1999      0.0000      0.0988      0.0000      0.0000      0.0000      0.0000      0.0000
 30      0.0000      0.0911      0.0000      0.0000      0.0000      0.0000      0.0000      0.3119      0.0000
 31      0.0000      0.3438      0.9558      0.0000      0.0000      0.0000      0.0000      2.2740      0.0000
 32      0.0000      0.0680      0.0784      0.0000      0.0111      0.0000      0.8967      0.0000      0.0000
 33      4.1727      1.3138      1.4617      1.8317      1.4441      1.3051      1.7800      1.3761      1.3654
 34      0.0000      0.1133      0.0000      0.0000      0.0000      0.0000      0.2140      0.0000      0.0000
 35      0.0000      0.3505      1.5295      0.0000      0.6248      0.8869      0.5929      2.6005      2.3805
 36      0.0000      0.1220      0.0000      0.0000      0.0000      0.2323      0.0000      0.0000      0.0000
 37      0.0000      0.1679      0.0000      0.0000      0.0000      0.0603      0.4280      0.0000      0.0000
 38      0.0000      0.8163      4.0343      0.0000      0.6441      1.5248      1.9224      1.5624      1.0748
 39      0.0000      0.6886      0.0000      0.0000      1.4359      0.0000      0.0000      0.0000      0.0000
 40      0.0000      0.8023      0.4804      2.2824      0.4991      0.7088      0.0659      0.0000      0.0000
 41      0.0000      0.2238      0.0162      0.0000      0.0000      0.0000      0.0000      1.6119      0.0000
 42      0.0000      0.5059      0.5846      1.0503      0.0000      0.0000      0.0000      0.0000      0.0000
 43      0.0164      1.1888      0.0000      1.3176      0.0000      0.0000      3.2207      3.0869      0.7950
 44      4.6103     18.6628     20.8972     22.6324     18.3186     25.4959     19.7978     21.4069     21.1704
 45      0.0000      0.8469      0.6709      1.2736      0.0000      0.0000      1.3906      0.2840      0.0000
 46      0.0000      0.4171      0.0000      0.0000      0.2589      0.1232      0.0000      0.0000      0.0000
