###################################################################
## OUTPUT of StarlightChains_v04.for    [Cid@UFSC - 01/Apr/2007] ##
###################################################################

## Some input info
ASASSN14fj.txt                           [arq_obs]
Base.CB07.vall.4m                        [arq_base]
Masks.EmLines.NEW.gm                     [arq_masks]
StCv04.C11.config                        [arq_config]
   66                                    [N_base]
    0                                    [N_YAV_components = # of components with extra extinction!]
    0                                    [i_FitPowerLaw (1/0 = Yes/No)]
-9.99                                    [alpha_PowerLaw]
CCM                                      [red_law_option]
 1.458241                                [q_norm = A(l_norm)/A(V)]

## (Re)Sampling Parameters
 3741.00                                 [l_ini (A)]
 7218.00                                 [l_fin (A)]
    1.00                                 [dl    (A)]     (OBS: dl_cushion =    50.00 A)

## Normalization info
 4020.00                                 [l_norm (A) - for base]
 4010.00                                 [llow_norm (A) - window for f_obs]
 4060.00                                 [lupp_norm (A) - window for f_obs]
8.460016E-17                             [fobs_norm (in input units)]

## S/N
 3691.00                                 [llow_SN (A) - window for S/N]
 7268.00                                 [lupp_SN (A) - window for S/N]
   4.179                                 [S/N in S/N window]
   5.924                                 [S/N in norm. window]
   7.104                                 [S/N_err in S/N window]
  10.071                                 [S/N_err in norm. window]
  1.0000                                 [fscale_chi2]

## etc...
    -2007447                             [idum_orig]
  2384                                   [NOl_eff]
  2384                                   [Nl_eff]
     0    NSIGMA                         [Ntot_cliped & clip_method]
  1315230                                [Nglobal_steps]
   7                                     [N_chains]
  24                                     [NEX0s_base = N_base in EX0s-fits]
 0   0   1        0   2.0   2.234E+01    [Clip-Bug, RC-Crash & Burn-In warning-flags, n_censored_weights, wei_nsig_threshold & wei_limit]
    13     12.483     11.982      0.501  [idt_all, wdt_TotTime, wdt_UsrTime & wdt_SysTime (sec)]

## Synthesis Results - Best model ##

 2.87031E-01                             [chi2/Nl_eff]
     6.83936                             [adev (%)]

   105.16682                             [sum-of-x (%)]
 9.65473E-17                             [Flux_tot (units of input spectrum!)]
 2.53083E-13                             [Mini_tot (???)]
 1.49925E-13                             [Mcor_tot (???)]

-310.73                                  [v0_min  (km/s)]
 480.86                                  [vd_min  (km/s)]
 0.0608                                  [AV_min  (mag)]
 0.0000                                  [YAV_min (mag)]

# j     x_j(%)      Mini_j(%)     Mcor_j(%)     age_j(yr)     Z_j      (L/M)_j    YAV?  Mstars   component_j        a/Fe...       SSP_chi2r SSP_adev(%)   SSP_AV   SSP_x(%)
  1      0.0000     0.0000E+00    0.0000E+00    1.000000E+06  0.00400  1.094E-02    0   1.0000   age020_m42            0.0000     4.0279E-01     7.9853   2.0554    91.6191
  2      0.0000     0.0000E+00    0.0000E+00    3.160000E+06  0.00400  4.007E-02    0   0.9999   age045_m42            0.0000     3.5324E-01     7.3500   1.3561    96.8244
  3      3.5811     5.1163E-02    8.1944E-02    5.010000E+06  0.00400  2.539E-02    0   0.9488   age055_m42            0.0000     3.6596E-01     7.5550   1.6608    95.1028
  4      1.2133     1.6798E-02    2.6145E-02    6.610000E+06  0.00400  2.620E-02    0   0.9220   age061_m42            0.0000     3.4276E-01     7.3052   1.2766    97.3531
  5      0.1333     3.6575E-03    5.4715E-03    1.000000E+07  0.00400  1.322E-02    0   0.8862   age070_m42            0.0000     3.1516E-01     7.3136   0.9488   101.7769
  6      0.0000     0.0000E+00    0.0000E+00    1.445000E+07  0.00400  7.883E-03    0   0.8571   age078_m42            0.0000     3.2486E-01     7.4443   1.2729    99.2934
  7      1.3702     9.4657E-02    1.3061E-01    2.512000E+07  0.00400  5.251E-03    0   0.8174   age090_m42            0.0000     3.1659E-01     7.3522   0.8107   102.7817
  8      0.0235     2.3382E-03    3.0988E-03    4.000000E+07  0.00400  3.649E-03    0   0.7851   age104_m42            0.0000     3.1210E-01     7.2482   0.5928   103.1566
  9      0.0000     0.0000E+00    0.0000E+00    5.500000E+07  0.00400  3.098E-03    0   0.7629   age110_m42            0.0000     3.1616E-01     7.1667   0.7709   101.9322
 10      0.0000     0.0000E+00    0.0000E+00    1.015200E+08  0.00400  2.228E-03    0   0.7207   age116_m42            0.0000     3.2048E-01     7.1163   0.8076   101.3175
 11      0.0000     0.0000E+00    0.0000E+00    2.861200E+08  0.00400  1.093E-03    0   0.6648   age125_m42            0.0000     3.2642E-01     7.1828   0.2306   104.8080
 12      0.0000     0.0000E+00    0.0000E+00    5.088000E+08  0.00400  6.597E-04    0   0.6365   age130_m42            0.0000     3.2130E-01     6.9626   0.2475   104.2941
 13      5.2706     8.9675E+00    8.7769E+00    1.434000E+09  0.00400  2.132E-04    0   0.5798   age139_m42            0.0000     3.0053E-01     6.6407  -0.7035   105.2312
 14      2.6986     1.6606E+01    1.5073E+01    4.250000E+09  0.00400  5.895E-05    0   0.5377   age158_m42            0.0000     3.5591E-01     7.1653  -1.0000    94.9659
 15      0.0000     0.0000E+00    0.0000E+00    7.500000E+09  0.00400  3.510E-05    0   0.5212   age171_m42            0.0000     5.1857E-01     8.3346  -1.0000    86.9682
 16      0.0000     0.0000E+00    0.0000E+00    1.300000E+10  0.00400  2.005E-05    0   0.5034   age193_m42            0.0000     7.4793E-01     9.9095  -1.0000    80.4025
 17      0.0000     0.0000E+00    0.0000E+00    1.800000E+10  0.00400  1.525E-05    0   0.4967   age213_m42            0.0000     7.9064E-01    10.1905  -1.0000    79.2270
 18      4.1450     1.2145E-01    2.0502E-01    1.000000E+06  0.00800  1.238E-02    0   1.0000   age020_m52            0.0000     4.0238E-01     7.9770   2.0532    91.7417
 19      5.3571     6.3215E-02    1.0635E-01    3.160000E+06  0.00800  3.074E-02    0   0.9966   age045_m52            0.0000     3.9877E-01     7.9041   1.9787    92.4586
 20      0.0000     0.0000E+00    0.0000E+00    5.010000E+06  0.00800  2.668E-02    0   0.9443   age055_m52            0.0000     3.6801E-01     7.6161   1.7376    94.4950
 21     34.2299     5.8130E-01    9.0052E-01    6.610000E+06  0.00800  2.136E-02    0   0.9177   age061_m52            0.0000     2.9851E-01     7.1247   0.4558   102.4800
 22      2.0482     6.1151E-02    9.1118E-02    1.000000E+07  0.00800  1.215E-02    0   0.8827   age070_m52            0.0000     3.2126E-01     7.4944   1.1103   102.4555
 23      0.0000     0.0000E+00    0.0000E+00    1.445000E+07  0.00800  8.717E-03    0   0.8552   age078_m52            0.0000     3.1731E-01     7.3667   1.2382   100.6907
 24      0.7405     4.8033E-02    6.6179E-02    2.512000E+07  0.00800  5.592E-03    0   0.8162   age090_m52            0.0000     3.1709E-01     7.3673   0.8728   104.1177
 25      0.0000     0.0000E+00    0.0000E+00    4.000000E+07  0.00800  3.896E-03    0   0.7841   age104_m52            0.0000     3.1621E-01     7.2685   0.8003   104.1769
 26      0.0088     1.4825E-03    1.8084E-03    1.015200E+08  0.00800  2.148E-03    0   0.7226   age116_m52            0.0000     3.1160E-01     7.0734   0.7641   102.7039
 27      0.0000     0.0000E+00    0.0000E+00    2.861200E+08  0.00800  9.925E-04    0   0.6683   age125_m52            0.0000     3.1884E-01     6.9631   0.3108   105.3689
 28      0.0000     0.0000E+00    0.0000E+00    9.047900E+08  0.00800  3.141E-04    0   0.6138   age135_m52            0.0000     3.2956E-01     6.9014  -0.4420   107.3216
 29      0.0000     0.0000E+00    0.0000E+00    1.434000E+09  0.00800  1.719E-04    0   0.5853   age139_m52            0.0000     3.3116E-01     6.9372  -1.0000   104.0560
 30      0.0073     3.3484E-02    3.1653E-02    2.500000E+09  0.00800  7.872E-05    0   0.5600   age150_m52            0.0000     5.0065E-01     8.2186  -1.0000    90.1588
 31      0.0000     0.0000E+00    0.0000E+00    4.250000E+09  0.00800  4.336E-05    0   0.5426   age158_m52            0.0000     5.2192E-01     8.3772  -1.0000    88.7095
 32      0.0000     0.0000E+00    0.0000E+00    6.250000E+09  0.00800  3.159E-05    0   0.5319   age166_m52            0.0000     7.9852E-01    10.2303  -1.0000    81.1087
 33      0.0000     0.0000E+00    0.0000E+00    1.300000E+10  0.00800  1.361E-05    0   0.5073   age193_m52            0.0000     1.8296E+00    15.8962  -1.0000    65.0059
 34      0.0000     0.0000E+00    0.0000E+00    1.800000E+10  0.00800  9.886E-06    0   0.4990   age213_m52            0.0000     2.0988E+00    17.0991  -1.0000    61.4987
 35      0.0000     0.0000E+00    0.0000E+00    1.000000E+06  0.02000  1.544E-02    0   1.0000   age020_m62            0.0000     4.0360E-01     7.9897   2.0481    91.9915
 36      3.8573     3.7193E-02    6.1893E-02    3.160000E+06  0.02000  3.762E-02    0   0.9858   age045_m62            0.0000     4.0578E-01     7.9788   1.9897    92.6870
 37      0.0000     0.0000E+00    0.0000E+00    5.010000E+06  0.02000  3.296E-02    0   0.9342   age055_m62            0.0000     3.6205E-01     7.4749   1.6297    95.8794
 38      0.0000     0.0000E+00    0.0000E+00    8.710000E+06  0.02000  1.154E-02    0   0.8861   age067_m62            0.0000     4.7988E-01     9.7262   0.4674   110.5333
 39      0.0690     3.2664E-03    4.6714E-03    1.445000E+07  0.02000  7.663E-03    0   0.8472   age078_m62            0.0000     3.4835E-01     7.9387   0.7308   106.1938
 40      0.0000     0.0000E+00    0.0000E+00    2.512000E+07  0.02000  4.532E-03    0   0.8099   age090_m62            0.0000     3.6484E-01     8.0775   0.7184   106.1934
 41      0.0000     0.0000E+00    0.0000E+00    5.500000E+07  0.02000  2.733E-03    0   0.7595   age110_m62            0.0000     3.1016E-01     7.2230   0.7800   103.5406
 42      0.0000     0.0000E+00    0.0000E+00    1.609000E+08  0.02000  1.369E-03    0   0.6985   age120_m62            0.0000     3.1563E-01     7.0550   0.6561   104.5087
 43      0.0000     0.0000E+00    0.0000E+00    2.861200E+08  0.02000  9.013E-04    0   0.6714   age125_m62            0.0000     3.2358E-01     6.9643   0.4271   106.4067
 44      0.0000     0.0000E+00    0.0000E+00    5.088000E+08  0.02000  5.028E-04    0   0.6449   age130_m62            0.0000     3.4044E-01     6.9174   0.0938   106.8954
 45      1.2556     1.8759E+00    1.9567E+00    9.047900E+08  0.02000  2.428E-04    0   0.6179   age135_m62            0.0000     3.3770E-01     6.9697  -0.4748   105.3043
 46      0.0000     0.0000E+00    0.0000E+00    1.434000E+09  0.02000  1.263E-04    0   0.5908   age139_m62            0.0000     3.6084E-01     7.2237  -0.9117   103.3153
 47      0.0000     0.0000E+00    0.0000E+00    2.500000E+09  0.02000  5.985E-05    0   0.5673   age150_m62            0.0000     5.4199E-01     8.5210  -1.0000    90.4270
 48      0.0000     0.0000E+00    0.0000E+00    4.250000E+09  0.02000  3.271E-05    0   0.5468   age158_m62            0.0000     9.8514E-01    11.3367  -1.0000    78.3114
 49      0.0000     0.0000E+00    0.0000E+00    1.000000E+10  0.02000  1.360E-05    0   0.5167   age181_m62            0.0000     1.7494E+00    15.4274  -1.0000    66.5012
 50      0.0000     0.0000E+00    0.0000E+00    1.800000E+10  0.02000  7.124E-06    0   0.5013   age213_m62            0.0000     2.3002E+00    17.8759  -1.0000    59.8080
 51      0.0000     0.0000E+00    0.0000E+00    1.000000E+06  0.05000  2.592E-02    0   0.9998   age020_m72            0.0000     4.0493E-01     8.0200   2.0363    92.1525
 52      3.8311     2.8683E-02    4.6371E-02    3.160000E+06  0.05000  4.845E-02    0   0.9577   age045_m72            0.0000     3.9430E-01     7.7847   1.8824    93.5224
 53      0.0000     0.0000E+00    0.0000E+00    5.010000E+06  0.05000  3.072E-02    0   0.9147   age055_m72            0.0000     3.5154E-01     7.8619   1.3452   100.7019
 54      0.0000     0.0000E+00    0.0000E+00    6.610000E+06  0.05000  1.455E-02    0   0.8877   age061_m72            0.0000     8.0603E-01    12.0306   0.4855   113.5082
 55      0.0000     0.0000E+00    0.0000E+00    1.000000E+07  0.05000  9.074E-03    0   0.8524   age070_m72            0.0000     4.3832E-01     8.4723   1.5352   100.2702
 56      0.0000     0.0000E+00    0.0000E+00    2.512000E+07  0.05000  4.250E-03    0   0.7902   age090_m72            0.0000     3.7765E-01     7.9374   1.2337   102.1729
 57      0.0000     0.0000E+00    0.0000E+00    4.000000E+07  0.05000  3.087E-03    0   0.7618   age104_m72            0.0000     3.8643E-01     7.9868   1.0007   104.1510
 58      0.0000     0.0000E+00    0.0000E+00    1.015200E+08  0.05000  1.700E-03    0   0.7096   age116_m72            0.0000     3.2264E-01     7.1995   0.7805   105.0185
 59      0.0000     0.0000E+00    0.0000E+00    2.861200E+08  0.05000  7.384E-04    0   0.6633   age125_m72            0.0000     3.2842E-01     6.8726   0.3156   106.7921
 60     19.8068     1.8813E+01    2.0236E+01    5.088000E+08  0.05000  3.819E-04    0   0.6372   age130_m72            0.0000     3.3644E-01     6.8889  -0.1428   106.6903
 61     10.8296     2.3439E+01    2.4175E+01    9.047900E+08  0.05000  1.676E-04    0   0.6110   age135_m72            0.0000     4.1441E-01     7.6170  -0.7941   102.5079
 62      2.4725     1.0149E+01    1.0064E+01    1.434000E+09  0.05000  8.837E-05    0   0.5874   age139_m72            0.0000     5.5857E-01     8.6225  -1.0000    91.7248
 63      2.2174     1.9001E+01    1.7956E+01    2.500000E+09  0.05000  4.233E-05    0   0.5598   age150_m72            0.0000     9.9852E-01    11.3849  -1.0000    78.9442
 64      0.0000     0.0000E+00    0.0000E+00    6.250000E+09  0.05000  1.435E-05    0   0.5249   age166_m72            0.0000     2.0058E+00    16.5949  -1.0000    63.2902
 65      0.0000     0.0000E+00    0.0000E+00    1.300000E+10  0.05000  6.513E-06    0   0.5036   age193_m72            0.0000     2.7960E+00    19.8399  -1.0000    55.9704
 66      0.0000     0.0000E+00    0.0000E+00    1.800000E+10  0.05000  4.527E-06    0   0.4945   age213_m72            0.0000     3.2944E+00    21.6264  -1.0000    51.7128


## Synthesis Results - Average & Chains ##

# j      x_j: min, <> & last-chain-values for 1 ...  7 chains
  1      0.0000      0.2698      0.0000      0.0000      0.0000      1.4169      1.3154      0.0000      0.4613
  2      0.0000      0.7577      0.0000      1.0474      0.0000      2.7663      0.0000      4.1256      0.3308
  3      3.5811      0.9275      3.7476      0.0000      0.0000      0.0000      4.0788      1.3675      2.5756
  4      1.2133      1.3450      2.3904      0.0000      0.0000      0.0000      0.0000      0.0000      1.8058
  5      0.1333      1.2308      0.8836      4.4349      0.0000      0.0000      0.0000      0.0000      1.3251
  6      0.0000      1.0814      0.0000      0.0000      0.0000      0.0000      1.2229      3.1589      0.0000
  7      1.3702      1.3955      4.4553      3.4499      0.3162      0.0000      0.9358      0.2953      5.8159
  8      0.0235      2.2379      0.0000      2.0185     12.3004      0.0000      0.0000      0.0000      2.5921
  9      0.0000      1.3224      0.0000      0.0000      0.0000      0.0000      0.0207      0.0000      0.0000
 10      0.0000      1.2158      0.5725      0.0000      2.9467      0.0000      0.0000      0.0000      0.0000
 11      0.0000      2.0712      6.2181      0.0000      2.4438      0.0000      1.3800      0.0474      0.0000
 12      0.0000      3.1510      0.3794      0.0000      1.0619      0.0000      0.0000      0.0000      0.0000
 13      5.2706      2.2319      0.2563      0.0000      2.8267      0.2613      5.3004      4.2049      2.2041
 14      2.6986      0.4754      0.0000      0.0000      0.0000      0.0937      0.0000      0.6660      1.2217
 15      0.0000      0.4186      1.0058      1.1600      0.0000      0.0000      0.0000      0.0000      0.0000
 16      0.0000      0.0787      0.0000      0.0000      0.0000      0.0000      0.1478      0.0000      0.0000
 17      0.0000      0.1864      0.0000      0.0000      0.0000      1.4235      0.9952      0.0000      0.0000
 18      4.1450      1.6689      3.0537      2.1231      4.0642      0.9010      0.0000      0.0000      5.5928
 19      5.3571      0.7273      1.2631      0.0000      2.0698      4.8820      0.5443      0.0000      3.7454
 20      0.0000      0.3325      0.0000      0.0000      0.4647      0.0000      0.8000      0.0000      0.0000
 21     34.2299     19.5623     36.6877     27.2379     23.4760     26.2643     34.2718     28.8206     22.3536
 22      2.0482      1.4310      1.1470      5.2459      0.4502      0.0000      2.3410      3.3557      3.7868
 23      0.0000      1.2877      1.0735      0.0000      0.0000      0.0000      0.0000      0.0000      0.0000
 24      0.7405      0.7340      0.0000      0.0000      2.2047      0.0334      0.0000      0.0000      2.0194
 25      0.0000      1.5067      0.8168      0.0000      0.0000      2.0928      0.0000      2.0302      4.0496
 26      0.0088      1.2485      0.0000      0.8813      0.0000      6.3440      0.0000      0.0000      2.6268
 27      0.0000      2.6366      0.2600      1.4494      0.0000      4.7609      0.0000      0.0000      0.0000
 28      0.0000      1.1457      0.0000      1.4676      0.0000      0.5880      0.0000      0.0000      0.7256
 29      0.0000      0.2410      0.0000      0.0000      0.0000      0.0000      0.0000      0.0000      0.0000
 30      0.0073      0.1114      0.0664      0.0000      1.4659      0.0000      0.0000      0.0000      0.5815
 31      0.0000      0.1653      0.0000      0.0000      0.0000      0.0000      0.0000      0.0000      0.0000
 32      0.0000      0.1067      0.6549      0.0000      0.5557      0.0000      0.0000      0.0000      0.0000
 33      0.0000      0.1372      0.0000      0.0000      0.0000      0.0000      0.0000      0.0000      0.0000
 34      0.0000      0.0465      0.0000      0.0000      0.0000      0.0556      0.0000      0.0000      0.0000
 35      0.0000      0.2564      0.0000      0.9925      0.0000      0.0000      0.0000      0.8666      0.4945
 36      3.8573      0.7524      0.0000      0.8998      0.0000      0.9553      0.2923      0.0000      1.2537
 37      0.0000      0.4643      0.0000      0.0000      0.0000      0.0000      0.8859      1.3448      0.0000
 38      0.0000      1.3481      3.3261      2.1977      1.2286      1.1625      0.0000      2.0660      0.0000
 39      0.0690      1.3588      0.0000      2.1224      0.0000      0.2577      2.5374      1.7437      1.0955
 40      0.0000      0.9466      0.0000      0.0000      0.0000      0.0000      4.6235      1.0908      0.0000
 41      0.0000      1.3616      0.0000      3.5528      0.0000      1.0860      0.0000      0.8138      0.0000
 42      0.0000      2.4898      0.0000      0.4217      0.0000      0.0000      5.4253      4.3446      0.0000
 43      0.0000      2.0707      0.5689      5.5743      0.0000      0.0000      0.7996      0.0000      0.0000
 44      0.0000      3.6330      0.0000      0.2106      0.0000      0.0000      0.1103      0.0000      0.0422
 45      1.2556      6.9317      6.8141      7.4914     11.2238      8.7780      6.2147      6.6708      8.2359
 46      0.0000      0.4819      1.4514      0.0000      1.6123      0.0000      0.0000      0.2925      0.0000
