###################################################################
## OUTPUT of StarlightChains_v04.for    [Cid@UFSC - 01/Apr/2007] ##
###################################################################

## Some input info
ASASSN14-ay.txt                          [arq_obs]
Base.CB07.vall.4m                        [arq_base]
Masks.EmLines.NEW.gm                     [arq_masks]
StCv04.C11.config                        [arq_config]
   66                                    [N_base]
    0                                    [N_YAV_components = # of components with extra extinction!]
    0                                    [i_FitPowerLaw (1/0 = Yes/No)]
-9.99                                    [alpha_PowerLaw]
CCM                                      [red_law_option]
 1.458241                                [q_norm = A(l_norm)/A(V)]

## (Re)Sampling Parameters
 3741.00                                 [l_ini (A)]
 7218.00                                 [l_fin (A)]
    1.00                                 [dl    (A)]     (OBS: dl_cushion =    50.00 A)

## Normalization info
 4020.00                                 [l_norm (A) - for base]
 4010.00                                 [llow_norm (A) - window for f_obs]
 4060.00                                 [lupp_norm (A) - window for f_obs]
2.669222E-17                             [fobs_norm (in input units)]

## S/N
 3691.00                                 [llow_SN (A) - window for S/N]
 7268.00                                 [lupp_SN (A) - window for S/N]
   6.294                                 [S/N in S/N window]
   6.080                                 [S/N in norm. window]
  16.072                                 [S/N_err in S/N window]
  15.523                                 [S/N_err in norm. window]
  1.0000                                 [fscale_chi2]

## etc...
    -2007445                             [idum_orig]
  2311                                   [NOl_eff]
  2298                                   [Nl_eff]
    13    NSIGMA                         [Ntot_cliped & clip_method]
  1127420                                [Nglobal_steps]
   7                                     [N_chains]
  17                                     [NEX0s_base = N_base in EX0s-fits]
 0   0   1       11   2.0   2.817E+01    [Clip-Bug, RC-Crash & Burn-In warning-flags, n_censored_weights, wei_nsig_threshold & wei_limit]
    14     13.235     12.739      0.496  [idt_all, wdt_TotTime, wdt_UsrTime & wdt_SysTime (sec)]

## Synthesis Results - Best model ##

 5.67162E-01                             [chi2/Nl_eff]
     4.18665                             [adev (%)]

    94.31091                             [sum-of-x (%)]
 2.35707E-17                             [Flux_tot (units of input spectrum!)]
 9.24112E-13                             [Mini_tot (???)]
 4.74380E-13                             [Mcor_tot (???)]

  80.14                                  [v0_min  (km/s)]
 147.48                                  [vd_min  (km/s)]
-0.0490                                  [AV_min  (mag)]
 0.0000                                  [YAV_min (mag)]

# j     x_j(%)      Mini_j(%)     Mcor_j(%)     age_j(yr)     Z_j      (L/M)_j    YAV?  Mstars   component_j        a/Fe...       SSP_chi2r SSP_adev(%)   SSP_AV   SSP_x(%)
  1      3.1449     7.7745E-03    1.5145E-02    1.000000E+06  0.00400  1.094E-02    0   1.0000   age020_m42            0.0000     2.7246E+00     7.8724   3.5528    78.3091
  2      0.0000     0.0000E+00    0.0000E+00    3.160000E+06  0.00400  4.007E-02    0   0.9999   age045_m42            0.0000     2.3238E+00     7.2735   2.7767    85.9541
  3      0.0000     0.0000E+00    0.0000E+00    5.010000E+06  0.00400  2.539E-02    0   0.9488   age055_m42            0.0000     2.4926E+00     7.4683   3.1178    82.9376
  4      0.0000     0.0000E+00    0.0000E+00    6.610000E+06  0.00400  2.620E-02    0   0.9220   age061_m42            0.0000     2.3215E+00     7.1989   2.6977    86.4461
  5      0.0000     0.0000E+00    0.0000E+00    1.000000E+07  0.00400  1.322E-02    0   0.8862   age070_m42            0.0000     2.5418E+00     7.4474   2.3903    89.5662
  6      0.0000     0.0000E+00    0.0000E+00    1.445000E+07  0.00400  7.883E-03    0   0.8571   age078_m42            0.0000     2.6500E+00     7.5925   2.7370    86.4210
  7      0.0000     0.0000E+00    0.0000E+00    2.512000E+07  0.00400  5.251E-03    0   0.8174   age090_m42            0.0000     2.6099E+00     7.5621   2.2491    90.5918
  8      0.0000     0.0000E+00    0.0000E+00    4.000000E+07  0.00400  3.649E-03    0   0.7851   age104_m42            0.0000     2.4228E+00     7.3491   2.0125    91.7674
  9      0.0000     0.0000E+00    0.0000E+00    5.500000E+07  0.00400  3.098E-03    0   0.7629   age110_m42            0.0000     2.2982E+00     7.1392   2.1729    91.4539
 10      0.0000     0.0000E+00    0.0000E+00    1.015200E+08  0.00400  2.228E-03    0   0.7207   age116_m42            0.0000     2.2509E+00     7.0783   2.1952    91.5278
 11      0.0000     0.0000E+00    0.0000E+00    2.861200E+08  0.00400  1.093E-03    0   0.6648   age125_m42            0.0000     2.1462E+00     6.9766   1.6074    95.5616
 12      0.0000     0.0000E+00    0.0000E+00    5.088000E+08  0.00400  6.597E-04    0   0.6365   age130_m42            0.0000     1.9520E+00     6.7505   1.5959    96.3249
 13      0.0000     0.0000E+00    0.0000E+00    1.434000E+09  0.00400  2.132E-04    0   0.5798   age139_m42            0.0000     1.1701E+00     5.6666   0.5925    99.6661
 14      0.0000     0.0000E+00    0.0000E+00    4.250000E+09  0.00400  5.895E-05    0   0.5377   age158_m42            0.0000     7.1084E-01     4.6354   0.1794    94.4229
 15      0.0000     0.0000E+00    0.0000E+00    7.500000E+09  0.00400  3.510E-05    0   0.5212   age171_m42            0.0000     6.1974E-01     4.3536   0.0011    93.4402
 16     34.4272     4.6438E+01    4.5539E+01    1.300000E+10  0.00400  2.005E-05    0   0.5034   age193_m42            0.0000     5.9192E-01     4.2567  -0.1522    92.5141
 17     17.1958     3.0496E+01    2.9507E+01    1.800000E+10  0.00400  1.525E-05    0   0.4967   age213_m42            0.0000     5.9027E-01     4.2556  -0.1776    92.1812
 18      0.0000     0.0000E+00    0.0000E+00    1.000000E+06  0.00800  1.238E-02    0   1.0000   age020_m52            0.0000     2.7183E+00     7.8670   3.5492    78.4576
 19      3.7580     3.3063E-03    6.4188E-03    3.160000E+06  0.00800  3.074E-02    0   0.9966   age045_m52            0.0000     2.6719E+00     7.8018   3.4678    79.3289
 20      0.0000     0.0000E+00    0.0000E+00    5.010000E+06  0.00800  2.668E-02    0   0.9443   age055_m52            0.0000     2.5100E+00     7.5268   3.2047    81.9919
 21      0.0000     0.0000E+00    0.0000E+00    6.610000E+06  0.00800  2.136E-02    0   0.9177   age061_m52            0.0000     2.0698E+00     6.8264   1.8832    90.7860
 22      0.0000     0.0000E+00    0.0000E+00    1.000000E+07  0.00800  1.215E-02    0   0.8827   age070_m52            0.0000     2.6967E+00     7.6890   2.5743    89.2667
 23      0.0000     0.0000E+00    0.0000E+00    1.445000E+07  0.00800  8.717E-03    0   0.8552   age078_m52            0.0000     2.5717E+00     7.5033   2.6940    87.9839
 24      0.0000     0.0000E+00    0.0000E+00    2.512000E+07  0.00800  5.592E-03    0   0.8162   age090_m52            0.0000     2.5506E+00     7.5333   2.3104    91.8824
 25      0.0000     0.0000E+00    0.0000E+00    4.000000E+07  0.00800  3.896E-03    0   0.7841   age104_m52            0.0000     2.3729E+00     7.3048   2.2195    92.8076
 26      0.0000     0.0000E+00    0.0000E+00    1.015200E+08  0.00800  2.148E-03    0   0.7226   age116_m52            0.0000     2.1574E+00     7.0167   2.1568    92.6235
 27      0.0000     0.0000E+00    0.0000E+00    2.861200E+08  0.00800  9.925E-04    0   0.6683   age125_m52            0.0000     1.8758E+00     6.6569   1.6571    97.3895
 28      0.0000     0.0000E+00    0.0000E+00    9.047900E+08  0.00800  3.141E-04    0   0.6138   age135_m52            0.0000     1.1247E+00     5.8040   0.8373   102.5723
 29      0.0000     0.0000E+00    0.0000E+00    1.434000E+09  0.00800  1.719E-04    0   0.5853   age139_m52            0.0000     8.1454E-01     4.9758   0.2697    99.9244
 30      0.0000     0.0000E+00    0.0000E+00    2.500000E+09  0.00800  7.872E-05    0   0.5600   age150_m52            0.0000     6.4713E-01     4.5424   0.0231    96.0566
 31      0.0000     0.0000E+00    0.0000E+00    4.250000E+09  0.00800  4.336E-05    0   0.5426   age158_m52            0.0000     6.3456E-01     4.4831   0.0089    95.0778
 32      0.0000     0.0000E+00    0.0000E+00    6.250000E+09  0.00800  3.159E-05    0   0.5319   age166_m52            0.0000     6.6962E-01     4.6548  -0.1848    94.7264
 33      0.0000     0.0000E+00    0.0000E+00    1.300000E+10  0.00800  1.361E-05    0   0.5073   age193_m52            0.0000     8.3109E-01     5.1577  -0.6412    93.6151
 34      0.0000     0.0000E+00    0.0000E+00    1.800000E+10  0.00800  9.886E-06    0   0.4990   age213_m52            0.0000     1.0680E+00     5.7578  -0.7319    92.4379
 35      0.0000     0.0000E+00    0.0000E+00    1.000000E+06  0.02000  1.544E-02    0   1.0000   age020_m62            0.0000     2.7289E+00     7.8892   3.5469    78.5727
 36      0.0000     0.0000E+00    0.0000E+00    3.160000E+06  0.02000  3.762E-02    0   0.9858   age045_m62            0.0000     2.7106E+00     7.8811   3.4856    79.3002
 37      0.0000     0.0000E+00    0.0000E+00    5.010000E+06  0.02000  3.296E-02    0   0.9342   age055_m62            0.0000     2.3788E+00     7.3234   3.0711    84.2594
 38      0.0000     0.0000E+00    0.0000E+00    8.710000E+06  0.02000  1.154E-02    0   0.8861   age067_m62            0.0000     4.4243E+00    10.0453   1.9993    93.3546
 39      0.0000     0.0000E+00    0.0000E+00    1.445000E+07  0.02000  7.663E-03    0   0.8472   age078_m62            0.0000     2.9221E+00     8.1204   2.2076    92.1591
 40      0.0000     0.0000E+00    0.0000E+00    2.512000E+07  0.02000  4.532E-03    0   0.8099   age090_m62            0.0000     3.0505E+00     8.2848   2.1966    92.1583
 41      0.0000     0.0000E+00    0.0000E+00    5.500000E+07  0.02000  2.733E-03    0   0.7595   age110_m62            0.0000     2.3734E+00     7.2590   2.2048    91.9706
 42      0.0000     0.0000E+00    0.0000E+00    1.609000E+08  0.02000  1.369E-03    0   0.6985   age120_m62            0.0000     2.1641E+00     6.9825   2.0317    95.0701
 43      0.0000     0.0000E+00    0.0000E+00    2.861200E+08  0.02000  9.013E-04    0   0.6714   age125_m62            0.0000     2.0309E+00     6.9329   1.7635    98.6335
 44      0.0000     0.0000E+00    0.0000E+00    5.088000E+08  0.02000  5.028E-04    0   0.6449   age130_m62            0.0000     1.6077E+00     6.6294   1.3799   101.5674
 45      0.0000     0.0000E+00    0.0000E+00    9.047900E+08  0.02000  2.428E-04    0   0.6179   age135_m62            0.0000     9.6742E-01     5.4677   0.7969   100.8639
 46      0.0000     0.0000E+00    0.0000E+00    1.434000E+09  0.02000  1.263E-04    0   0.5908   age139_m62            0.0000     7.3806E-01     4.8551   0.3614    98.9326
 47      0.0000     0.0000E+00    0.0000E+00    2.500000E+09  0.02000  5.985E-05    0   0.5673   age150_m62            0.0000     7.0806E-01     4.7801   0.0148    96.6516
 48     10.1759     8.4135E+00    8.9620E+00    4.250000E+09  0.02000  3.271E-05    0   0.5468   age158_m62            0.0000     8.7159E-01     5.3074  -0.2748    95.1384
 49      0.0000     0.0000E+00    0.0000E+00    1.000000E+10  0.02000  1.360E-05    0   0.5167   age181_m62            0.0000     1.3216E+00     6.4097  -0.5979    93.7426
 50      0.0000     0.0000E+00    0.0000E+00    1.800000E+10  0.02000  7.124E-06    0   0.5013   age213_m62            0.0000     1.7839E+00     7.3739  -0.7768    91.7390
 51      1.3175     1.3747E-03    2.6774E-03    1.000000E+06  0.05000  2.592E-02    0   0.9998   age020_m72            0.0000     2.7779E+00     7.9735   3.5410    78.4769
 52      0.0006     3.5068E-07    6.5424E-07    3.160000E+06  0.05000  4.845E-02    0   0.9577   age045_m72            0.0000     2.5788E+00     7.6843   3.3577    80.8234
 53      0.0000     0.0000E+00    0.0000E+00    5.010000E+06  0.05000  3.072E-02    0   0.9147   age055_m72            0.0000     2.7482E+00     7.8262   2.8471    86.4640
 54      1.3748     2.5555E-03    4.4192E-03    6.610000E+06  0.05000  1.455E-02    0   0.8877   age061_m72            0.0000     5.9923E+00    12.0889   2.0851    93.8576
 55      0.0046     1.3809E-05    2.2929E-05    1.000000E+07  0.05000  9.074E-03    0   0.8524   age070_m72            0.0000     2.9200E+00     8.1605   3.0652    85.3940
 56      0.0000     0.0000E+00    0.0000E+00    2.512000E+07  0.05000  4.250E-03    0   0.7902   age090_m72            0.0000     2.7600E+00     7.8875   2.7155    88.7901
 57      0.0000     0.0000E+00    0.0000E+00    4.000000E+07  0.05000  3.087E-03    0   0.7618   age104_m72            0.0000     2.8209E+00     8.0043   2.4679    91.1883
 58      0.0007     1.1550E-05    1.5966E-05    1.015200E+08  0.05000  1.700E-03    0   0.7096   age116_m72            0.0000     2.3300E+00     7.2340   2.1760    94.7435
 59      0.0000     0.0000E+00    0.0000E+00    2.861200E+08  0.05000  7.384E-04    0   0.6633   age125_m72            0.0000     1.8081E+00     6.7582   1.6283   100.1663
 60      0.0000     0.0000E+00    0.0000E+00    5.088000E+08  0.05000  3.819E-04    0   0.6372   age130_m72            0.0000     1.2436E+00     6.0544   1.1318   101.8732
 61      0.0000     0.0000E+00    0.0000E+00    9.047900E+08  0.05000  1.676E-04    0   0.6110   age135_m72            0.0000     8.7014E-01     5.2650   0.4630    98.7454
 62      0.0000     0.0000E+00    0.0000E+00    1.434000E+09  0.05000  8.837E-05    0   0.5874   age139_m72            0.0000     7.5522E-01     5.0064   0.0113    98.2348
 63     22.9109     1.4638E+01    1.5963E+01    2.500000E+09  0.05000  4.233E-05    0   0.5598   age150_m72            0.0000     9.8742E-01     5.6565  -0.2686    95.6684
 64      0.0000     0.0000E+00    0.0000E+00    6.250000E+09  0.05000  1.435E-05    0   0.5249   age166_m72            0.0000     1.4642E+00     6.7641  -0.6845    92.9074
 65      0.0000     0.0000E+00    0.0000E+00    1.300000E+10  0.05000  6.513E-06    0   0.5036   age193_m72            0.0000     2.0910E+00     8.0279  -0.9237    92.1223
 66      0.0000     0.0000E+00    0.0000E+00    1.800000E+10  0.05000  4.527E-06    0   0.4945   age213_m72            0.0000     2.5370E+00     8.7856  -1.0000    88.5953


## Synthesis Results - Average & Chains ##

# j      x_j: min, <> & last-chain-values for 1 ...  7 chains
  1      3.1449      1.7408      2.8171      1.9002      3.0610      2.4825      0.6889      1.9410      1.2759
  2      0.0000      0.1765      0.2899      1.1376      0.0000      0.0000      0.2840      0.0000      0.0000
  3      0.0000      0.1465      0.0000      0.0000      0.0000      0.1817      0.1062      0.0000      0.0000
  4      0.0000      0.0807      0.0000      0.0437      0.0000      0.0000      0.2262      0.0000      0.0000
  5      0.0000      0.1024      0.0000      0.0000      0.0000      0.3894      0.0000      0.0000      0.4479
  6      0.0000      0.0698      0.0000      0.0000      0.0000      0.0000      0.5534      0.0000      0.0000
  7      0.0000      0.1283      0.0000      0.0000      0.0000      0.5082      0.0000      0.0000      0.0000
  8      0.0000      0.0899      0.0000      0.0000      0.0000      0.5255      0.0000      0.9859      0.0000
  9      0.0000      0.0969      0.0000      0.2606      0.0000      0.0000      0.0000      0.0000      0.0000
 10      0.0000      0.0970      0.0000      0.0000      0.0000      0.0000      0.9005      0.0000      0.0000
 11      0.0000      0.0487      0.0000      0.0000      0.0000      0.0000      0.0000      0.0000      1.0565
 12      0.0000      0.1354      0.0000      1.4511      0.0000      0.0000      0.0000      0.5214      0.0000
 13      0.0000      0.3359      0.0000      0.0000      0.0000      0.2027      0.0000      0.0000      0.0000
 14      0.0000      0.8973      0.0000      0.0000      0.1623      0.0000      0.9701      0.0000      1.6241
 15      0.0000      4.0529      4.2485      0.9995      4.4799      6.3183      3.9494      4.6073      4.8744
 16     34.4272     13.7760     18.1363     14.7285     14.5110     14.7330     16.6997     15.8290     14.8025
 17     17.1958      7.5006      6.1595      8.0576      7.1478      4.0775     10.1424      7.5169      8.5522
 18      0.0000      0.1020      0.0000      0.0000      0.0000      0.0000      0.0000      0.0000      0.9099
 19      3.7580      1.7281      2.5784      2.5683      1.2882      2.1068      2.8994      2.5532      2.0304
 20      0.0000      0.3595      0.0000      0.6316      0.0000      0.0000      0.0000      0.7251      0.0000
 21      0.0000      0.1263      0.0000      0.0000      0.0000      0.0000      0.0635      0.2956      0.0000
 22      0.0000      0.1182      0.0000      0.0000      0.0000      0.0000      0.5009      0.0000      0.0000
 23      0.0000      0.0715      0.0000      0.6638      0.0000      0.0000      0.0000      0.0000      0.0444
 24      0.0000      0.0883      0.0000      0.0000      0.0000      0.0000      0.1000      0.1439      0.0000
 25      0.0000      0.1623      0.0000      0.0000      0.0000      1.3039      0.0000      0.0000      0.0000
 26      0.0000      0.2160      0.0000      0.7717      0.0000      0.0000      0.0000      0.0000      0.0000
 27      0.0000      0.0681      0.0000      0.0000      0.0000      0.0000      0.0000      0.0000      0.0000
 28      0.0000      0.3900      0.0000      0.2114      0.0000      1.4687      0.8027      0.0000      0.0000
 29      0.0000      0.8501      0.0000      0.4504      2.1625      0.4729      0.0000      0.1966      0.0000
 30      0.0000      1.2510      0.0000      0.0000      0.0000      0.0000      0.1235      0.0000      0.0000
 31      0.0000      3.0247      0.0000      4.1261      0.9844      1.8897      2.0065      0.0000      0.0906
 32      0.0000      5.5295      8.1915      5.6503      6.0787      6.9218      3.5693      9.1127      4.5808
 33      0.0000      0.2794      0.0000      0.0000      0.0000      0.0000      0.0000      0.0000      0.8195
 34      0.0000      0.3857      0.1327      1.3516      0.0000      0.6110      0.0000      0.0000      0.0000
 35      0.0000      0.4762      0.0000      0.0000      1.6225      0.0000      0.5427      0.3461      0.0000
 36      0.0000      0.1207      0.0000      0.0293      0.0000      0.0684      0.2878      0.0000      1.4762
 37      0.0000      0.1155      0.0000      0.0000      0.0000      0.0000      0.0000      0.0000      0.4186
 38      0.0000      1.0352      0.0000      0.8448      1.0903      1.8702      1.0597      2.9445      1.3408
 39      0.0000      0.1676      0.0000      0.0000      0.0000      0.0370      0.1246      0.0000      0.8411
 40      0.0000      0.0655      0.0000      0.0000      0.2959      0.0000      0.0000      0.5573      0.1995
 41      0.0000      0.2564      0.0000      0.2978      0.2791      0.5959      0.0387      0.0000      0.0000
 42      0.0000      0.0842      0.0000      0.0000      0.0000      0.0000      0.4454      0.0000      0.0000
 43      0.0000      0.0872      0.0000      0.0000      0.0000      0.0000      0.4417      0.0000      0.0000
 44      0.0000      0.2355      0.5601      0.0000      0.0000      0.0000      0.0000      0.0000      0.0000
 45      0.0000      0.3890      0.0542      0.0000      0.7436      0.0000      0.0000      0.0000      0.0000
 46      0.0000      8.8857      9.4426      9.2151     10.4536      5.5684      6.5553      7.5874      7.7893
