###################################################################
## OUTPUT of StarlightChains_v04.for    [Cid@UFSC - 01/Apr/2007] ##
###################################################################

## Some input info
ASASSN-14in.txt                          [arq_obs]
Base.CB07.vall.4m                        [arq_base]
Masks.EmLines.NEW.gm                     [arq_masks]
StCv04.C11.config                        [arq_config]
   66                                    [N_base]
    0                                    [N_YAV_components = # of components with extra extinction!]
    0                                    [i_FitPowerLaw (1/0 = Yes/No)]
-9.99                                    [alpha_PowerLaw]
CCM                                      [red_law_option]
 1.458241                                [q_norm = A(l_norm)/A(V)]

## (Re)Sampling Parameters
 3741.00                                 [l_ini (A)]
 7218.00                                 [l_fin (A)]
    1.00                                 [dl    (A)]     (OBS: dl_cushion =    50.00 A)

## Normalization info
 4020.00                                 [l_norm (A) - for base]
 4010.00                                 [llow_norm (A) - window for f_obs]
 4060.00                                 [lupp_norm (A) - window for f_obs]
1.202138E-17                             [fobs_norm (in input units)]

## S/N
 3691.00                                 [llow_SN (A) - window for S/N]
 7268.00                                 [lupp_SN (A) - window for S/N]
   4.455                                 [S/N in S/N window]
   6.607                                 [S/N in norm. window]
   5.658                                 [S/N_err in S/N window]
   8.392                                 [S/N_err in norm. window]
  1.0000                                 [fscale_chi2]

## etc...
    -2007442                             [idum_orig]
  2315                                   [NOl_eff]
  2310                                   [Nl_eff]
     5    NSIGMA                         [Ntot_cliped & clip_method]
   890890                                [Nglobal_steps]
   7                                     [N_chains]
  16                                     [NEX0s_base = N_base in EX0s-fits]
 0   0   1       17   2.0   1.932E+01    [Clip-Bug, RC-Crash & Burn-In warning-flags, n_censored_weights, wei_nsig_threshold & wei_limit]
    12     12.452     11.956      0.496  [idt_all, wdt_TotTime, wdt_UsrTime & wdt_SysTime (sec)]

## Synthesis Results - Best model ##

 3.52267E-01                             [chi2/Nl_eff]
     7.25925                             [adev (%)]

    92.29881                             [sum-of-x (%)]
 2.12408E-17                             [Flux_tot (units of input spectrum!)]
 3.83147E-14                             [Mini_tot (???)]
 2.04349E-14                             [Mcor_tot (???)]

  29.29                                  [v0_min  (km/s)]
 188.62                                  [vd_min  (km/s)]
 0.4835                                  [AV_min  (mag)]
 0.0000                                  [YAV_min (mag)]

# j     x_j(%)      Mini_j(%)     Mcor_j(%)     age_j(yr)     Z_j      (L/M)_j    YAV?  Mstars   component_j        a/Fe...       SSP_chi2r SSP_adev(%)   SSP_AV   SSP_x(%)
  1      0.0000     0.0000E+00    0.0000E+00    1.000000E+06  0.00400  1.094E-02    0   1.0000   age020_m42            0.0000     4.9347E-01     8.9342   2.2418    79.0854
  2      0.0000     0.0000E+00    0.0000E+00    3.160000E+06  0.00400  4.007E-02    0   0.9999   age045_m42            0.0000     4.5371E-01     8.6015   1.5343    83.9878
  3      0.0000     0.0000E+00    0.0000E+00    5.010000E+06  0.00400  2.539E-02    0   0.9488   age055_m42            0.0000     4.5991E-01     8.6072   1.8412    82.3806
  4      0.0000     0.0000E+00    0.0000E+00    6.610000E+06  0.00400  2.620E-02    0   0.9220   age061_m42            0.0000     4.4004E-01     8.4718   1.4552    84.4574
  5      0.0000     0.0000E+00    0.0000E+00    1.000000E+07  0.00400  1.322E-02    0   0.8862   age070_m42            0.0000     3.8030E-01     7.7058   1.1258    88.4898
  6      0.0000     0.0000E+00    0.0000E+00    1.445000E+07  0.00400  7.883E-03    0   0.8571   age078_m42            0.0000     3.9356E-01     7.8520   1.4538    86.1351
  7      0.0000     0.0000E+00    0.0000E+00    2.512000E+07  0.00400  5.251E-03    0   0.8174   age090_m42            0.0000     3.7225E-01     7.5901   0.9880    89.3922
  8      0.0000     0.0000E+00    0.0000E+00    4.000000E+07  0.00400  3.649E-03    0   0.7851   age104_m42            0.0000     3.7322E-01     7.6057   0.7683    89.8055
  9      0.0000     0.0000E+00    0.0000E+00    5.500000E+07  0.00400  3.098E-03    0   0.7629   age110_m42            0.0000     3.9547E-01     7.9761   0.9477    88.6349
 10      0.0041     1.1138E-03    1.5051E-03    1.015200E+08  0.00400  2.228E-03    0   0.7207   age116_m42            0.0000     4.1136E-01     8.2658   0.9843    88.0834
 11      0.0000     0.0000E+00    0.0000E+00    2.861200E+08  0.00400  1.093E-03    0   0.6648   age125_m42            0.0000     3.9840E-01     8.0576   0.4145    91.0939
 12      0.0000     0.0000E+00    0.0000E+00    5.088000E+08  0.00400  6.597E-04    0   0.6365   age130_m42            0.0000     4.2181E-01     8.4676   0.4316    90.5825
 13      0.0000     0.0000E+00    0.0000E+00    1.434000E+09  0.00400  2.132E-04    0   0.5798   age139_m42            0.0000     4.2659E-01     8.6311  -0.5166    91.3771
 14      4.2758     4.3566E+01    4.3922E+01    4.250000E+09  0.00400  5.895E-05    0   0.5377   age158_m42            0.0000     4.6148E-01     9.1547  -0.9268    86.4230
 15      0.0000     0.0000E+00    0.0000E+00    7.500000E+09  0.00400  3.510E-05    0   0.5212   age171_m42            0.0000     5.0293E-01     9.9507  -1.0000    81.7507
 16      0.0000     0.0000E+00    0.0000E+00    1.300000E+10  0.00400  2.005E-05    0   0.5034   age193_m42            0.0000     5.9045E-01    11.1972  -1.0000    75.7458
 17      1.1949     4.7064E+01    4.3830E+01    1.800000E+10  0.00400  1.525E-05    0   0.4967   age213_m42            0.0000     5.9945E-01    11.3109  -1.0000    74.6818
 18      0.0000     0.0000E+00    0.0000E+00    1.000000E+06  0.00800  1.238E-02    0   1.0000   age020_m52            0.0000     4.9358E-01     8.9408   2.2387    79.2176
 19      0.0000     0.0000E+00    0.0000E+00    3.160000E+06  0.00800  3.074E-02    0   0.9966   age045_m52            0.0000     4.8989E-01     8.8943   2.1619    79.9274
 20      0.0000     0.0000E+00    0.0000E+00    5.010000E+06  0.00800  2.668E-02    0   0.9443   age055_m52            0.0000     4.6003E-01     8.6106   1.9194    81.7950
 21     46.3306     1.3028E+00    2.2417E+00    6.610000E+06  0.00800  2.136E-02    0   0.9177   age061_m52            0.0000     3.7336E-01     7.6280   0.6321    89.1519
 22      0.0000     0.0000E+00    0.0000E+00    1.000000E+07  0.00800  1.215E-02    0   0.8827   age070_m52            0.0000     3.7637E-01     7.6172   1.2926    88.9243
 23      0.0000     0.0000E+00    0.0000E+00    1.445000E+07  0.00800  8.717E-03    0   0.8552   age078_m52            0.0000     3.8792E-01     7.7925   1.4191    87.3658
 24      0.0000     0.0000E+00    0.0000E+00    2.512000E+07  0.00800  5.592E-03    0   0.8162   age090_m52            0.0000     3.7285E-01     7.5834   1.0527    90.4996
 25      0.0000     0.0000E+00    0.0000E+00    4.000000E+07  0.00800  3.896E-03    0   0.7841   age104_m52            0.0000     3.8024E-01     7.7050   0.9807    90.5327
 26      0.0000     0.0000E+00    0.0000E+00    1.015200E+08  0.00800  2.148E-03    0   0.7226   age116_m52            0.0000     3.9738E-01     8.0376   0.9432    89.2488
 27      0.0000     0.0000E+00    0.0000E+00    2.861200E+08  0.00800  9.925E-04    0   0.6683   age125_m52            0.0000     4.2221E-01     8.5229   0.4942    91.5171
 28      0.0000     0.0000E+00    0.0000E+00    9.047900E+08  0.00800  3.141E-04    0   0.6138   age135_m52            0.0000     4.6287E-01     9.2553  -0.2506    92.9793
 29      0.0000     0.0000E+00    0.0000E+00    1.434000E+09  0.00800  1.719E-04    0   0.5853   age139_m52            0.0000     4.6634E-01     9.1921  -0.8262    90.9415
 30      0.0000     0.0000E+00    0.0000E+00    2.500000E+09  0.00800  7.872E-05    0   0.5600   age150_m52            0.0000     5.2074E-01    10.1461  -1.0000    84.7374
 31      0.0000     0.0000E+00    0.0000E+00    4.250000E+09  0.00800  4.336E-05    0   0.5426   age158_m52            0.0000     5.2546E-01    10.2262  -1.0000    83.3702
 32      0.0000     0.0000E+00    0.0000E+00    6.250000E+09  0.00800  3.159E-05    0   0.5319   age166_m52            0.0000     6.3726E-01    11.7775  -1.0000    76.4025
 33      0.0000     0.0000E+00    0.0000E+00    1.300000E+10  0.00800  1.361E-05    0   0.5073   age193_m52            0.0000     1.1235E+00    16.2385  -1.0000    61.5828
 34      0.0000     0.0000E+00    0.0000E+00    1.800000E+10  0.00800  9.886E-06    0   0.4990   age213_m52            0.0000     1.2796E+00    17.3963  -1.0000    58.3105
 35      0.8938     3.4769E-02    6.5190E-02    1.000000E+06  0.02000  1.544E-02    0   1.0000   age020_m62            0.0000     4.9438E-01     8.9442   2.2336    79.4375
 36      3.3712     5.3824E-02    9.9485E-02    3.160000E+06  0.02000  3.762E-02    0   0.9858   age045_m62            0.0000     4.9338E-01     8.9316   2.1729    80.1406
 37      0.0000     0.0000E+00    0.0000E+00    5.010000E+06  0.02000  3.296E-02    0   0.9342   age055_m62            0.0000     4.6202E-01     8.6894   1.8093    83.0872
 38     34.9435     1.8187E+00    3.0217E+00    8.710000E+06  0.02000  1.154E-02    0   0.8861   age067_m62            0.0000     3.9577E-01     7.7901   0.6582    95.9667
 39      0.0000     0.0000E+00    0.0000E+00    1.445000E+07  0.02000  7.663E-03    0   0.8472   age078_m62            0.0000     3.6550E-01     7.3951   0.9189    92.1460
 40      0.0000     0.0000E+00    0.0000E+00    2.512000E+07  0.02000  4.532E-03    0   0.8099   age090_m62            0.0000     3.7133E-01     7.4307   0.9081    92.1299
 41      0.0000     0.0000E+00    0.0000E+00    5.500000E+07  0.02000  2.733E-03    0   0.7595   age110_m62            0.0000     3.7589E-01     7.6641   0.9609    89.9684
 42      0.0000     0.0000E+00    0.0000E+00    1.609000E+08  0.02000  1.369E-03    0   0.6985   age120_m62            0.0000     4.0593E-01     8.2682   0.8336    90.9133
 43      0.0000     0.0000E+00    0.0000E+00    2.861200E+08  0.02000  9.013E-04    0   0.6714   age125_m62            0.0000     4.2861E-01     8.6727   0.6021    92.6740
 44      0.0000     0.0000E+00    0.0000E+00    5.088000E+08  0.02000  5.028E-04    0   0.6449   age130_m62            0.0000     4.7264E-01     9.3968   0.2723    92.9671
 45      0.0000     0.0000E+00    0.0000E+00    9.047900E+08  0.02000  2.428E-04    0   0.6179   age135_m62            0.0000     4.8087E-01     9.5871  -0.2878    91.3191
 46      1.2797     6.0859E+00    6.7415E+00    1.434000E+09  0.02000  1.263E-04    0   0.5908   age139_m62            0.0000     4.9940E-01     9.7802  -0.7225    89.5437
 47      0.0000     0.0000E+00    0.0000E+00    2.500000E+09  0.02000  5.985E-05    0   0.5673   age150_m62            0.0000     5.6816E-01    10.7436  -1.0000    84.9057
 48      0.0000     0.0000E+00    0.0000E+00    4.250000E+09  0.02000  3.271E-05    0   0.5468   age158_m62            0.0000     7.5556E-01    13.0145  -1.0000    73.7570
 49      0.0000     0.0000E+00    0.0000E+00    1.000000E+10  0.02000  1.360E-05    0   0.5167   age181_m62            0.0000     1.1402E+00    16.2550  -1.0000    62.8794
 50      0.0000     0.0000E+00    0.0000E+00    1.800000E+10  0.02000  7.124E-06    0   0.5013   age213_m62            0.0000     1.4434E+00    18.3769  -1.0000    56.6738
 51      0.0000     0.0000E+00    0.0000E+00    1.000000E+06  0.05000  2.592E-02    0   0.9998   age020_m72            0.0000     4.9579E-01     8.9525   2.2217    79.5814
 52      0.0000     0.0000E+00    0.0000E+00    3.160000E+06  0.05000  4.845E-02    0   0.9577   age045_m72            0.0000     4.8883E-01     8.8823   2.0642    80.9247
 53      0.0000     0.0000E+00    0.0000E+00    5.010000E+06  0.05000  3.072E-02    0   0.9147   age055_m72            0.0000     4.0385E-01     7.9232   1.5439    86.9072
 54      0.0000     0.0000E+00    0.0000E+00    6.610000E+06  0.05000  1.455E-02    0   0.8877   age061_m72            0.0000     5.4509E-01     9.1759   0.7106    97.7754
 55      0.0000     0.0000E+00    0.0000E+00    1.000000E+07  0.05000  9.074E-03    0   0.8524   age070_m72            0.0000     4.4192E-01     8.3097   1.7539    85.9943
 56      0.0000     0.0000E+00    0.0000E+00    2.512000E+07  0.05000  4.250E-03    0   0.7902   age090_m72            0.0000     4.1303E-01     7.9931   1.4375    88.1067
 57      0.0000     0.0000E+00    0.0000E+00    4.000000E+07  0.05000  3.087E-03    0   0.7618   age104_m72            0.0000     4.1198E-01     7.9454   1.2026    89.9676
 58      0.0000     0.0000E+00    0.0000E+00    1.015200E+08  0.05000  1.700E-03    0   0.7096   age116_m72            0.0000     4.0228E-01     8.1139   0.9629    91.2433
 59      0.0000     0.0000E+00    0.0000E+00    2.861200E+08  0.05000  7.384E-04    0   0.6633   age125_m72            0.0000     4.5315E-01     9.0844   0.4956    92.8047
 60      0.0000     0.0000E+00    0.0000E+00    5.088000E+08  0.05000  3.819E-04    0   0.6372   age130_m72            0.0000     4.8137E-01     9.5966   0.0395    92.6156
 61      0.0000     0.0000E+00    0.0000E+00    9.047900E+08  0.05000  1.676E-04    0   0.6110   age135_m72            0.0000     5.5813E-01    10.5410  -0.6073    88.8171
 62      0.0000     0.0000E+00    0.0000E+00    1.434000E+09  0.05000  8.837E-05    0   0.5874   age139_m72            0.0000     5.9133E-01    10.9824  -1.0000    86.1290
 63      0.0052     7.3535E-02    7.7183E-02    2.500000E+09  0.05000  4.233E-05    0   0.5598   age150_m72            0.0000     7.8639E-01    13.2650  -1.0000    74.3501
 64      0.0000     0.0000E+00    0.0000E+00    6.250000E+09  0.05000  1.435E-05    0   0.5249   age166_m72            0.0000     1.2828E+00    17.2680  -1.0000    59.9215
 65      0.0000     0.0000E+00    0.0000E+00    1.300000E+10  0.05000  6.513E-06    0   0.5036   age193_m72            0.0000     1.7250E+00    20.1009  -1.0000    53.1536
 66      0.0000     0.0000E+00    0.0000E+00    1.800000E+10  0.05000  4.527E-06    0   0.4945   age213_m72            0.0000     2.0097E+00    21.7044  -1.0000    49.2011


## Synthesis Results - Average & Chains ##

# j      x_j: min, <> & last-chain-values for 1 ...  7 chains
  1      0.0000      0.1660      0.1503      0.0000      0.0000      0.0000      0.0000      1.5536      0.0000
  2      0.0000      0.5383      2.6116      0.0000      0.7106      0.2599      1.2505      0.0000      0.0000
  3      0.0000      0.2728      0.0000      0.1372      0.0000      0.0000      2.4353      0.7361      0.0000
  4      0.0000      0.5647      1.7406      0.0000      0.0000      1.8299      0.0000      0.0000      3.5605
  5      0.0000      1.1152      5.4559      0.0000      0.0000      0.0000      0.0000      0.0000      0.0000
  6      0.0000      0.2586      0.0000      0.0000      0.0000      0.0000      0.0000      0.0000      0.3812
  7      0.0000      1.3441      0.0000      6.4245      0.0000      3.2035      0.0000      7.8535      0.0000
  8      0.0000      3.2661      4.1052      1.1253      2.3961      6.3041      0.0000      0.0000      0.0000
  9      0.0000      1.7473      0.0000      0.0000      0.0000      0.0000      0.0000      0.0000      0.0000
 10      0.0041      1.1632      0.0000      2.3326      0.0000      0.0000      0.0000      5.3898      5.2185
 11      0.0000      1.2466      0.0000      1.6723      0.0000      1.1929      0.0000      0.0000      0.0000
 12      0.0000      2.0927      0.0000      0.0000      3.0524      1.1697      0.0000      0.0000      0.0000
 13      0.0000      0.1241      0.0000      0.0000      0.0000      0.0000      0.0000      0.5885      0.0000
 14      4.2758      0.5755      2.1905      2.5235      0.7876      0.0000      0.0000      0.1404      2.6850
 15      0.0000      0.0435      0.0000      0.0000      0.0000      0.0000      0.0000      0.0000      0.0000
 16      0.0000      0.0175      0.0000      0.0000      0.0000      0.0000      0.0000      0.0000      0.0000
 17      1.1949      0.0589      0.2159      0.5812      0.3266      0.0000      0.3688      0.0000      0.9019
 18      0.0000      0.1918      0.0000      3.4936      0.0000      0.0000      0.0000      0.0000      0.0000
 19      0.0000      0.3312      0.7909      1.7229      0.0000      0.0000      0.0000      0.0000      0.3605
 20      0.0000      0.3442      0.0000      0.0000      0.0000      0.0000      0.0000      0.0000      0.0000
 21     46.3306     24.0268     27.7765     28.4830     30.2999     33.6547     40.2525     30.5195     28.8392
 22      0.0000      0.4821      0.0000      3.8004      0.0000      0.0000      1.9107      0.0000      0.0000
 23      0.0000      0.6074      2.3230      0.0000      0.6271      0.0000      0.0000      0.4932      0.0000
 24      0.0000      1.4721      0.4923      0.0000     10.9592      5.3552      0.0000      0.0000      0.0000
 25      0.0000      0.8175      0.0000      0.0000      0.0000      0.0000      0.2518      0.0000      0.8306
 26      0.0000      1.0048      0.0000      0.8642      0.0000      0.0000      0.0000      0.0000      1.1116
 27      0.0000      1.7955      0.0000      0.0000      5.5196      0.0000      0.0000      0.0000      0.0000
 28      0.0000      0.1691      0.0000      0.0000      0.0000      0.0000      0.0000      0.0000      0.0000
 29      0.0000      0.0369      0.0000      0.0000      0.0000      0.0000      0.7225      0.0000      0.0000
 30      0.0000      0.0384      0.0000      0.0000      0.0000      0.0000      0.0000      0.0000      0.0000
 31      0.0000      0.1223      0.0000      0.0000      0.9629      0.0000      0.0000      0.0000      0.0000
 32      0.0000      0.0183      0.0000      0.0000      0.0000      0.0000      0.0000      0.3393      0.0000
 33      0.0000      0.0337      0.0000      0.0000      0.0000      0.4881      0.0000      0.0000      0.0000
 34      0.0000      0.0447      0.0000      0.0000      0.0000      0.0000      0.0000      0.4423      0.6206
 35      0.8938      0.2799      1.8714      0.0000      0.0000      0.0000      0.0000      2.6080      2.4941
 36      3.3712      0.4648      1.8819      0.0000      0.4428      0.0000      0.0000      3.6658      5.4917
 37      0.0000      0.2373      0.0000      0.0000      0.0000      0.0000      0.0000      0.0000      0.0000
 38     34.9435     29.7757     32.8610     31.4432     30.9698     33.3413     37.1540     29.0863     28.5413
 39      0.0000      1.2851      0.4602      0.3250      0.0000      0.3275      5.1379      0.0000      1.4404
 40      0.0000      2.0845      0.0000      0.0000      0.0000      0.0000      1.1233      0.0000      0.0000
 41      0.0000      1.1641      0.0000      3.6653      0.8753      0.0000      0.0000      1.8987      0.0000
 42      0.0000      1.6772      0.0000      0.0000      1.0489      0.0000      0.0000      0.0000      1.1190
 43      0.0000      1.6466      6.8243      0.0000      0.0000      0.0000      0.7483      0.0000      4.4917
 44      0.0000      0.9877      0.0000      0.0000      0.0000      2.5163      0.0000      0.0000      0.0000
 45      0.0000      0.2178      0.2917      1.9613      0.0000      0.0000      1.1289      0.0000      1.8577
 46      1.2797      0.1019      0.0000      0.0000      0.0000      0.0000      0.0000      0.0000      1.5395
