###################################################################
## OUTPUT of StarlightChains_v04.for    [Cid@UFSC - 01/Apr/2007] ##
###################################################################

## Some input info
ASASSN-13dd.txt                          [arq_obs]
Base.CB07.vall.4m                        [arq_base]
Masks.EmLines.NEW.gm                     [arq_masks]
StCv04.C11.config                        [arq_config]
   66                                    [N_base]
    0                                    [N_YAV_components = # of components with extra extinction!]
    0                                    [i_FitPowerLaw (1/0 = Yes/No)]
-9.99                                    [alpha_PowerLaw]
CCM                                      [red_law_option]
 1.458241                                [q_norm = A(l_norm)/A(V)]

## (Re)Sampling Parameters
 3741.00                                 [l_ini (A)]
 7218.00                                 [l_fin (A)]
    1.00                                 [dl    (A)]     (OBS: dl_cushion =    50.00 A)

## Normalization info
 4020.00                                 [l_norm (A) - for base]
 4010.00                                 [llow_norm (A) - window for f_obs]
 4060.00                                 [lupp_norm (A) - window for f_obs]
6.572568E-16                             [fobs_norm (in input units)]

## S/N
 3691.00                                 [llow_SN (A) - window for S/N]
 7268.00                                 [lupp_SN (A) - window for S/N]
   5.746                                 [S/N in S/N window]
   5.105                                 [S/N in norm. window]
  29.190                                 [S/N_err in S/N window]
  25.933                                 [S/N_err in norm. window]
  1.0000                                 [fscale_chi2]

## etc...
    -2007441                             [idum_orig]
  2385                                   [NOl_eff]
  2359                                   [Nl_eff]
    26    NSIGMA                         [Ntot_cliped & clip_method]
   828940                                [Nglobal_steps]
   7                                     [N_chains]
  10                                     [NEX0s_base = N_base in EX0s-fits]
 0   0   1       11   2.0   7.781E+01    [Clip-Bug, RC-Crash & Burn-In warning-flags, n_censored_weights, wei_nsig_threshold & wei_limit]
    13     12.364     11.868      0.496  [idt_all, wdt_TotTime, wdt_UsrTime & wdt_SysTime (sec)]

## Synthesis Results - Best model ##

 6.29986E-01                             [chi2/Nl_eff]
     1.79451                             [adev (%)]

   104.47358                             [sum-of-x (%)]
 5.14151E-16                             [Flux_tot (units of input spectrum!)]
 1.43822E-11                             [Mini_tot (???)]
 7.84402E-12                             [Mcor_tot (???)]

 -16.45                                  [v0_min  (km/s)]
 207.14                                  [vd_min  (km/s)]
-0.2154                                  [AV_min  (mag)]
 0.0000                                  [YAV_min (mag)]

# j     x_j(%)      Mini_j(%)     Mcor_j(%)     age_j(yr)     Z_j      (L/M)_j    YAV?  Mstars   component_j        a/Fe...       SSP_chi2r SSP_adev(%)   SSP_AV   SSP_x(%)
  1      0.0000     0.0000E+00    0.0000E+00    1.000000E+06  0.00400  1.094E-02    0   1.0000   age020_m42            0.0000     1.2263E+01     8.5963   3.3445    95.5299
  2      0.0000     0.0000E+00    0.0000E+00    3.160000E+06  0.00400  4.007E-02    0   0.9999   age045_m42            0.0000     1.0860E+01     8.2389   2.5949   103.4690
  3      0.0000     0.0000E+00    0.0000E+00    5.010000E+06  0.00400  2.539E-02    0   0.9488   age055_m42            0.0000     1.1344E+01     8.3860   2.9224   100.4932
  4      0.0000     0.0000E+00    0.0000E+00    6.610000E+06  0.00400  2.620E-02    0   0.9220   age061_m42            0.0000     1.0703E+01     8.3409   2.5108   104.2757
  5      0.0000     0.0000E+00    0.0000E+00    1.000000E+07  0.00400  1.322E-02    0   0.8862   age070_m42            0.0000     1.1900E+01    10.1134   2.1500   110.8259
  6      0.0000     0.0000E+00    0.0000E+00    1.445000E+07  0.00400  7.883E-03    0   0.8571   age078_m42            0.0000     1.2291E+01     9.9660   2.4953   107.0113
  7      0.0000     0.0000E+00    0.0000E+00    2.512000E+07  0.00400  5.251E-03    0   0.8174   age090_m42            0.0000     1.2278E+01    10.4991   2.0015   112.5056
  8      0.0000     0.0000E+00    0.0000E+00    4.000000E+07  0.00400  3.649E-03    0   0.7851   age104_m42            0.0000     1.1421E+01    10.1816   1.7768   113.3035
  9      0.0000     0.0000E+00    0.0000E+00    5.500000E+07  0.00400  3.098E-03    0   0.7629   age110_m42            0.0000     1.0652E+01     9.2991   1.9637   111.4664
 10      0.0000     0.0000E+00    0.0000E+00    1.015200E+08  0.00400  2.228E-03    0   0.7207   age116_m42            0.0000     1.0188E+01     8.7593   2.0043   110.5693
 11      0.0000     0.0000E+00    0.0000E+00    2.861200E+08  0.00400  1.093E-03    0   0.6648   age125_m42            0.0000     1.0327E+01     9.5213   1.4059   115.8558
 12      0.0000     0.0000E+00    0.0000E+00    5.088000E+08  0.00400  6.597E-04    0   0.6365   age130_m42            0.0000     8.7274E+00     8.4516   1.4279   114.9444
 13      0.0000     0.0000E+00    0.0000E+00    1.434000E+09  0.00400  2.132E-04    0   0.5798   age139_m42            0.0000     4.7727E+00     6.7441   0.4654   116.5884
 14      0.0000     0.0000E+00    0.0000E+00    4.250000E+09  0.00400  5.895E-05    0   0.5377   age158_m42            0.0000     2.6359E+00     4.6947   0.0967   108.1314
 15      0.0000     0.0000E+00    0.0000E+00    7.500000E+09  0.00400  3.510E-05    0   0.5212   age171_m42            0.0000     1.9663E+00     3.8590  -0.0602   105.8696
 16      0.0000     0.0000E+00    0.0000E+00    1.300000E+10  0.00400  2.005E-05    0   0.5034   age193_m42            0.0000     1.5647E+00     3.1947  -0.1962   103.8951
 17      0.0000     0.0000E+00    0.0000E+00    1.800000E+10  0.00400  1.525E-05    0   0.4967   age213_m42            0.0000     1.6354E+00     3.3460  -0.2256   103.7246
 18      0.0000     0.0000E+00    0.0000E+00    1.000000E+06  0.00800  1.238E-02    0   1.0000   age020_m52            0.0000     1.2189E+01     8.5723   3.3422    95.6523
 19      0.0000     0.0000E+00    0.0000E+00    3.160000E+06  0.00800  3.074E-02    0   0.9966   age045_m52            0.0000     1.1879E+01     8.4460   3.2646    96.5315
 20      0.0000     0.0000E+00    0.0000E+00    5.010000E+06  0.00800  2.668E-02    0   0.9443   age055_m52            0.0000     1.1180E+01     8.4194   3.0031    99.6480
 21      0.0000     0.0000E+00    0.0000E+00    6.610000E+06  0.00800  2.136E-02    0   0.9177   age061_m52            0.0000     9.5228E+00     9.3996   1.6580   111.5399
 22      0.0000     0.0000E+00    0.0000E+00    1.000000E+07  0.00800  1.215E-02    0   0.8827   age070_m52            0.0000     1.2617E+01    10.7190   2.3140   111.4878
 23      0.0000     0.0000E+00    0.0000E+00    1.445000E+07  0.00800  8.717E-03    0   0.8552   age078_m52            0.0000     1.1819E+01     9.9432   2.4538   108.8662
 24      0.0000     0.0000E+00    0.0000E+00    2.512000E+07  0.00800  5.592E-03    0   0.8162   age090_m52            0.0000     1.1921E+01    10.5543   2.0600   114.2041
 25      0.0000     0.0000E+00    0.0000E+00    4.000000E+07  0.00800  3.896E-03    0   0.7841   age104_m52            0.0000     1.1177E+01    10.1194   1.9851   114.4290
 26      0.0000     0.0000E+00    0.0000E+00    1.015200E+08  0.00800  2.148E-03    0   0.7226   age116_m52            0.0000     9.9142E+00     9.1302   1.9541   112.5084
 27      0.0000     0.0000E+00    0.0000E+00    2.861200E+08  0.00800  9.925E-04    0   0.6683   age125_m52            0.0000     8.1141E+00     8.3552   1.4891   116.2426
 28      0.0000     0.0000E+00    0.0000E+00    9.047900E+08  0.00800  3.141E-04    0   0.6138   age135_m52            0.0000     4.4612E+00     6.2682   0.7348   118.5602
 29      0.0000     0.0000E+00    0.0000E+00    1.434000E+09  0.00800  1.719E-04    0   0.5853   age139_m52            0.0000     3.1026E+00     5.4047   0.1772   114.8422
 30      0.0000     0.0000E+00    0.0000E+00    2.500000E+09  0.00800  7.872E-05    0   0.5600   age150_m52            0.0000     1.5332E+00     3.3903  -0.0250   108.1136
 31      0.0000     0.0000E+00    0.0000E+00    4.250000E+09  0.00800  4.336E-05    0   0.5426   age158_m52            0.0000     1.5945E+00     3.3145  -0.0349   106.8116
 32      0.0737     7.9791E-02    7.7816E-02    6.250000E+09  0.00800  3.159E-05    0   0.5319   age166_m52            0.0000     1.0817E+00     2.3831  -0.1987   104.8956
 33      0.0000     0.0000E+00    0.0000E+00    1.300000E+10  0.00800  1.361E-05    0   0.5073   age193_m52            0.0000     6.6121E-01     1.7488  -0.6197   101.8957
 34      0.0000     0.0000E+00    0.0000E+00    1.800000E+10  0.00800  9.886E-06    0   0.4990   age213_m52            0.0000     6.9299E-01     2.2976  -0.6850    99.4014
 35      0.0000     0.0000E+00    0.0000E+00    1.000000E+06  0.02000  1.544E-02    0   1.0000   age020_m62            0.0000     1.2204E+01     8.5827   3.3386    95.8547
 36      0.0000     0.0000E+00    0.0000E+00    3.160000E+06  0.02000  3.762E-02    0   0.9858   age045_m62            0.0000     1.2018E+01     8.5211   3.2801    96.5748
 37      0.0000     0.0000E+00    0.0000E+00    5.010000E+06  0.02000  3.296E-02    0   0.9342   age055_m62            0.0000     1.0667E+01     8.0756   2.8863   101.5608
 38      0.0000     0.0000E+00    0.0000E+00    8.710000E+06  0.02000  1.154E-02    0   0.8861   age067_m62            0.0000     2.1105E+01    15.3706   1.6297   122.9932
 39      0.0000     0.0000E+00    0.0000E+00    1.445000E+07  0.02000  7.663E-03    0   0.8472   age078_m62            0.0000     1.4017E+01    12.0535   1.9180   116.6806
 40      0.0000     0.0000E+00    0.0000E+00    2.512000E+07  0.02000  4.532E-03    0   0.8099   age090_m62            0.0000     1.4728E+01    12.3521   1.9024   116.9039
 41      0.0000     0.0000E+00    0.0000E+00    5.500000E+07  0.02000  2.733E-03    0   0.7595   age110_m62            0.0000     1.0911E+01     9.9936   1.9719   113.3452
 42      0.0000     0.0000E+00    0.0000E+00    1.609000E+08  0.02000  1.369E-03    0   0.6985   age120_m62            0.0000     9.4289E+00     8.8843   1.8403   114.8320
 43      0.0000     0.0000E+00    0.0000E+00    2.861200E+08  0.02000  9.013E-04    0   0.6714   age125_m62            0.0000     8.1739E+00     8.2958   1.5964   117.7462
 44      0.0000     0.0000E+00    0.0000E+00    5.088000E+08  0.02000  5.028E-04    0   0.6449   age130_m62            0.0000     5.8223E+00     6.8439   1.2670   118.1122
 45      0.0000     0.0000E+00    0.0000E+00    9.047900E+08  0.02000  2.428E-04    0   0.6179   age135_m62            0.0000     3.0218E+00     4.9259   0.7235   115.0469
 46      0.0000     0.0000E+00    0.0000E+00    1.434000E+09  0.02000  1.263E-04    0   0.5908   age139_m62            0.0000     1.8661E+00     3.8190   0.3054   111.8823
 47      0.0060     3.4435E-03    3.5818E-03    2.500000E+09  0.02000  5.985E-05    0   0.5673   age150_m62            0.0000     1.0951E+00     2.4395  -0.0016   107.2272
 48     18.8625     1.9732E+01    1.9783E+01    4.250000E+09  0.02000  3.271E-05    0   0.5468   age158_m62            0.0000     6.3237E-01     1.6865  -0.2478   103.3690
 49      0.6609     1.6628E+00    1.5753E+00    1.000000E+10  0.02000  1.360E-05    0   0.5167   age181_m62            0.0000     8.2896E-01     2.9451  -0.5295    99.8264
 50      0.8185     3.9313E+00    3.6134E+00    1.800000E+10  0.02000  7.124E-06    0   0.5013   age213_m62            0.0000     1.2507E+00     4.1172  -0.6826    96.4898
 51      0.0000     0.0000E+00    0.0000E+00    1.000000E+06  0.05000  2.592E-02    0   0.9998   age020_m72            0.0000     1.2354E+01     8.6768   3.3281    95.9534
 52      0.0000     0.0000E+00    0.0000E+00    3.160000E+06  0.05000  4.845E-02    0   0.9577   age045_m72            0.0000     1.1421E+01     8.2068   3.1639    97.8573
 53      0.0000     0.0000E+00    0.0000E+00    5.010000E+06  0.05000  3.072E-02    0   0.9147   age055_m72            0.0000     1.3045E+01    10.6337   2.5876   107.8114
 54      0.0000     0.0000E+00    0.0000E+00    6.610000E+06  0.05000  1.455E-02    0   0.8877   age061_m72            0.0000     3.1767E+01    18.4971   1.6681   126.1090
 55      0.0000     0.0000E+00    0.0000E+00    1.000000E+07  0.05000  9.074E-03    0   0.8524   age070_m72            0.0000     1.4909E+01    11.0551   2.8101   106.1482
 56      0.0000     0.0000E+00    0.0000E+00    2.512000E+07  0.05000  4.250E-03    0   0.7902   age090_m72            0.0000     1.3735E+01    10.9691   2.4620   110.3078
 57      0.0000     0.0000E+00    0.0000E+00    4.000000E+07  0.05000  3.087E-03    0   0.7618   age104_m72            0.0000     1.4127E+01    11.3483   2.2099   113.5094
 58      0.0000     0.0000E+00    0.0000E+00    1.015200E+08  0.05000  1.700E-03    0   0.7096   age116_m72            0.0000     1.0580E+01     9.6413   1.9623   115.6137
 59      0.0000     0.0000E+00    0.0000E+00    2.861200E+08  0.05000  7.384E-04    0   0.6633   age125_m72            0.0000     6.7706E+00     7.4928   1.4891   117.9465
 60      0.0000     0.0000E+00    0.0000E+00    5.088000E+08  0.05000  3.819E-04    0   0.6372   age130_m72            0.0000     3.8411E+00     5.5011   1.0465   116.9268
 61      2.6705     5.4522E-01    6.1080E-01    9.047900E+08  0.05000  1.676E-04    0   0.6110   age135_m72            0.0000     1.6182E+00     3.0102   0.4395   110.0159
 62     24.7385     9.5792E+00    1.0317E+01    1.434000E+09  0.05000  8.837E-05    0   0.5874   age139_m72            0.0000     9.1320E-01     2.3216   0.0036   108.5160
 63     50.3823     4.0728E+01    4.1803E+01    2.500000E+09  0.05000  4.233E-05    0   0.5598   age150_m72            0.0000     6.2901E-01     1.9643  -0.2297   103.3496
 64      3.1908     7.6085E+00    7.3226E+00    6.250000E+09  0.05000  1.435E-05    0   0.5249   age166_m72            0.0000     9.6312E-01     3.3046  -0.6068    98.4948
 65      3.0701     1.6130E+01    1.4894E+01    1.300000E+10  0.05000  6.513E-06    0   0.5036   age193_m72            0.0000     1.6932E+00     4.8391  -0.8161    96.2496
 66      0.0000     0.0000E+00    0.0000E+00    1.800000E+10  0.05000  4.527E-06    0   0.4945   age213_m72            0.0000     2.3118E+00     5.7813  -0.9318    94.0918


## Synthesis Results - Average & Chains ##

# j      x_j: min, <> & last-chain-values for 1 ...  7 chains
  1      0.0000      0.0074      0.0000      0.0000      0.0000      0.0668      0.0000      0.0000      0.0302
  2      0.0000      0.0243      0.0000      0.0000      0.0000      0.0000      0.0000      0.0000      0.0000
  3      0.0000      0.0071      0.0403      0.0000      0.0000      0.0285      0.0000      0.0000      0.0000
  4      0.0000      0.0074      0.0000      0.1207      0.0000      0.0000      0.0000      0.0000      0.0000
  5      0.0000      0.0235      0.0000      0.0000      0.0000      0.0000      0.1820      0.0000      0.0000
  6      0.0000      0.0044      0.0000      0.0000      0.0000      0.0000      0.0000      0.0000      0.0000
  7      0.0000      0.0052      0.0000      0.0000      0.0000      0.0000      0.0000      0.0000      0.0000
  8      0.0000      0.0444      0.0000      0.0000      0.0000      0.0000      0.0000      0.0000      0.0000
  9      0.0000      0.0394      0.3088      0.0169      0.0000      0.0980      0.0000      0.0000      0.1023
 10      0.0000      0.0077      0.0000      0.0000      0.0000      0.0000      0.0000      0.0000      0.0000
 11      0.0000      0.0254      0.1699      0.0000      0.0000      0.0957      0.0000      0.0000      0.0000
 12      0.0000      0.0386      0.0000      0.0000      0.0000      0.2199      0.0000      0.0291      0.0175
 13      0.0000      0.0564      0.0000      0.0000      0.0000      0.0000      0.0000      0.0000      0.0000
 14      0.0000      0.1593      0.0000      0.0117      0.1532      0.1498      0.0000      0.0000      0.4118
 15      0.0000      0.1983      0.3056      0.0000      0.0000      0.0000      0.0000      0.0000      0.2123
 16      0.0000      0.2380      0.1660      0.0000      0.0000      0.0000      0.0000      0.0000      0.0107
 17      0.0000      0.1972      0.0000      0.0000      0.0000      0.0000      0.8559      0.0000      0.2740
 18      0.0000      0.0066      0.0000      0.0931      0.0000      0.0000      0.0000      0.0000      0.0000
 19      0.0000      0.0114      0.0000      0.0000      0.0000      0.0000      0.0000      0.0000      0.0000
 20      0.0000      0.0103      0.0000      0.0000      0.0000      0.0000      0.0000      0.0000      0.0000
 21      0.0000      0.0063      0.0993      0.0000      0.0000      0.0000      0.0000      0.0000      0.0000
 22      0.0000      0.0211      0.0516      0.0000      0.0000      0.0000      0.0000      0.1107      0.0000
 23      0.0000      0.0127      0.0000      0.2153      0.0000      0.0000      0.0000      0.0000      0.0000
 24      0.0000      0.0119      0.0000      0.0000      0.0000      0.0000      0.0102      0.0000      0.0000
 25      0.0000      0.0126      0.0000      0.0000      0.0000      0.0000      0.0000      0.0154      0.0000
 26      0.0000      0.0189      0.0000      0.0000      0.0000      0.0000      0.2373      0.0000      0.0000
 27      0.0000      0.0168      0.0000      0.0000      0.0000      0.3326      0.0000      0.0000      0.0000
 28      0.0000      0.0663      0.0000      0.0000      0.0000      0.2217      0.0000      0.0000      0.0429
 29      0.0000      0.0675      0.0000      0.0794      0.1015      0.0000      0.0000      0.0000      0.0000
 30      0.0000      0.3112      0.3174      0.0000      0.0000      0.0000      0.0000      0.4877      0.3653
 31      0.0000      0.1155      0.0000      0.0000      0.0151      0.0000      0.0000      0.0000      0.0000
 32      0.0737      0.1672      0.4045      0.0000      0.0000      0.0890      0.0000      1.2010      0.0922
 33      0.0000      0.0712      0.0133      0.0000      0.0000      0.0000      0.0000      0.0000      0.0000
 34      0.0000      0.0313      0.0000      0.0000      0.0014      0.0000      0.0000      0.0000      0.0000
 35      0.0000      0.0063      0.0000      0.0000      0.0000      0.0000      0.0000      0.0000      0.0660
 36      0.0000      0.0213      0.2407      0.0000      0.0000      0.0000      0.0000      0.0000      0.0000
 37      0.0000      0.0108      0.0000      0.0000      0.0000      0.0000      0.0000      0.0000      0.0000
 38      0.0000      0.0178      0.0000      0.0000      0.0000      0.0000      0.0642      0.0000      0.0000
 39      0.0000      0.0160      0.0000      0.0000      0.2640      0.0000      0.1425      0.0200      0.0000
 40      0.0000      0.0158      0.0000      0.0000      0.0000      0.0000      0.0000      0.0448      0.0000
 41      0.0000      0.0231      0.0000      0.0000      0.0000      0.0000      0.0000      0.0000      0.0000
 42      0.0000      0.0197      0.0000      0.0000      0.0000      0.0000      0.0000      0.0000      0.0000
 43      0.0000      0.0324      0.0000      0.2217      0.0000      0.0000      0.0000      0.0000      0.0000
 44      0.0000      0.0581      0.0000      0.0000      0.0000      0.0000      0.0000      0.0000      0.0000
 45      0.0000      0.0455      0.0000      0.0000      0.0000      0.0000      0.0000      0.0000      0.0000
 46      0.0000      0.1452      0.0000      0.0000      0.0000      0.0000      0.1241      0.0000      0.0000
