###################################################################
## OUTPUT of StarlightChains_v04.for    [Cid@UFSC - 01/Apr/2007] ##
###################################################################

## Some input info
ASASSN-15fs.txt                          [arq_obs]
Base.CB07.vall.4m                        [arq_base]
Masks.EmLines.NEW.gm                     [arq_masks]
StCv04.C11.config                        [arq_config]
   66                                    [N_base]
    0                                    [N_YAV_components = # of components with extra extinction!]
    0                                    [i_FitPowerLaw (1/0 = Yes/No)]
-9.99                                    [alpha_PowerLaw]
CCM                                      [red_law_option]
 1.458241                                [q_norm = A(l_norm)/A(V)]

## (Re)Sampling Parameters
 3741.00                                 [l_ini (A)]
 7218.00                                 [l_fin (A)]
    1.00                                 [dl    (A)]     (OBS: dl_cushion =    50.00 A)

## Normalization info
 4020.00                                 [l_norm (A) - for base]
 4010.00                                 [llow_norm (A) - window for f_obs]
 4060.00                                 [lupp_norm (A) - window for f_obs]
1.169727E-16                             [fobs_norm (in input units)]

## S/N
 3691.00                                 [llow_SN (A) - window for S/N]
 7268.00                                 [lupp_SN (A) - window for S/N]
   9.809                                 [S/N in S/N window]
   9.818                                 [S/N in norm. window]
  23.241                                 [S/N_err in S/N window]
  23.262                                 [S/N_err in norm. window]
  1.0000                                 [fscale_chi2]

## etc...
    -2007444                             [idum_orig]
  2327                                   [NOl_eff]
  2318                                   [Nl_eff]
     9    NSIGMA                         [Ntot_cliped & clip_method]
  2332400                                [Nglobal_steps]
   7                                     [N_chains]
  35                                     [NEX0s_base = N_base in EX0s-fits]
 0   0   1       10   2.0   5.699E+01    [Clip-Bug, RC-Crash & Burn-In warning-flags, n_censored_weights, wei_nsig_threshold & wei_limit]
    19     18.895     18.399      0.496  [idt_all, wdt_TotTime, wdt_UsrTime & wdt_SysTime (sec)]

## Synthesis Results - Best model ##

 3.99647E-01                             [chi2/Nl_eff]
     1.94317                             [adev (%)]

   100.92294                             [sum-of-x (%)]
 2.64968E-16                             [Flux_tot (units of input spectrum!)]
 4.50565E-12                             [Mini_tot (???)]
 2.35381E-12                             [Mcor_tot (???)]

 -67.37                                  [v0_min  (km/s)]
 175.31                                  [vd_min  (km/s)]
 0.6020                                  [AV_min  (mag)]
 0.0000                                  [YAV_min (mag)]

# j     x_j(%)      Mini_j(%)     Mcor_j(%)     age_j(yr)     Z_j      (L/M)_j    YAV?  Mstars   component_j        a/Fe...       SSP_chi2r SSP_adev(%)   SSP_AV   SSP_x(%)
  1      0.0728     3.8755E-04    7.4184E-04    1.000000E+06  0.00400  1.094E-02    0   1.0000   age020_m42            0.0000     3.1078E+00     5.5995   3.3673    81.1990
  2      0.0008     1.1577E-06    2.2158E-06    3.160000E+06  0.00400  4.007E-02    0   0.9999   age045_m42            0.0000     2.4100E+00     4.5917   2.6305    87.3969
  3      0.0000     0.0000E+00    0.0000E+00    5.010000E+06  0.00400  2.539E-02    0   0.9488   age055_m42            0.0000     2.5695E+00     4.8602   2.9476    85.3196
  4      0.0025     5.4996E-06    9.7062E-06    6.610000E+06  0.00400  2.620E-02    0   0.9220   age061_m42            0.0000     2.1588E+00     4.3795   2.5419    88.2686
  5      1.1556     5.0935E-03    8.6403E-03    1.000000E+07  0.00400  1.322E-02    0   0.8862   age070_m42            0.0000     1.3356E+00     3.6041   2.1559    94.8821
  6      0.0000     0.0000E+00    0.0000E+00    1.445000E+07  0.00400  7.883E-03    0   0.8571   age078_m42            0.0000     1.6264E+00     3.9875   2.4990    91.7281
  7      3.2051     3.5567E-02    5.5650E-02    2.512000E+07  0.00400  5.251E-03    0   0.8174   age090_m42            0.0000     1.2260E+00     3.5486   2.0052    96.4090
  8      2.1898     3.4969E-02    5.2552E-02    4.000000E+07  0.00400  3.649E-03    0   0.7851   age104_m42            0.0000     1.1205E+00     3.3352   1.7869    96.7944
  9      0.0000     0.0000E+00    0.0000E+00    5.500000E+07  0.00400  3.098E-03    0   0.7629   age110_m42            0.0000     1.3321E+00     3.4640   1.9851    94.7326
 10      0.0000     0.0000E+00    0.0000E+00    1.015200E+08  0.00400  2.228E-03    0   0.7207   age116_m42            0.0000     1.4558E+00     3.7374   2.0326    93.6832
 11      0.0000     0.0000E+00    0.0000E+00    2.861200E+08  0.00400  1.093E-03    0   0.6648   age125_m42            0.0000     1.3182E+00     3.5948   1.4301    98.2982
 12      0.0000     0.0000E+00    0.0000E+00    5.088000E+08  0.00400  6.597E-04    0   0.6365   age130_m42            0.0000     1.2948E+00     3.7772   1.4648    96.9686
 13     22.6525     6.1912E+00    6.8713E+00    1.434000E+09  0.00400  2.132E-04    0   0.5798   age139_m42            0.0000     6.2706E-01     3.0126   0.5115    98.0009
 14      0.0000     0.0000E+00    0.0000E+00    4.250000E+09  0.00400  5.895E-05    0   0.5377   age158_m42            0.0000     9.6531E-01     4.1169   0.1497    90.6525
 15      0.0005     8.1533E-04    8.1343E-04    7.500000E+09  0.00400  3.510E-05    0   0.5212   age171_m42            0.0000     1.1608E+00     4.6576  -0.0063    88.7343
 16      0.0000     0.0000E+00    0.0000E+00    1.300000E+10  0.00400  2.005E-05    0   0.5034   age193_m42            0.0000     1.4240E+00     5.2013  -0.1413    87.0534
 17      0.0000     0.0000E+00    0.0000E+00    1.800000E+10  0.00400  1.525E-05    0   0.4967   age213_m42            0.0000     1.3795E+00     5.0913  -0.1716    86.9520
 18      1.0276     4.8369E-03    9.2588E-03    1.000000E+06  0.00800  1.238E-02    0   1.0000   age020_m52            0.0000     3.0982E+00     5.5993   3.3637    81.3555
 19      2.7430     5.1995E-03    9.9191E-03    3.160000E+06  0.00800  3.074E-02    0   0.9966   age045_m52            0.0000     3.0223E+00     5.5188   3.2883    82.0291
 20      0.0000     0.0000E+00    0.0000E+00    5.010000E+06  0.00800  2.668E-02    0   0.9443   age055_m52            0.0000     2.5219E+00     4.8969   3.0261    84.6966
 21      0.0025     6.9245E-06    1.2164E-05    6.610000E+06  0.00800  2.136E-02    0   0.9177   age061_m52            0.0000     1.0309E+00     3.2091   1.6704    95.2348
 22     13.6883     6.5648E-02    1.1092E-01    1.000000E+07  0.00800  1.215E-02    0   0.8827   age070_m52            0.0000     1.2980E+00     3.7781   2.3112    95.8348
 23      0.0000     0.0000E+00    0.0000E+00    1.445000E+07  0.00800  8.717E-03    0   0.8552   age078_m52            0.0000     1.4232E+00     3.7694   2.4583    93.2819
 24      1.9801     2.0633E-02    3.2237E-02    2.512000E+07  0.00800  5.592E-03    0   0.8162   age090_m52            0.0000     1.0659E+00     3.4392   2.0628    97.9036
 25      0.0000     0.0000E+00    0.0000E+00    4.000000E+07  0.00800  3.896E-03    0   0.7841   age104_m52            0.0000     1.0910E+00     3.3300   1.9956    97.7362
 26      0.0000     0.0000E+00    0.0000E+00    1.015200E+08  0.00800  2.148E-03    0   0.7226   age116_m52            0.0000     1.2242E+00     3.3910   1.9787    95.4705
 27      0.0000     0.0000E+00    0.0000E+00    2.861200E+08  0.00800  9.925E-04    0   0.6683   age125_m52            0.0000     1.0630E+00     3.5733   1.5247    98.1168
 28      0.0000     0.0000E+00    0.0000E+00    9.047900E+08  0.00800  3.141E-04    0   0.6138   age135_m52            0.0000     8.9199E-01     3.8477   0.7887    99.2532
 29      0.0000     0.0000E+00    0.0000E+00    1.434000E+09  0.00800  1.719E-04    0   0.5853   age139_m52            0.0000     8.8602E-01     3.8176   0.2215    96.6308
 30      0.0000     0.0000E+00    0.0000E+00    2.500000E+09  0.00800  7.872E-05    0   0.5600   age150_m52            0.0000     1.2052E+00     4.9448   0.0273    90.6866
 31      0.0000     0.0000E+00    0.0000E+00    4.250000E+09  0.00800  4.336E-05    0   0.5426   age158_m52            0.0000     1.2559E+00     5.0370   0.0179    89.5727
 32      0.0000     0.0000E+00    0.0000E+00    6.250000E+09  0.00800  3.159E-05    0   0.5319   age166_m52            0.0000     1.5960E+00     5.8415  -0.1432    87.8805
 33      1.6782     7.1850E+00    6.9772E+00    1.300000E+10  0.00800  1.361E-05    0   0.5073   age193_m52            0.0000     2.1188E+00     6.8556  -0.5628    85.3437
 34      0.7638     4.5018E+00    4.3000E+00    1.800000E+10  0.00800  9.886E-06    0   0.4990   age213_m52            0.0000     2.6195E+00     7.7169  -0.6254    83.1721
 35      1.3551     5.1143E-03    9.7897E-03    1.000000E+06  0.02000  1.544E-02    0   1.0000   age020_m62            0.0000     3.1185E+00     5.6358   3.3600    81.5305
 36      0.5637     8.7318E-04    1.6477E-03    3.160000E+06  0.02000  3.762E-02    0   0.9858   age045_m62            0.0000     3.1132E+00     5.6370   3.3016    82.1598
 37      0.0000     0.0000E+00    0.0000E+00    5.010000E+06  0.02000  3.296E-02    0   0.9342   age055_m62            0.0000     2.4621E+00     4.7923   2.9179    85.9730
 38      9.3882     4.7405E-02    8.0406E-02    8.710000E+06  0.02000  1.154E-02    0   0.8861   age067_m62            0.0000     2.0232E+00     6.4019   1.5749   108.2518
 39      0.0000     0.0000E+00    0.0000E+00    1.445000E+07  0.02000  7.663E-03    0   0.8472   age078_m62            0.0000     1.2358E+00     4.1096   1.9010   100.9293
 40      0.0010     1.3121E-05    2.0342E-05    2.512000E+07  0.02000  4.532E-03    0   0.8099   age090_m62            0.0000     1.3479E+00     4.3109   1.8810   101.3274
 41      0.6040     1.2877E-02    1.8721E-02    5.500000E+07  0.02000  2.733E-03    0   0.7595   age110_m62            0.0000     1.0060E+00     3.2757   1.9787    96.9938
 42      0.0000     0.0000E+00    0.0000E+00    1.609000E+08  0.02000  1.369E-03    0   0.6985   age120_m62            0.0000     1.1012E+00     3.5169   1.8663    97.3790
 43      0.2122     1.3720E-02    1.7632E-02    2.861200E+08  0.02000  9.013E-04    0   0.6714   age125_m62            0.0000     1.0321E+00     3.7154   1.6357    99.2294
 44      0.0008     8.8881E-05    1.0972E-04    5.088000E+08  0.02000  5.028E-04    0   0.6449   age130_m62            0.0000     1.1773E+00     4.2386   1.3268    98.5982
 45      0.0000     0.0000E+00    0.0000E+00    9.047900E+08  0.02000  2.428E-04    0   0.6179   age135_m62            0.0000     9.6431E-01     4.3638   0.7814    96.1756
 46      0.0001     4.2329E-05    4.7870E-05    1.434000E+09  0.02000  1.263E-04    0   0.5908   age139_m62            0.0000     1.0277E+00     4.6416   0.3597    93.7201
 47      0.0000     0.0000E+00    0.0000E+00    2.500000E+09  0.02000  5.985E-05    0   0.5673   age150_m62            0.0000     1.5352E+00     5.7910   0.0550    89.7725
 48      0.0000     0.0000E+00    0.0000E+00    4.250000E+09  0.02000  3.271E-05    0   0.5468   age158_m62            0.0000     2.1770E+00     7.0204  -0.1893    86.5202
 49      1.1535     4.9424E+00    4.8884E+00    1.000000E+10  0.02000  1.360E-05    0   0.5167   age181_m62            0.0000     3.0435E+00     8.3802  -0.4719    83.6245
 50      2.7727     2.2679E+01    2.1763E+01    1.800000E+10  0.02000  7.124E-06    0   0.5013   age213_m62            0.0000     3.8266E+00     9.4399  -0.6250    80.8478
 51      0.0000     0.0000E+00    0.0000E+00    1.000000E+06  0.05000  2.592E-02    0   0.9998   age020_m72            0.0000     3.1468E+00     5.7135   3.3482    81.6741
 52      4.5578     5.4816E-03    1.0049E-02    3.160000E+06  0.05000  4.845E-02    0   0.9577   age045_m72            0.0000     2.9631E+00     5.3646   3.1906    83.0502
 53      0.0000     0.0000E+00    0.0000E+00    5.010000E+06  0.05000  3.072E-02    0   0.9147   age055_m72            0.0000     1.9175E+00     4.4363   2.5766    93.0222
 54      0.0000     0.0000E+00    0.0000E+00    6.610000E+06  0.05000  1.455E-02    0   0.8877   age061_m72            0.0000     6.3770E+00     9.4446   1.5859   112.2961
 55      0.0000     0.0000E+00    0.0000E+00    1.000000E+07  0.05000  9.074E-03    0   0.8524   age070_m72            0.0000     3.0440E+00     5.1315   2.7895    91.9265
 56      0.0000     0.0000E+00    0.0000E+00    2.512000E+07  0.05000  4.250E-03    0   0.7902   age090_m72            0.0000     2.1492E+00     4.3579   2.4524    95.0675
 57      0.0000     0.0000E+00    0.0000E+00    4.000000E+07  0.05000  3.087E-03    0   0.7618   age104_m72            0.0000     2.1100E+00     4.3841   2.2003    97.8250
 58      0.0000     0.0000E+00    0.0000E+00    1.015200E+08  0.05000  1.700E-03    0   0.7096   age116_m72            0.0000     1.1687E+00     3.5498   1.9801    98.3984
 59      0.0000     0.0000E+00    0.0000E+00    2.861200E+08  0.05000  7.384E-04    0   0.6633   age125_m72            0.0000     9.9754E-01     3.8797   1.5366    99.0263
 60      8.0033     1.2211E+00    1.4894E+00    5.088000E+08  0.05000  3.819E-04    0   0.6372   age130_m72            0.0000     9.5349E-01     4.2519   1.1063    97.6515
 61      8.2007     2.8512E+00    3.3347E+00    9.047900E+08  0.05000  1.676E-04    0   0.6110   age135_m72            0.0000     1.4981E+00     5.7891   0.5024    91.8176
 62      2.8916     1.9067E+00    2.1439E+00    1.434000E+09  0.05000  8.837E-05    0   0.5874   age139_m72            0.0000     1.6219E+00     5.9779   0.0598    90.8811
 63      0.5539     7.6255E-01    8.1712E-01    2.500000E+09  0.05000  4.233E-05    0   0.5598   age150_m72            0.0000     2.4410E+00     7.4475  -0.1703    86.4728
 64      8.2398     3.3459E+01    3.3618E+01    6.250000E+09  0.05000  1.435E-05    0   0.5249   age166_m72            0.0000     3.4253E+00     8.8209  -0.5487    82.5087
 65      0.5591     5.0018E+00    4.8216E+00    1.300000E+10  0.05000  6.513E-06    0   0.5036   age193_m72            0.0000     4.5280E+00    10.1473  -0.7589    80.6937
 66      0.7022     9.0390E+00    8.5561E+00    1.800000E+10  0.05000  4.527E-06    0   0.4945   age213_m72            0.0000     5.3234E+00    10.9532  -0.8758    78.9414


## Synthesis Results - Average & Chains ##

# j      x_j: min, <> & last-chain-values for 1 ...  7 chains
  1      0.0728      0.2108      0.5261      0.0000      0.2859      0.1815      0.4176      0.0000      0.0000
  2      0.0008      0.1181      0.7790      0.0480      0.3973      0.0000      0.0000      0.0000      0.0000
  3      0.0000      0.1960      0.2472      0.3444      0.1317      0.5536      0.0000      0.0000      0.2354
  4      0.0025      0.1863      0.4110      0.3760      0.0307      0.0000      1.2050      0.0336      0.0000
  5      1.1556      2.2054      2.1652      1.8960      2.2260      2.0253      2.3967      1.9469      2.4439
  6      0.0000      0.4073      0.0000      0.5285      0.2816      0.2788      0.2734      0.0000      0.3924
  7      3.2051      2.4437      2.7912      2.3281      3.4608      3.0484      2.4645      2.3000      2.1750
  8      2.1898      1.7532      1.8338      2.2970      1.5436      2.2004      1.9518      2.0172      1.7757
  9      0.0000      0.5848      0.0000      0.3398      0.7159      0.3516      0.6591      0.8443      1.1319
 10      0.0000      0.3724      0.0000      0.0465      0.4698      1.1739      0.6949      0.0000      0.0000
 11      0.0000      0.2042      0.0000      0.0000      0.1599      0.0000      0.0000      0.0000      0.0000
 12      0.0000      0.1882      0.0000      0.0000      0.0167      0.0000      0.0000      0.1150      0.0000
 13     22.6525     18.9064     19.1147     18.5486     21.6279     19.9325     19.2436     19.1016     20.7849
 14      0.0000      0.8760      0.0000      0.3216      1.3428      1.0061      0.0000      1.6130      0.8501
 15      0.0005      1.1146      0.6040      1.5739      0.9363      1.3822      1.0318      1.1606      1.0603
 16      0.0000      0.0555      0.0425      0.0000      0.0847      0.0000      0.0000      0.0000      0.0000
 17      0.0000      0.0620      0.0000      0.0000      0.0000      0.0000      0.1443      0.0157      0.0000
 18      1.0276      0.7535      1.6180      0.7213      0.6266      1.7142      0.7183      1.5324      0.6195
 19      2.7430      1.9971      2.3172      2.0612      1.9484      2.2491      2.4077      2.1048      2.2654
 20      0.0000      0.1073      0.0000      0.0000      0.1836      0.0000      0.0000      0.0000      0.0809
 21      0.0025      0.2117      0.4041      0.0000      0.0392      0.3996      0.0000      0.4926      0.2363
 22     13.6883     12.2357     12.3482     12.6325     12.2240     11.8282     12.5438     11.9148     13.3981
 23      0.0000      0.1809      0.2039      0.4705      0.0000      0.2073      0.6378      0.0000      0.0000
 24      1.9801      1.7748      2.3149      2.3440      2.0663      1.3674      1.9370      1.5628      1.9697
 25      0.0000      0.2640      0.1779      0.0398      0.1347      0.0000      0.2059      0.0000      0.1682
 26      0.0000      0.2310      0.0000      0.4611      0.0277      0.0000      0.3834      0.9147      0.0000
 27      0.0000      0.2491      0.1130      0.0000      0.0000      0.0766      0.0000      0.0000      0.2234
 28      0.0000      0.5435      0.0000      0.5139      0.3991      0.0000      0.3420      0.7689      0.0191
 29      0.0000      0.2575      0.1816      0.0000      0.0000      0.1611      0.0000      0.0000      0.0000
 30      0.0000      0.1023      0.1505      0.0000      0.3484      0.0425      0.0000      0.0000      0.0000
 31      0.0000      0.0820      0.0000      0.0000      0.0000      0.0000      0.0000      0.0000      0.0000
 32      0.0000      0.0489      0.0000      0.0000      0.0000      0.0000      0.3107      0.2214      0.1031
 33      1.6782      1.4653      2.0585      1.4394      1.6061      1.6342      1.2965      1.5599      1.6167
 34      0.7638      1.3643      1.2418      1.3797      1.6927      1.4137      1.2078      1.4594      1.2151
 35      1.3551      1.6081      1.5371      1.6272      1.7382      1.5205      1.2793      1.5748      1.5381
 36      0.5637      1.2781      1.0390      1.3957      1.3541      1.4656      0.6604      1.1561      1.3011
 37      0.0000      0.1616      0.0000      0.0000      0.0000      0.0000      0.3492      0.1009      0.0000
 38      9.3882      5.5583      6.4455      6.4194      5.5738      6.1282      5.7042      6.5959      5.7556
 39      0.0000      0.3729      0.0000      0.0000      0.1183      0.0000      0.8045      0.6580      0.0000
 40      0.0010      1.0795      0.6494      1.7262      1.0339      0.0000      1.2721      1.0689      1.0809
 41      0.6040      0.9272      1.5177      1.2318      0.4698      1.8100      1.1182      1.2544      0.3481
 42      0.0000      0.1060      0.0000      0.0413      0.5101      0.0000      0.0000      0.0000      0.0253
 43      0.2122      0.5406      0.8217      0.3960      0.6807      0.4536      0.5408      0.4671      0.5588
 44      0.0008      0.3909      0.4498      0.0000      0.4109      0.4539      0.5595      0.6070      1.3053
 45      0.0000      0.6140      0.7493      0.0000      0.1280      1.1870      0.3960      0.2349      0.0000
 46      0.0001      0.4216      0.3856      0.1245      0.0000      0.1646      0.5309      0.0000      0.0000
