###################################################################
## OUTPUT of StarlightChains_v04.for    [Cid@UFSC - 01/Apr/2007] ##
###################################################################

## Some input info
ASASSN-15fj.txt                          [arq_obs]
Base.CB07.vall.4m                        [arq_base]
Masks.EmLines.NEW.gm                     [arq_masks]
StCv04.C11.config                        [arq_config]
   66                                    [N_base]
    0                                    [N_YAV_components = # of components with extra extinction!]
    0                                    [i_FitPowerLaw (1/0 = Yes/No)]
-9.99                                    [alpha_PowerLaw]
CCM                                      [red_law_option]
 1.458241                                [q_norm = A(l_norm)/A(V)]

## (Re)Sampling Parameters
 3741.00                                 [l_ini (A)]
 7218.00                                 [l_fin (A)]
    1.00                                 [dl    (A)]     (OBS: dl_cushion =    50.00 A)

## Normalization info
 4020.00                                 [l_norm (A) - for base]
 4010.00                                 [llow_norm (A) - window for f_obs]
 4060.00                                 [lupp_norm (A) - window for f_obs]
9.708200E-17                             [fobs_norm (in input units)]

## S/N
 3691.00                                 [llow_SN (A) - window for S/N]
 7268.00                                 [lupp_SN (A) - window for S/N]
   5.287                                 [S/N in S/N window]
   4.431                                 [S/N in norm. window]
  19.537                                 [S/N_err in S/N window]
  16.376                                 [S/N_err in norm. window]
  1.0000                                 [fscale_chi2]

## etc...
    -2007443                             [idum_orig]
  2237                                   [NOl_eff]
  2237                                   [Nl_eff]
     0    NSIGMA                         [Ntot_cliped & clip_method]
   614250                                [Nglobal_steps]
   7                                     [N_chains]
   9                                     [NEX0s_base = N_base in EX0s-fits]
 0   0   1        1   2.0   4.000E+01    [Clip-Bug, RC-Crash & Burn-In warning-flags, n_censored_weights, wei_nsig_threshold & wei_limit]
    10      9.859      9.365      0.494  [idt_all, wdt_TotTime, wdt_UsrTime & wdt_SysTime (sec)]

## Synthesis Results - Best model ##

 2.74233E-01                             [chi2/Nl_eff]
     2.34100                             [adev (%)]

   117.44736                             [sum-of-x (%)]
 8.00022E-17                             [Flux_tot (units of input spectrum!)]
 1.78880E-12                             [Mini_tot (???)]
 9.95973E-13                             [Mcor_tot (???)]

 -52.66                                  [v0_min  (km/s)]
 170.80                                  [vd_min  (km/s)]
-0.2638                                  [AV_min  (mag)]
 0.0000                                  [YAV_min (mag)]

# j     x_j(%)      Mini_j(%)     Mcor_j(%)     age_j(yr)     Z_j      (L/M)_j    YAV?  Mstars   component_j        a/Fe...       SSP_chi2r SSP_adev(%)   SSP_AV   SSP_x(%)
  1      0.0000     0.0000E+00    0.0000E+00    1.000000E+06  0.00400  1.094E-02    0   1.0000   age020_m42            0.0000     3.2724E+00    10.7950   3.2395   105.9672
  2      0.0000     0.0000E+00    0.0000E+00    3.160000E+06  0.00400  4.007E-02    0   0.9999   age045_m42            0.0000     3.0890E+00    10.3346   2.5004   114.1361
  3      0.0000     0.0000E+00    0.0000E+00    5.010000E+06  0.00400  2.539E-02    0   0.9488   age055_m42            0.0000     3.1184E+00    10.5581   2.8211   111.2564
  4      0.0000     0.0000E+00    0.0000E+00    6.610000E+06  0.00400  2.620E-02    0   0.9220   age061_m42            0.0000     3.0620E+00    10.4392   2.4145   115.1286
  5      0.0000     0.0000E+00    0.0000E+00    1.000000E+07  0.00400  1.322E-02    0   0.8862   age070_m42            0.0000     3.5256E+00    12.4177   2.0504   122.4265
  6      0.0000     0.0000E+00    0.0000E+00    1.445000E+07  0.00400  7.883E-03    0   0.8571   age078_m42            0.0000     3.5480E+00    12.3064   2.3939   118.3615
  7      0.0000     0.0000E+00    0.0000E+00    2.512000E+07  0.00400  5.251E-03    0   0.8174   age090_m42            0.0000     3.7020E+00    12.8343   1.9024   124.1961
  8      0.0000     0.0000E+00    0.0000E+00    4.000000E+07  0.00400  3.649E-03    0   0.7851   age104_m42            0.0000     3.5060E+00    12.4353   1.6800   124.9414
  9      0.0000     0.0000E+00    0.0000E+00    5.500000E+07  0.00400  3.098E-03    0   0.7629   age110_m42            0.0000     3.2328E+00    11.3631   1.8700   122.8025
 10      0.0000     0.0000E+00    0.0000E+00    1.015200E+08  0.00400  2.228E-03    0   0.7207   age116_m42            0.0000     3.0553E+00    10.6397   1.9120   121.7710
 11      0.0000     0.0000E+00    0.0000E+00    2.861200E+08  0.00400  1.093E-03    0   0.6648   age125_m42            0.0000     3.1881E+00    11.0461   1.3209   127.2300
 12      0.0000     0.0000E+00    0.0000E+00    5.088000E+08  0.00400  6.597E-04    0   0.6365   age130_m42            0.0000     2.6663E+00     9.7663   1.3429   126.2596
 13      0.0000     0.0000E+00    0.0000E+00    1.434000E+09  0.00400  2.132E-04    0   0.5798   age139_m42            0.0000     1.7030E+00     8.3207   0.3759   128.3341
 14      0.0000     0.0000E+00    0.0000E+00    4.250000E+09  0.00400  5.895E-05    0   0.5377   age158_m42            0.0000     9.8715E-01     6.4734  -0.0033   119.7373
 15      0.0000     0.0000E+00    0.0000E+00    7.500000E+09  0.00400  3.510E-05    0   0.5212   age171_m42            0.0000     7.6317E-01     5.5623  -0.1641   117.5333
 16      0.0000     0.0000E+00    0.0000E+00    1.300000E+10  0.00400  2.005E-05    0   0.5034   age193_m42            0.0000     6.2081E-01     4.7737  -0.3030   115.5976
 17      0.0000     0.0000E+00    0.0000E+00    1.800000E+10  0.00400  1.525E-05    0   0.4967   age213_m42            0.0000     6.3451E-01     4.9548  -0.3326   115.4002
 18      0.0000     0.0000E+00    0.0000E+00    1.000000E+06  0.00800  1.238E-02    0   1.0000   age020_m52            0.0000     3.2530E+00    10.7761   3.2358   106.1697
 19      0.0000     0.0000E+00    0.0000E+00    3.160000E+06  0.00800  3.074E-02    0   0.9966   age045_m52            0.0000     3.1887E+00    10.6490   3.1592   107.0955
 20      0.0000     0.0000E+00    0.0000E+00    5.010000E+06  0.00800  2.668E-02    0   0.9443   age055_m52            0.0000     3.0787E+00    10.6437   2.9001   110.4037
 21      0.0000     0.0000E+00    0.0000E+00    6.610000E+06  0.00800  2.136E-02    0   0.9177   age061_m52            0.0000     2.9349E+00    11.7971   1.5543   123.4393
 22      0.0000     0.0000E+00    0.0000E+00    1.000000E+07  0.00800  1.215E-02    0   0.8827   age070_m52            0.0000     3.7091E+00    13.0306   2.2144   123.1794
 23      0.0000     0.0000E+00    0.0000E+00    1.445000E+07  0.00800  8.717E-03    0   0.8552   age078_m52            0.0000     3.4395E+00    12.2736   2.3533   120.3523
 24      0.0000     0.0000E+00    0.0000E+00    2.512000E+07  0.00800  5.592E-03    0   0.8162   age090_m52            0.0000     3.6008E+00    12.8058   1.9637   125.9354
 25      0.0000     0.0000E+00    0.0000E+00    4.000000E+07  0.00800  3.896E-03    0   0.7841   age104_m52            0.0000     3.4291E+00    12.2006   1.8928   125.9765
 26      0.0000     0.0000E+00    0.0000E+00    1.015200E+08  0.00800  2.148E-03    0   0.7226   age116_m52            0.0000     3.0628E+00    11.0226   1.8640   123.7530
 27      0.0000     0.0000E+00    0.0000E+00    2.861200E+08  0.00800  9.925E-04    0   0.6683   age125_m52            0.0000     2.5353E+00     9.6628   1.4050   127.5932
 28      0.0000     0.0000E+00    0.0000E+00    9.047900E+08  0.00800  3.141E-04    0   0.6138   age135_m52            0.0000     1.5909E+00     7.3233   0.6523   130.1330
 29      0.0000     0.0000E+00    0.0000E+00    1.434000E+09  0.00800  1.719E-04    0   0.5853   age139_m52            0.0000     1.1760E+00     6.8759   0.0837   126.8302
 30      0.0000     0.0000E+00    0.0000E+00    2.500000E+09  0.00800  7.872E-05    0   0.5600   age150_m52            0.0000     6.2452E-01     4.9500  -0.1294   120.0843
 31      0.0036     3.1695E-03    3.0887E-03    4.250000E+09  0.00800  4.336E-05    0   0.5426   age158_m52            0.0000     6.2640E-01     4.8733  -0.1416   118.7604
 32      0.0000     0.0000E+00    0.0000E+00    6.250000E+09  0.00800  3.159E-05    0   0.5319   age166_m52            0.0000     4.2617E-01     3.7140  -0.3110   117.0067
 33      0.0000     0.0000E+00    0.0000E+00    1.300000E+10  0.00800  1.361E-05    0   0.5073   age193_m52            0.0000     2.8735E-01     2.5963  -0.7407   114.2034
 34      0.0000     0.0000E+00    0.0000E+00    1.800000E+10  0.00800  9.886E-06    0   0.4990   age213_m52            0.0000     2.4852E-01     2.2643  -0.8112   111.7447
 35      0.0000     0.0000E+00    0.0000E+00    1.000000E+06  0.02000  1.544E-02    0   1.0000   age020_m62            0.0000     3.2504E+00    10.7781   3.2321   106.3961
 36      0.0000     0.0000E+00    0.0000E+00    3.160000E+06  0.02000  3.762E-02    0   0.9858   age045_m62            0.0000     3.2075E+00    10.6914   3.1734   107.2353
 37      0.0000     0.0000E+00    0.0000E+00    5.010000E+06  0.02000  3.296E-02    0   0.9342   age055_m62            0.0000     2.9565E+00    10.1807   2.7886   112.2561
 38      0.0000     0.0000E+00    0.0000E+00    8.710000E+06  0.02000  1.154E-02    0   0.8861   age067_m62            0.0000     6.2804E+00    18.1375   1.5205   136.2491
 39      0.0000     0.0000E+00    0.0000E+00    1.445000E+07  0.02000  7.663E-03    0   0.8472   age078_m62            0.0000     4.1589E+00    14.3216   1.8189   128.8615
 40      0.0000     0.0000E+00    0.0000E+00    2.512000E+07  0.02000  4.532E-03    0   0.8099   age090_m62            0.0000     4.3841E+00    14.6250   1.8033   129.1125
 41      0.0000     0.0000E+00    0.0000E+00    5.500000E+07  0.02000  2.733E-03    0   0.7595   age110_m62            0.0000     3.2836E+00    12.1325   1.8750   125.0651
 42      0.0000     0.0000E+00    0.0000E+00    1.609000E+08  0.02000  1.369E-03    0   0.6985   age120_m62            0.0000     2.8874E+00    10.5477   1.7494   126.3804
 43      0.0000     0.0000E+00    0.0000E+00    2.861200E+08  0.02000  9.013E-04    0   0.6714   age125_m62            0.0000     2.5744E+00     9.6720   1.5114   129.2228
 44      0.0000     0.0000E+00    0.0000E+00    5.088000E+08  0.02000  5.028E-04    0   0.6449   age130_m62            0.0000     1.9233E+00     7.7911   1.1871   129.3954
 45      0.0000     0.0000E+00    0.0000E+00    9.047900E+08  0.02000  2.428E-04    0   0.6179   age135_m62            0.0000     1.1485E+00     6.1502   0.6329   126.7755
 46      0.0000     0.0000E+00    0.0000E+00    1.434000E+09  0.02000  1.263E-04    0   0.5908   age139_m62            0.0000     7.8311E-01     5.3623   0.2048   123.9289
 47      0.0023     1.4411E-03    1.4684E-03    2.500000E+09  0.02000  5.985E-05    0   0.5673   age150_m62            0.0000     4.5312E-01     3.8275  -0.1129   119.4907
 48      7.5180     8.7522E+00    8.5953E+00    4.250000E+09  0.02000  3.271E-05    0   0.5468   age158_m62            0.0000     2.7355E-01     2.3779  -0.3710   115.9359
 49      0.8012     2.2433E+00    2.0818E+00    1.000000E+10  0.02000  1.360E-05    0   0.5167   age181_m62            0.0000     2.9048E-01     2.4074  -0.6644   112.6773
 50      0.0000     0.0000E+00    0.0000E+00    1.800000E+10  0.02000  7.124E-06    0   0.5013   age213_m62            0.0000     3.7885E-01     3.1817  -0.8251   109.3768
 51      0.0000     0.0000E+00    0.0000E+00    1.000000E+06  0.05000  2.592E-02    0   0.9998   age020_m72            0.0000     3.2846E+00    10.8756   3.2203   106.5698
 52      0.0000     0.0000E+00    0.0000E+00    3.160000E+06  0.05000  4.845E-02    0   0.9577   age045_m72            0.0000     3.0993E+00    10.3563   3.0605   108.4908
 53      0.0000     0.0000E+00    0.0000E+00    5.010000E+06  0.05000  3.072E-02    0   0.9147   age055_m72            0.0000     3.6278E+00    12.6612   2.4885   119.2933
 54      0.0000     0.0000E+00    0.0000E+00    6.610000E+06  0.05000  1.455E-02    0   0.8877   age061_m72            0.0000     9.4384E+00    20.6976   1.5721   139.2357
 55      0.0000     0.0000E+00    0.0000E+00    1.000000E+07  0.05000  9.074E-03    0   0.8524   age070_m72            0.0000     3.9761E+00    12.6018   2.7155   117.3705
 56      0.0000     0.0000E+00    0.0000E+00    2.512000E+07  0.05000  4.250E-03    0   0.7902   age090_m72            0.0000     3.8941E+00    12.7181   2.3711   121.6201
 57      0.0000     0.0000E+00    0.0000E+00    4.000000E+07  0.05000  3.087E-03    0   0.7618   age104_m72            0.0000     4.1032E+00    13.1014   2.1212   124.9856
 58      0.0000     0.0000E+00    0.0000E+00    1.015200E+08  0.05000  1.700E-03    0   0.7096   age116_m72            0.0000     3.1899E+00    11.2788   1.8759   126.9956
 59      0.0000     0.0000E+00    0.0000E+00    2.861200E+08  0.05000  7.384E-04    0   0.6633   age125_m72            0.0000     2.1812E+00     8.6553   1.4059   129.3998
 60      0.0000     0.0000E+00    0.0000E+00    5.088000E+08  0.05000  3.819E-04    0   0.6372   age130_m72            0.0000     1.3986E+00     6.6907   0.9581   128.6429
 61     24.1010     5.4759E+00    6.0092E+00    9.047900E+08  0.05000  1.676E-04    0   0.6110   age135_m72            0.0000     6.6137E-01     4.2568   0.3336   122.1863
 62      0.0007     2.9531E-04    3.1155E-04    1.434000E+09  0.05000  8.837E-05    0   0.5874   age139_m72            0.0000     4.1084E-01     3.5620  -0.1084   120.9854
 63     81.0075     7.2874E+01    7.3269E+01    2.500000E+09  0.05000  4.233E-05    0   0.5598   age150_m72            0.0000     2.4219E-01     2.0672  -0.3540   116.0086
 64      4.0131     1.0649E+01    1.0040E+01    6.250000E+09  0.05000  1.435E-05    0   0.5249   age166_m72            0.0000     3.2009E-01     2.5334  -0.7443   111.3469
 65      0.0000     0.0000E+00    0.0000E+00    1.300000E+10  0.05000  6.513E-06    0   0.5036   age193_m72            0.0000     5.2868E-01     3.8307  -0.9625   109.3619
 66      0.0000     0.0000E+00    0.0000E+00    1.800000E+10  0.05000  4.527E-06    0   0.4945   age213_m72            0.0000     8.3417E-01     5.3866  -1.0000   103.1381


## Synthesis Results - Average & Chains ##

# j      x_j: min, <> & last-chain-values for 1 ...  7 chains
  1      0.0000      0.0038      0.0000      0.0000      0.0000      0.0000      0.0000      0.0000      0.0000
  2      0.0000      0.0083      0.0000      0.0000      0.0000      0.0000      0.0000      0.0000      0.0000
  3      0.0000      0.0117      0.0000      0.0000      0.0000      0.0000      0.0000      0.0000      0.0000
  4      0.0000      0.0086      0.0000      0.0000      0.0000      0.0000      0.0000      0.0000      0.0000
  5      0.0000      0.0201      0.0000      0.0000      0.0000      0.0000      0.0000      0.0342      0.0000
  6      0.0000      0.0111      0.0000      0.0000      0.0000      0.0000      0.0000      0.0000      0.0000
  7      0.0000      0.0057      0.0000      0.0000      0.0000      0.0000      0.0000      0.0000      0.0000
  8      0.0000      0.0148      0.0000      0.0000      0.0000      0.0000      0.0000      0.0000      0.0000
  9      0.0000      0.0136      0.0000      0.0000      0.0000      0.0000      0.0000      0.0000      0.1718
 10      0.0000      0.0141      0.0000      0.0000      0.0000      0.0000      0.0000      0.0000      0.0000
 11      0.0000      0.0264      0.0000      0.0000      0.0000      0.0000      0.0519      0.1385      0.0000
 12      0.0000      0.0219      0.0000      0.0000      0.0000      0.0000      0.0280      0.0000      0.0000
 13      0.0000      0.0694      0.0000      0.0000      0.0000      0.0000      0.0000      0.0000      0.0000
 14      0.0000      0.1377      0.0000      0.0000      0.0000      0.0000      0.0000      0.0000      0.0000
 15      0.0000      0.2334      0.2131      0.0000      0.0000      0.0000      0.0000      0.0000      0.2123
 16      0.0000      0.1745      0.0000      0.0000      0.0000      0.1377      0.0000      0.0000      0.0000
 17      0.0000      0.2159      0.0000      0.5328      0.0000      0.0000      0.0000      0.0185      1.3725
 18      0.0000      0.0047      0.0000      0.0000      0.0000      0.0000      0.0000      0.0293      0.0000
 19      0.0000      0.0063      0.0000      0.0000      0.0000      0.0000      0.0000      0.0000      0.0000
 20      0.0000      0.0092      0.0000      0.0000      0.0000      0.0000      0.0000      0.0000      0.0000
 21      0.0000      0.0146      0.0000      0.0000      0.0000      0.0000      0.0000      0.0000      0.0000
 22      0.0000      0.0046      0.0000      0.0000      0.0000      0.0000      0.0000      0.0000      0.0000
 23      0.0000      0.0077      0.0000      0.0000      0.0000      0.0000      0.0000      0.0000      0.0000
 24      0.0000      0.0052      0.0000      0.0000      0.0000      0.0000      0.0000      0.0000      0.0000
 25      0.0000      0.0059      0.0000      0.0000      0.0000      0.0000      0.0000      0.0000      0.0000
 26      0.0000      0.0148      0.1934      0.0000      0.0000      0.0000      0.0000      0.0000      0.0000
 27      0.0000      0.0195      0.0000      0.0000      0.0000      0.0000      0.0000      0.0000      0.0000
 28      0.0000      0.0934      0.0000      0.0000      0.1008      0.0000      0.0000      0.3694      0.0000
 29      0.0000      0.1741      0.0000      0.1115      0.0770      1.2576      0.0626      0.0000      0.0000
 30      0.0000      0.4037      0.0000      0.0000      1.0518      0.0000      0.3096      0.3959      0.1765
 31      0.0036      0.3839      0.1944      0.0127      0.1949      0.1397      0.0000      1.2685      0.3533
 32      0.0000      0.4705      1.1852      1.0459      0.0000      0.7469      0.4335      0.0000      0.0000
 33      0.0000      0.1025      0.0000      0.0899      0.0000      0.0000      0.0000      0.0000      0.0415
 34      0.0000      0.1104      0.0342      0.0000      0.1289      0.0818      0.0000      0.5201      0.0000
 35      0.0000      0.0062      0.0000      0.0000      0.0172      0.0000      0.0000      0.0000      0.0000
 36      0.0000      0.0048      0.0000      0.0342      0.0000      0.0000      0.0000      0.0000      0.0000
 37      0.0000      0.0063      0.0000      0.0000      0.0000      0.0000      0.0000      0.0141      0.0000
 38      0.0000      0.0061      0.0000      0.0000      0.0000      0.0000      0.0000      0.0000      0.0000
 39      0.0000      0.0113      0.0492      0.0000      0.0000      0.0000      0.0000      0.0000      0.0000
 40      0.0000      0.0134      0.0000      0.0000      0.0000      0.0000      0.0000      0.0000      0.0000
 41      0.0000      0.0070      0.0000      0.0000      0.0000      0.0000      0.0000      0.0000      0.0000
 42      0.0000      0.0171      0.0000      0.0000      0.0000      0.0000      0.0000      0.0000      0.0000
 43      0.0000      0.0075      0.0000      0.0000      0.0000      0.0000      0.0000      0.0000      0.0000
 44      0.0000      0.0256      0.0000      0.0000      0.0000      0.0000      0.0000      0.0000      0.0000
 45      0.0000      0.6506      0.0000      1.7071      0.0000      0.0000      0.0000      0.7303      0.0000
 46      0.0000      0.3894      0.0000      0.0000      0.0000      0.2397      0.5085      0.0000      0.0000
