###################################################################
## OUTPUT of StarlightChains_v04.for    [Cid@UFSC - 01/Apr/2007] ##
###################################################################

## Some input info
ASASSN14-iu.txt                          [arq_obs]
Base.CB07.vall.4m                        [arq_base]
Masks.EmLines.NEW.gm                     [arq_masks]
StCv04.C11.config                        [arq_config]
   66                                    [N_base]
    0                                    [N_YAV_components = # of components with extra extinction!]
    0                                    [i_FitPowerLaw (1/0 = Yes/No)]
-9.99                                    [alpha_PowerLaw]
CCM                                      [red_law_option]
 1.458241                                [q_norm = A(l_norm)/A(V)]

## (Re)Sampling Parameters
 3741.00                                 [l_ini (A)]
 7218.00                                 [l_fin (A)]
    1.00                                 [dl    (A)]     (OBS: dl_cushion =    50.00 A)

## Normalization info
 4020.00                                 [l_norm (A) - for base]
 4010.00                                 [llow_norm (A) - window for f_obs]
 4060.00                                 [lupp_norm (A) - window for f_obs]
4.577950E-16                             [fobs_norm (in input units)]

## S/N
 3691.00                                 [llow_SN (A) - window for S/N]
 7268.00                                 [lupp_SN (A) - window for S/N]
   4.294                                 [S/N in S/N window]
   3.071                                 [S/N in norm. window]
  33.370                                 [S/N_err in S/N window]
  23.865                                 [S/N_err in norm. window]
  1.0000                                 [fscale_chi2]

## etc...
    -2007446                             [idum_orig]
  2383                                   [NOl_eff]
  2367                                   [Nl_eff]
    16    NSIGMA                         [Ntot_cliped & clip_method]
   766150                                [Nglobal_steps]
   7                                     [N_chains]
  10                                     [NEX0s_base = N_base in EX0s-fits]
 0   0   1        7   2.0   4.398E+01    [Clip-Bug, RC-Crash & Burn-In warning-flags, n_censored_weights, wei_nsig_threshold & wei_limit]
    11     11.651     11.157      0.494  [idt_all, wdt_TotTime, wdt_UsrTime & wdt_SysTime (sec)]

## Synthesis Results - Best model ##

 4.68668E-01                             [chi2/Nl_eff]
     1.76555                             [adev (%)]

   109.78516                             [sum-of-x (%)]
 5.31146E-16                             [Flux_tot (units of input spectrum!)]
 2.79543E-11                             [Mini_tot (???)]
 1.45601E-11                             [Mcor_tot (???)]

  83.97                                  [v0_min  (km/s)]
 193.11                                  [vd_min  (km/s)]
 0.0411                                  [AV_min  (mag)]
 0.0000                                  [YAV_min (mag)]

# j     x_j(%)      Mini_j(%)     Mcor_j(%)     age_j(yr)     Z_j      (L/M)_j    YAV?  Mstars   component_j        a/Fe...       SSP_chi2r SSP_adev(%)   SSP_AV   SSP_x(%)
  1      0.0000     0.0000E+00    0.0000E+00    1.000000E+06  0.00400  1.094E-02    0   1.0000   age020_m42            0.0000     8.0170E+00    10.4085   3.7835   100.0421
  2      0.0000     0.0000E+00    0.0000E+00    3.160000E+06  0.00400  4.007E-02    0   0.9999   age045_m42            0.0000     7.6758E+00     9.8296   3.0462   107.5963
  3      0.0000     0.0000E+00    0.0000E+00    5.010000E+06  0.00400  2.539E-02    0   0.9488   age055_m42            0.0000     7.7810E+00    10.1147   3.3673   104.8549
  4      0.0000     0.0000E+00    0.0000E+00    6.610000E+06  0.00400  2.620E-02    0   0.9220   age061_m42            0.0000     7.6895E+00     9.9126   2.9608   108.4463
  5      0.0000     0.0000E+00    0.0000E+00    1.000000E+07  0.00400  1.322E-02    0   0.8862   age070_m42            0.0000     8.9717E+00    11.6722   2.5949   115.1754
  6      0.0000     0.0000E+00    0.0000E+00    1.445000E+07  0.00400  7.883E-03    0   0.8571   age078_m42            0.0000     8.9968E+00    11.6368   2.9343   111.5832
  7      0.0000     0.0000E+00    0.0000E+00    2.512000E+07  0.00400  5.251E-03    0   0.8174   age090_m42            0.0000     9.3813E+00    12.0009   2.4487   116.7172
  8      0.0000     0.0000E+00    0.0000E+00    4.000000E+07  0.00400  3.649E-03    0   0.7851   age104_m42            0.0000     8.9155E+00    11.6192   2.2277   117.3729
  9      0.0000     0.0000E+00    0.0000E+00    5.500000E+07  0.00400  3.098E-03    0   0.7629   age110_m42            0.0000     8.2421E+00    10.7024   2.4154   115.5402
 10      0.0000     0.0000E+00    0.0000E+00    1.015200E+08  0.00400  2.228E-03    0   0.7207   age116_m42            0.0000     7.8049E+00    10.0867   2.4583   114.5653
 11      0.0000     0.0000E+00    0.0000E+00    2.861200E+08  0.00400  1.093E-03    0   0.6648   age125_m42            0.0000     8.8360E+00    10.7114   1.8499   120.2973
 12      0.0000     0.0000E+00    0.0000E+00    5.088000E+08  0.00400  6.597E-04    0   0.6365   age130_m42            0.0000     7.4234E+00     9.5351   1.8773   119.2369
 13      0.0000     0.0000E+00    0.0000E+00    1.434000E+09  0.00400  2.132E-04    0   0.5798   age139_m42            0.0000     4.5730E+00     7.7144   0.9231   120.7490
 14      0.0000     0.0000E+00    0.0000E+00    4.250000E+09  0.00400  5.895E-05    0   0.5377   age158_m42            0.0000     2.7004E+00     5.9540   0.5434   112.9360
 15      0.0000     0.0000E+00    0.0000E+00    7.500000E+09  0.00400  3.510E-05    0   0.5212   age171_m42            0.0000     2.1494E+00     5.1846   0.3768   111.1458
 16      0.0000     0.0000E+00    0.0000E+00    1.300000E+10  0.00400  2.005E-05    0   0.5034   age193_m42            0.0000     1.8116E+00     4.6033   0.2313   109.6109
 17      0.0000     0.0000E+00    0.0000E+00    1.800000E+10  0.00400  1.525E-05    0   0.4967   age213_m42            0.0000     1.8502E+00     4.7169   0.2039   109.3397
 18      0.0000     0.0000E+00    0.0000E+00    1.000000E+06  0.00800  1.238E-02    0   1.0000   age020_m52            0.0000     7.9749E+00    10.3944   3.7798   100.2374
 19      0.0000     0.0000E+00    0.0000E+00    3.160000E+06  0.00800  3.074E-02    0   0.9966   age045_m52            0.0000     7.8203E+00    10.2556   3.7058   101.0069
 20      0.0000     0.0000E+00    0.0000E+00    5.010000E+06  0.00800  2.668E-02    0   0.9443   age055_m52            0.0000     7.6484E+00    10.1918   3.4464   104.0705
 21      0.0000     0.0000E+00    0.0000E+00    6.610000E+06  0.00800  2.136E-02    0   0.9177   age061_m52            0.0000     7.3465E+00    10.9674   2.1048   115.9732
 22      0.0000     0.0000E+00    0.0000E+00    1.000000E+07  0.00800  1.215E-02    0   0.8827   age070_m52            0.0000     9.6420E+00    12.3161   2.7516   116.1336
 23      0.0000     0.0000E+00    0.0000E+00    1.445000E+07  0.00800  8.717E-03    0   0.8552   age078_m52            0.0000     8.7453E+00    11.5646   2.8950   113.3872
 24      0.0000     0.0000E+00    0.0000E+00    2.512000E+07  0.00800  5.592E-03    0   0.8162   age090_m52            0.0000     9.3187E+00    12.0163   2.5049   118.5446
 25      0.0000     0.0000E+00    0.0000E+00    4.000000E+07  0.00800  3.896E-03    0   0.7841   age104_m52            0.0000     8.9759E+00    11.5317   2.4301   118.7910
 26      0.0000     0.0000E+00    0.0000E+00    1.015200E+08  0.00800  2.148E-03    0   0.7226   age116_m52            0.0000     7.9899E+00    10.4620   2.4049   116.6275
 27      0.0000     0.0000E+00    0.0000E+00    2.861200E+08  0.00800  9.925E-04    0   0.6683   age125_m52            0.0000     7.1509E+00     9.4591   1.9372   120.6082
 28      0.0000     0.0000E+00    0.0000E+00    9.047900E+08  0.00800  3.141E-04    0   0.6138   age135_m52            0.0000     4.6914E+00     7.2088   1.1817   123.3226
 29      0.0000     0.0000E+00    0.0000E+00    1.434000E+09  0.00800  1.719E-04    0   0.5853   age139_m52            0.0000     3.4967E+00     6.4989   0.6106   120.3866
 30      0.0000     0.0000E+00    0.0000E+00    2.500000E+09  0.00800  7.872E-05    0   0.5600   age150_m52            0.0000     1.8031E+00     4.6131   0.4049   113.8648
 31      0.0000     0.0000E+00    0.0000E+00    4.250000E+09  0.00800  4.336E-05    0   0.5426   age158_m52            0.0000     1.7952E+00     4.5682   0.3939   112.5895
 32      0.0000     0.0000E+00    0.0000E+00    6.250000E+09  0.00800  3.159E-05    0   0.5319   age166_m52            0.0000     1.2577E+00     3.5302   0.2222   111.0927
 33      0.0000     0.0000E+00    0.0000E+00    1.300000E+10  0.00800  1.361E-05    0   0.5073   age193_m52            0.0000     6.8060E-01     2.2964  -0.2077   108.5347
 34      0.0000     0.0000E+00    0.0000E+00    1.800000E+10  0.00800  9.886E-06    0   0.4990   age213_m52            0.0000     5.8079E-01     2.0619  -0.2811   106.3741
 35      0.0000     0.0000E+00    0.0000E+00    1.000000E+06  0.02000  1.544E-02    0   1.0000   age020_m62            0.0000     7.9761E+00    10.3949   3.7775   100.3887
 36      0.0000     0.0000E+00    0.0000E+00    3.160000E+06  0.02000  3.762E-02    0   0.9858   age045_m62            0.0000     7.9148E+00    10.3435   3.7191   101.1539
 37      0.0000     0.0000E+00    0.0000E+00    5.010000E+06  0.02000  3.296E-02    0   0.9342   age055_m62            0.0000     7.4086E+00     9.7575   3.3340   105.8434
 38      0.0000     0.0000E+00    0.0000E+00    8.710000E+06  0.02000  1.154E-02    0   0.8861   age067_m62            0.0000     1.6469E+01    17.0121   2.0532   128.1355
 39      0.0000     0.0000E+00    0.0000E+00    1.445000E+07  0.02000  7.663E-03    0   0.8472   age078_m62            0.0000     1.1297E+01    13.6221   2.3460   121.7906
 40      0.0000     0.0000E+00    0.0000E+00    2.512000E+07  0.02000  4.532E-03    0   0.8099   age090_m62            0.0000     1.2025E+01    13.9241   2.3282   122.0582
 41      0.0000     0.0000E+00    0.0000E+00    5.500000E+07  0.02000  2.733E-03    0   0.7595   age110_m62            0.0000     8.6180E+00    11.4394   2.4140   117.8721
 42      0.0000     0.0000E+00    0.0000E+00    1.609000E+08  0.02000  1.369E-03    0   0.6985   age120_m62            0.0000     7.6397E+00    10.1236   2.2898   119.1016
 43      0.0000     0.0000E+00    0.0000E+00    2.861200E+08  0.02000  9.013E-04    0   0.6714   age125_m62            0.0000     6.8302E+00     9.3383   2.0554   121.6482
 44      0.0000     0.0000E+00    0.0000E+00    5.088000E+08  0.02000  5.028E-04    0   0.6449   age130_m62            0.0000     5.2323E+00     7.6928   1.7288   122.0773
 45      0.0000     0.0000E+00    0.0000E+00    9.047900E+08  0.02000  2.428E-04    0   0.6179   age135_m62            0.0000     3.2259E+00     5.9930   1.1698   119.9705
 46      0.0430     5.8932E-03    6.6846E-03    1.434000E+09  0.02000  1.263E-04    0   0.5908   age139_m62            0.0000     2.1228E+00     4.9771   0.7427   117.3464
 47      0.0000     0.0000E+00    0.0000E+00    2.500000E+09  0.02000  5.985E-05    0   0.5673   age150_m62            0.0000     1.2170E+00     3.5307   0.4246   113.2990
 48      0.0299     1.5844E-02    1.6633E-02    4.250000E+09  0.02000  3.271E-05    0   0.5468   age158_m62            0.0000     6.3209E-01     2.1890   0.1685   109.9320
 49      5.5037     7.0039E+00    6.9481E+00    1.000000E+10  0.02000  1.360E-05    0   0.5167   age181_m62            0.0000     4.9223E-01     2.0674  -0.1306   107.1877
 50      2.7750     6.7416E+00    6.4885E+00    1.800000E+10  0.02000  7.124E-06    0   0.5013   age213_m62            0.0000     7.0450E-01     2.9513  -0.2970   104.3449
 51      0.0000     0.0000E+00    0.0000E+00    1.000000E+06  0.05000  2.592E-02    0   0.9998   age020_m72            0.0000     8.0401E+00    10.4870   3.7657   100.5655
 52      0.0000     0.0000E+00    0.0000E+00    3.160000E+06  0.05000  4.845E-02    0   0.9577   age045_m72            0.0000     7.6523E+00     9.9999   3.6067   102.3139
 53      0.0000     0.0000E+00    0.0000E+00    5.010000E+06  0.05000  3.072E-02    0   0.9147   age055_m72            0.0000     1.0449E+01    12.4720   2.9954   113.7739
 54      0.0000     0.0000E+00    0.0000E+00    6.610000E+06  0.05000  1.455E-02    0   0.8877   age061_m72            0.0000     2.9184E+01    20.6234   2.0363   133.6199
 55      0.0000     0.0000E+00    0.0000E+00    1.000000E+07  0.05000  9.074E-03    0   0.8524   age070_m72            0.0000     1.3991E+01    13.2453   3.1752   113.8297
 56      0.0000     0.0000E+00    0.0000E+00    2.512000E+07  0.05000  4.250E-03    0   0.7902   age090_m72            0.0000     1.2003E+01    12.7529   2.8640   116.4684
 57      0.0000     0.0000E+00    0.0000E+00    4.000000E+07  0.05000  3.087E-03    0   0.7618   age104_m72            0.0000     1.2496E+01    13.0407   2.6178   119.4461
 58      0.0000     0.0000E+00    0.0000E+00    1.015200E+08  0.05000  1.700E-03    0   0.7096   age116_m72            0.0000     8.7493E+00    10.8762   2.4072   119.9977
 59      0.0000     0.0000E+00    0.0000E+00    2.861200E+08  0.05000  7.384E-04    0   0.6633   age125_m72            0.0000     5.7893E+00     8.4231   1.9476   122.0028
 60      0.0000     0.0000E+00    0.0000E+00    5.088000E+08  0.05000  3.819E-04    0   0.6372   age130_m72            0.0000     3.5758E+00     6.4279   1.5046   121.2765
 61      7.9703     8.2304E-01    9.6549E-01    9.047900E+08  0.05000  1.676E-04    0   0.6110   age135_m72            0.0000     1.5769E+00     3.9595   0.8802   115.4567
 62      2.9073     5.6939E-01    6.4214E-01    1.434000E+09  0.05000  8.837E-05    0   0.5874   age139_m72            0.0000     1.0099E+00     3.2157   0.4276   114.7901
 63     68.0131     2.7808E+01    2.9887E+01    2.500000E+09  0.05000  4.233E-05    0   0.5598   age150_m72            0.0000     5.4052E-01     1.9335   0.1826   110.1625
 64      7.7558     9.3540E+00    9.4267E+00    6.250000E+09  0.05000  1.435E-05    0   0.5249   age166_m72            0.0000     5.3020E-01     2.2447  -0.2106   105.9535
 65      7.5941     2.0180E+01    1.9511E+01    1.300000E+10  0.05000  6.513E-06    0   0.5036   age193_m72            0.0000     9.8073E-01     3.6366  -0.4356   104.4209
 66      7.1929     2.7499E+01    2.6107E+01    1.800000E+10  0.05000  4.527E-06    0   0.4945   age213_m72            0.0000     1.4544E+00     4.5795  -0.5616   102.6228


## Synthesis Results - Average & Chains ##

# j      x_j: min, <> & last-chain-values for 1 ...  7 chains
  1      0.0000      0.0133      0.0000      0.0000      0.0000      0.0000      0.0000      0.0000      0.0000
  2      0.0000      0.0098      0.0000      0.0000      0.0000      0.0000      0.2822      0.0000      0.0000
  3      0.0000      0.0100      0.0000      0.0000      0.0000      0.0000      0.1262      0.0000      0.0000
  4      0.0000      0.0115      0.0000      0.0000      0.0000      0.0000      0.0000      0.0000      0.0000
  5      0.0000      0.0441      0.0000      0.0000      0.3000      0.0408      0.0000      0.0000      0.0000
  6      0.0000      0.0160      0.0000      0.0000      0.0186      0.0000      0.0000      0.0000      0.1409
  7      0.0000      0.0275      0.0000      0.0000      0.0000      0.0000      0.0000      0.0000      0.0000
  8      0.0000      0.0144      0.0000      0.0000      0.0000      0.0000      0.0000      0.0000      0.0167
  9      0.0000      0.0301      0.0000      0.0000      0.0009      0.0000      0.0000      0.0000      0.1765
 10      0.0000      0.0172      0.0000      0.0000      0.0000      0.0000      0.0000      0.0190      0.0000
 11      0.0000      0.0196      0.0565      0.0000      0.0000      0.0000      0.0000      0.0000      0.0000
 12      0.0000      0.0166      0.0000      0.0000      0.0000      0.0000      0.0000      0.0000      0.0000
 13      0.0000      0.0650      0.0000      0.0000      0.0000      0.0000      0.0000      0.0000      0.1063
 14      0.0000      0.0571      0.0000      0.0000      0.0000      0.0000      0.0000      0.0000      0.0000
 15      0.0000      0.0763      0.0000      0.0000      0.0000      0.0000      0.0000      0.0000      0.0000
 16      0.0000      0.0581      0.0000      0.0000      0.0000      0.0182      0.0000      0.0000      0.0000
 17      0.0000      0.0457      0.1211      0.0000      0.0000      0.0000      0.0198      0.0000      0.0000
 18      0.0000      0.0126      0.0000      0.0000      0.0000      0.0000      0.0000      0.0000      0.0000
 19      0.0000      0.0106      0.0000      0.0000      0.0391      0.0000      0.0000      0.0220      0.0000
 20      0.0000      0.0084      0.0493      0.0000      0.0000      0.0000      0.0000      0.0000      0.0000
 21      0.0000      0.0388      0.1366      0.0000      0.0000      0.0000      0.0000      0.0000      0.0000
 22      0.0000      0.0293      0.0000      0.0000      0.0000      0.0000      0.0000      0.0000      0.0000
 23      0.0000      0.0186      0.0000      0.0000      0.4061      0.0000      0.0000      0.0000      0.0000
 24      0.0000      0.0102      0.0000      0.0000      0.0000      0.0000      0.0000      0.0000      0.0000
 25      0.0000      0.0154      0.0000      0.0000      0.0000      0.0000      0.0000      0.0000      0.0000
 26      0.0000      0.0196      0.0000      0.0000      0.0000      0.0371      0.0000      0.0021      0.0059
 27      0.0000      0.0267      0.0000      0.0000      0.0000      0.0000      0.0000      0.0000      0.0000
 28      0.0000      0.0404      0.0000      0.0000      0.0000      0.0000      0.0000      0.0000      0.0000
 29      0.0000      0.0794      0.0000      0.0000      0.1716      0.0000      0.0000      0.0000      0.0000
 30      0.0000      0.1082      0.0000      0.0000      0.0000      0.0000      0.0000      0.0753      0.0799
 31      0.0000      0.0526      0.0000      0.0000      0.0000      0.1004      0.0000      0.0249      0.0000
 32      0.0000      0.0856      0.0000      0.0000      0.0000      0.0000      0.0000      0.0000      0.0802
 33      0.0000      0.0461      0.0000      0.0000      0.4026      0.0000      0.0000      0.0000      0.0000
 34      0.0000      0.0722      0.0000      0.0000      0.0657      0.0000      0.0239      0.4840      0.0000
 35      0.0000      0.0190      0.0000      0.0000      0.0000      0.0000      0.0125      0.0000      0.0000
 36      0.0000      0.0177      0.0000      0.0000      0.0000      0.0000      0.2163      0.0000      0.0000
 37      0.0000      0.0055      0.0000      0.1410      0.0000      0.0267      0.0000      0.0000      0.0000
 38      0.0000      0.0092      0.0000      0.0000      0.0000      0.0000      0.0000      0.0000      0.0000
 39      0.0000      0.0210      0.1020      0.1021      0.0501      0.0000      0.0000      0.0000      0.0000
 40      0.0000      0.0119      0.0000      0.0000      0.0000      0.0000      0.0000      0.0000      0.0000
 41      0.0000      0.0114      0.0458      0.0000      0.0000      0.0000      0.0000      0.0000      0.0000
 42      0.0000      0.0227      0.0000      0.0000      0.0000      0.0000      0.1235      0.2698      0.0189
 43      0.0000      0.0511      0.1167      0.5782      0.1349      0.0000      0.1362      0.0000      0.1961
 44      0.0000      0.0403      0.0000      0.1865      0.0000      0.0000      0.0000      0.2578      0.0934
 45      0.0000      0.0638      0.0000      0.0000      0.0000      0.0000      0.0000      0.0000      0.0000
 46      0.0430      0.0888      0.0000      0.9397      0.0756      0.0000      0.0000      0.6212      0.0000
