###################################################################
## OUTPUT of StarlightChains_v04.for    [Cid@UFSC - 01/Apr/2007] ##
###################################################################

## Some input info
CSS140501.txt                            [arq_obs]
Base.CB07.vall.4m                        [arq_base]
Masks.EmLines.NEW.gm                     [arq_masks]
StCv04.C11.config                        [arq_config]
   66                                    [N_base]
    0                                    [N_YAV_components = # of components with extra extinction!]
    0                                    [i_FitPowerLaw (1/0 = Yes/No)]
-9.99                                    [alpha_PowerLaw]
CCM                                      [red_law_option]
 1.458241                                [q_norm = A(l_norm)/A(V)]

## (Re)Sampling Parameters
 3741.00                                 [l_ini (A)]
 7218.00                                 [l_fin (A)]
    1.00                                 [dl    (A)]     (OBS: dl_cushion =    50.00 A)

## Normalization info
 4020.00                                 [l_norm (A) - for base]
 4010.00                                 [llow_norm (A) - window for f_obs]
 4060.00                                 [lupp_norm (A) - window for f_obs]
2.026473E-15                             [fobs_norm (in input units)]

## S/N
 3691.00                                 [llow_SN (A) - window for S/N]
 7268.00                                 [lupp_SN (A) - window for S/N]
   4.560                                 [S/N in S/N window]
   4.818                                 [S/N in norm. window]
  10.000                                 [S/N_err in S/N window]
  10.566                                 [S/N_err in norm. window]
  1.0000                                 [fscale_chi2]

## etc...
    -2007448                             [idum_orig]
  2225                                   [NOl_eff]
  2082                                   [Nl_eff]
   143    NSIGMA                         [Ntot_cliped & clip_method]
  1055110                                [Nglobal_steps]
   7                                     [N_chains]
  16                                     [NEX0s_base = N_base in EX0s-fits]
 0   0   1        1   2.0   7.710E+01    [Clip-Bug, RC-Crash & Burn-In warning-flags, n_censored_weights, wei_nsig_threshold & wei_limit]
    15     15.342     14.847      0.495  [idt_all, wdt_TotTime, wdt_UsrTime & wdt_SysTime (sec)]

## Synthesis Results - Best model ##

 1.36849E+00                             [chi2/Nl_eff]
     9.37109                             [adev (%)]

   115.00005                             [sum-of-x (%)]
 1.61797E-14                             [Flux_tot (units of input spectrum!)]
 6.53622E-12                             [Mini_tot (???)]
 4.15856E-12                             [Mcor_tot (???)]

  32.82                                  [v0_min  (km/s)]
 148.62                                  [vd_min  (km/s)]
 1.4427                                  [AV_min  (mag)]
 0.0000                                  [YAV_min (mag)]

# j     x_j(%)      Mini_j(%)     Mcor_j(%)     age_j(yr)     Z_j      (L/M)_j    YAV?  Mstars   component_j        a/Fe...       SSP_chi2r SSP_adev(%)   SSP_AV   SSP_x(%)
  1      0.0653     1.2840E-02    2.0181E-02    1.000000E+06  0.00400  1.094E-02    0   1.0000   age020_m42            0.0000     1.5592E+00    10.0292   2.3163   106.6743
  2      0.0000     0.0000E+00    0.0000E+00    3.160000E+06  0.00400  4.007E-02    0   0.9999   age045_m42            0.0000     1.6446E+00    10.2047   1.6001   113.5916
  3      0.0000     0.0000E+00    0.0000E+00    5.010000E+06  0.00400  2.539E-02    0   0.9488   age055_m42            0.0000     1.5678E+00    10.0437   1.9143   111.0986
  4      0.0000     0.0000E+00    0.0000E+00    6.610000E+06  0.00400  2.620E-02    0   0.9220   age061_m42            0.0000     1.6511E+00    10.1910   1.5284   113.8458
  5      0.0000     0.0000E+00    0.0000E+00    1.000000E+07  0.00400  1.322E-02    0   0.8862   age070_m42            0.0000     1.5070E+00     9.7613   1.2570   116.2504
  6      1.2330     3.3667E-01    4.5355E-01    1.445000E+07  0.00400  7.883E-03    0   0.8571   age078_m42            0.0000     1.4677E+00     9.6875   1.5786   113.5063
  7      0.0492     2.0155E-02    2.5895E-02    2.512000E+07  0.00400  5.251E-03    0   0.8174   age090_m42            0.0000     1.5038E+00     9.7386   1.1292   116.8820
  8      0.0000     0.0000E+00    0.0000E+00    4.000000E+07  0.00400  3.649E-03    0   0.7851   age104_m42            0.0000     1.5513E+00     9.8596   0.9022   117.7853
  9      0.0000     0.0000E+00    0.0000E+00    5.500000E+07  0.00400  3.098E-03    0   0.7629   age110_m42            0.0000     1.6718E+00    10.1429   1.0564   117.5626
 10      0.0000     0.0000E+00    0.0000E+00    1.015200E+08  0.00400  2.228E-03    0   0.7207   age116_m42            0.0000     1.7911E+00    10.3840   1.0780   117.5922
 11      0.0000     0.0000E+00    0.0000E+00    2.861200E+08  0.00400  1.093E-03    0   0.6648   age125_m42            0.0000     1.8761E+00    10.5260   0.5239   120.7096
 12      0.0000     0.0000E+00    0.0000E+00    5.088000E+08  0.00400  6.597E-04    0   0.6365   age130_m42            0.0000     2.0651E+00    10.8854   0.5162   121.3445
 13      0.0000     0.0000E+00    0.0000E+00    1.434000E+09  0.00400  2.132E-04    0   0.5798   age139_m42            0.0000     2.1975E+00    11.2509  -0.4529   123.3490
 14      0.0000     0.0000E+00    0.0000E+00    4.250000E+09  0.00400  5.895E-05    0   0.5377   age158_m42            0.0000     2.2591E+00    11.5644  -0.9055   118.8329
 15      0.0000     0.0000E+00    0.0000E+00    7.500000E+09  0.00400  3.510E-05    0   0.5212   age171_m42            0.0000     2.4581E+00    11.8659  -1.0000   114.1501
 16      0.0000     0.0000E+00    0.0000E+00    1.300000E+10  0.00400  2.005E-05    0   0.5034   age193_m42            0.0000     2.8195E+00    12.4145  -1.0000   106.8869
 17      0.0000     0.0000E+00    0.0000E+00    1.800000E+10  0.00400  1.525E-05    0   0.4967   age213_m42            0.0000     2.8144E+00    12.3996  -1.0000   105.5458
 18      0.0000     0.0000E+00    0.0000E+00    1.000000E+06  0.00800  1.238E-02    0   1.0000   age020_m52            0.0000     1.5625E+00    10.0360   2.3126   106.8786
 19      9.5291     6.6726E-01    1.0452E+00    3.160000E+06  0.00800  3.074E-02    0   0.9966   age045_m52            0.0000     1.5551E+00    10.0204   2.2327   107.9496
 20      4.3019     3.4708E-01    5.1513E-01    5.010000E+06  0.00800  2.668E-02    0   0.9443   age055_m52            0.0000     1.5453E+00     9.9797   1.9933   110.2502
 21      0.0043     4.2928E-04    6.1919E-04    6.610000E+06  0.00800  2.136E-02    0   0.9177   age061_m52            0.0000     1.5090E+00     9.8526   0.7523   117.6459
 22      0.0000     0.0000E+00    0.0000E+00    1.000000E+07  0.00800  1.215E-02    0   0.8827   age070_m52            0.0000     1.4498E+00     9.6118   1.4383   116.0545
 23      0.0000     0.0000E+00    0.0000E+00    1.445000E+07  0.00800  8.717E-03    0   0.8552   age078_m52            0.0000     1.4744E+00     9.6939   1.5462   114.9959
 24      0.0000     0.0000E+00    0.0000E+00    2.512000E+07  0.00800  5.592E-03    0   0.8162   age090_m52            0.0000     1.5131E+00     9.7482   1.1967   118.1455
 25      0.0000     0.0000E+00    0.0000E+00    4.000000E+07  0.00800  3.896E-03    0   0.7841   age104_m52            0.0000     1.5895E+00     9.9376   1.1112   118.8832
 26      0.0000     0.0000E+00    0.0000E+00    1.015200E+08  0.00800  2.148E-03    0   0.7226   age116_m52            0.0000     1.7237E+00    10.2394   1.0473   118.5670
 27      0.0000     0.0000E+00    0.0000E+00    2.861200E+08  0.00800  9.925E-04    0   0.6683   age125_m52            0.0000     2.0841E+00    10.8824   0.5801   122.4656
 28      0.0000     0.0000E+00    0.0000E+00    9.047900E+08  0.00800  3.141E-04    0   0.6138   age135_m52            0.0000     2.4317E+00    11.6913  -0.2067   126.5884
 29      0.0000     0.0000E+00    0.0000E+00    1.434000E+09  0.00800  1.719E-04    0   0.5853   age139_m52            0.0000     2.3413E+00    11.6772  -0.7895   124.1224
 30      0.0000     0.0000E+00    0.0000E+00    2.500000E+09  0.00800  7.872E-05    0   0.5600   age150_m52            0.0000     2.5932E+00    12.1600  -1.0000   118.0434
 31      0.0000     0.0000E+00    0.0000E+00    4.250000E+09  0.00800  4.336E-05    0   0.5426   age158_m52            0.0000     2.6180E+00    12.1836  -1.0000   116.3097
 32      0.0000     0.0000E+00    0.0000E+00    6.250000E+09  0.00800  3.159E-05    0   0.5319   age166_m52            0.0000     3.1406E+00    12.9308  -1.0000   107.9258
 33      0.0000     0.0000E+00    0.0000E+00    1.300000E+10  0.00800  1.361E-05    0   0.5073   age193_m52            0.0000     4.9477E+00    15.7627  -1.0000    88.9370
 34      0.0000     0.0000E+00    0.0000E+00    1.800000E+10  0.00800  9.886E-06    0   0.4990   age213_m52            0.0000     5.6673E+00    16.7628  -1.0000    84.4596
 35      0.0000     0.0000E+00    0.0000E+00    1.000000E+06  0.02000  1.544E-02    0   1.0000   age020_m62            0.0000     1.5615E+00    10.0345   2.3076   107.1786
 36     22.4494     1.2845E+00    1.9902E+00    3.160000E+06  0.02000  3.762E-02    0   0.9858   age045_m62            0.0000     1.5546E+00    10.0322   2.2432   108.2655
 37      0.0017     1.1215E-04    1.6467E-04    5.010000E+06  0.02000  3.296E-02    0   0.9342   age055_m62            0.0000     1.6233E+00    10.1601   1.8736   112.4584
 38     40.5995     7.5729E+00    1.0547E+01    8.710000E+06  0.02000  1.154E-02    0   0.8861   age067_m62            0.0000     1.4491E+00     9.5756   0.9079   119.4213
 39      0.0000     0.0000E+00    0.0000E+00    1.445000E+07  0.02000  7.663E-03    0   0.8472   age078_m62            0.0000     1.4205E+00     9.5346   1.0939   118.6405
 40      0.0000     0.0000E+00    0.0000E+00    2.512000E+07  0.02000  4.532E-03    0   0.8099   age090_m62            0.0000     1.4451E+00     9.5856   1.0888   118.2737
 41      0.0000     0.0000E+00    0.0000E+00    5.500000E+07  0.02000  2.733E-03    0   0.7595   age110_m62            0.0000     1.5771E+00     9.9098   1.0916   118.1326
 42      0.0000     0.0000E+00    0.0000E+00    1.609000E+08  0.02000  1.369E-03    0   0.6985   age120_m62            0.0000     1.9131E+00    10.5507   0.9372   120.7772
 43      0.0000     0.0000E+00    0.0000E+00    2.861200E+08  0.02000  9.013E-04    0   0.6714   age125_m62            0.0000     2.1946E+00    11.0055   0.6942   123.7003
 44      0.0000     0.0000E+00    0.0000E+00    5.088000E+08  0.02000  5.028E-04    0   0.6449   age130_m62            0.0000     2.4918E+00    11.6353   0.3229   126.3245
 45      0.0000     0.0000E+00    0.0000E+00    9.047900E+08  0.02000  2.428E-04    0   0.6179   age135_m62            0.0000     2.4951E+00    11.8798  -0.2674   125.5922
 46      0.0000     0.0000E+00    0.0000E+00    1.434000E+09  0.02000  1.263E-04    0   0.5908   age139_m62            0.0000     2.5500E+00    12.0949  -0.7137   123.7185
 47      0.0000     0.0000E+00    0.0000E+00    2.500000E+09  0.02000  5.985E-05    0   0.5673   age150_m62            0.0000     2.8705E+00    12.6653  -1.0000   118.4245
 48      0.0000     0.0000E+00    0.0000E+00    4.250000E+09  0.02000  3.271E-05    0   0.5468   age158_m62            0.0000     3.7565E+00    13.9425  -1.0000   104.6810
 49      0.0000     0.0000E+00    0.0000E+00    1.000000E+10  0.02000  1.360E-05    0   0.5167   age181_m62            0.0000     5.3818E+00    16.3145  -1.0000    90.5054
 50      0.0000     0.0000E+00    0.0000E+00    1.800000E+10  0.02000  7.124E-06    0   0.5013   age213_m62            0.0000     6.6242E+00    17.9475  -1.0000    82.0665
 51     26.4400     2.1957E+00    3.4504E+00    1.000000E+06  0.05000  2.592E-02    0   0.9998   age020_m72            0.0000     1.5588E+00    10.0166   2.2985   107.2417
 52      5.7896     2.5722E-01    3.8718E-01    3.160000E+06  0.05000  4.845E-02    0   0.9577   age045_m72            0.0000     1.5759E+00    10.0844   2.1263   109.6711
 53      0.0000     0.0000E+00    0.0000E+00    5.010000E+06  0.05000  3.072E-02    0   0.9147   age055_m72            0.0000     1.4386E+00     9.6346   1.6749   114.1460
 54      0.0000     0.0000E+00    0.0000E+00    6.610000E+06  0.05000  1.455E-02    0   0.8877   age061_m72            0.0000     1.6897E+00    10.2810   0.9815   120.2483
 55      0.0000     0.0000E+00    0.0000E+00    1.000000E+07  0.05000  9.074E-03    0   0.8524   age070_m72            0.0000     1.4932E+00     9.8155   1.8722   113.4976
 56      0.0000     0.0000E+00    0.0000E+00    2.512000E+07  0.05000  4.250E-03    0   0.7902   age090_m72            0.0000     1.5276E+00     9.8350   1.5676   115.6660
 57      0.0000     0.0000E+00    0.0000E+00    4.000000E+07  0.05000  3.087E-03    0   0.7618   age104_m72            0.0000     1.5797E+00     9.9478   1.3438   117.4884
 58      0.0000     0.0000E+00    0.0000E+00    1.015200E+08  0.05000  1.700E-03    0   0.7096   age116_m72            0.0000     1.8205E+00    10.3564   1.0806   120.4394
 59      0.0000     0.0000E+00    0.0000E+00    2.861200E+08  0.05000  7.384E-04    0   0.6633   age125_m72            0.0000     2.3683E+00    11.3679   0.5668   124.9773
 60      0.0000     0.0000E+00    0.0000E+00    5.088000E+08  0.05000  3.819E-04    0   0.6372   age130_m72            0.0000     2.5122E+00    11.8149   0.0725   126.7361
 61      2.0158     2.5889E+01    2.4862E+01    9.047900E+08  0.05000  1.676E-04    0   0.6110   age135_m72            0.0000     2.7933E+00    12.5956  -0.6274   124.2736
 62      2.5214     6.1416E+01    5.6702E+01    1.434000E+09  0.05000  8.837E-05    0   0.5874   age139_m72            0.0000     2.9864E+00    12.8581  -1.0000   120.0500
 63      0.0000     0.0000E+00    0.0000E+00    2.500000E+09  0.05000  4.233E-05    0   0.5598   age150_m72            0.0000     3.9045E+00    14.1707  -1.0000   105.4649
 64      0.0000     0.0000E+00    0.0000E+00    6.250000E+09  0.05000  1.435E-05    0   0.5249   age166_m72            0.0000     5.8680E+00    17.0442  -1.0000    86.5328
 65      0.0000     0.0000E+00    0.0000E+00    1.300000E+10  0.05000  6.513E-06    0   0.5036   age193_m72            0.0000     7.6122E+00    19.2247  -1.0000    77.2722
 66      0.0000     0.0000E+00    0.0000E+00    1.800000E+10  0.05000  4.527E-06    0   0.4945   age213_m72            0.0000     8.6733E+00    20.5482  -1.0000    71.7139


## Synthesis Results - Average & Chains ##

# j      x_j: min, <> & last-chain-values for 1 ...  7 chains
  1      0.0653      4.7265      1.2381      9.1946      4.5772      6.4157      2.6534      3.2698      9.3257
  2      0.0000      0.4914      0.4721      0.0000      0.0000      0.0000      1.1595      0.0000      0.2364
  3      0.0000      1.0020      0.2874      3.0578      1.1913      0.0000      4.6347      4.6629      3.4970
  4      0.0000      0.6754      0.0000      0.4389      2.0466      0.0000      0.0000      0.0000      0.0000
  5      0.0000      1.2323      0.0000      0.0000      0.0000      0.0000      0.7503      0.0000      0.0000
  6      1.2330      1.2722      3.9237      0.0000      0.0000      4.2504      1.6163      0.0000      0.0000
  7      0.0492      1.4920      2.8015      0.0000      0.0000      0.0000      0.0000      0.0000      0.0000
  8      0.0000      1.2523      0.0000      0.0000      0.0000      2.0962      0.0000      0.0000      3.9165
  9      0.0000      0.4837      0.0000      0.0000      0.0000      0.0000      0.0000      0.0000      0.4856
 10      0.0000      0.4333      0.0000      0.0000      0.3378      0.1682      0.0000      0.4434      0.0000
 11      0.0000      0.2570      0.0000      0.0000      0.0000      0.0000      0.0000      0.0000      0.0000
 12      0.0000      0.1654      0.0000      0.0000      0.0000      0.0000      0.0000      0.1701      0.0000
 13      0.0000      0.2084      0.0000      0.0000      0.0000      0.0000      0.0000      1.6887      0.0000
 14      0.0000      0.2432      0.0000      1.4084      0.4007      0.0000      1.3825      0.4555      0.0000
 15      0.0000      0.0865      0.0000      0.4793      0.5699      0.0000      0.0000      0.0557      0.0000
 16      0.0000      0.0641      0.0000      0.5010      0.0000      0.0000      0.0000      0.0000      0.0000
 17      0.0000      0.2140      0.1070      0.0000      0.0000      0.0000      0.0000      0.4189      0.8685
 18      0.0000      2.7450      3.5595      3.4751      0.5349      0.0000      3.7761      2.8553      3.2066
 19      9.5291      3.6020      4.9645      0.9330      5.7635      4.8100      6.6397      5.6794      4.3177
 20      4.3019      1.2937      2.4802      1.3001      0.0000      2.6298      0.0000      0.0000      0.0000
 21      0.0043      6.3843      7.6250      3.4205      6.2723      6.9052      8.5179      6.6232      0.0000
 22      0.0000      1.5586      0.0000      0.0000      0.7002      0.0000      0.0000      0.0000      0.0000
 23      0.0000      1.3798      0.7668      1.8630      0.6802      0.0000      0.0000      0.1898      0.0000
 24      0.0000      1.0420      0.0000      3.7611      0.0000      0.3227      0.0000      0.0000      0.0000
 25      0.0000      0.4794      0.0000      0.0000      0.0000      0.0000      0.0000      0.0000      0.0000
 26      0.0000      0.3252      0.2315      0.0000      0.0000      0.0000      0.0000      0.0000      1.7062
 27      0.0000      0.1614      0.0000      0.0000      0.0000      0.0000      0.0000      0.0000      0.0000
 28      0.0000      0.0714      0.1209      0.0000      0.5985      0.0000      0.0000      0.0000      0.6633
 29      0.0000      0.2248      0.0000      0.8108      0.6227      0.0000      0.4140      0.8529      0.0000
 30      0.0000      0.0467      0.0000      0.0000      0.0000      0.0000      0.1003      0.0000      0.0000
 31      0.0000      0.0704      0.0000      0.0000      0.0000      0.0000      0.0000      0.0000      1.1934
 32      0.0000      0.0672      0.0000      0.0000      0.0000      0.0000      0.0000      0.5729      0.0000
 33      0.0000      0.0194      0.3842      0.0000      0.0000      0.0000      0.0000      0.0000      0.0000
 34      0.0000      0.0446      0.0000      0.1975      0.0000      0.0000      0.0000      0.0000      0.0000
 35      0.0000      1.6643      0.3588      4.6217      0.1940      0.6041      7.8474      2.1371      1.5585
 36     22.4494      8.5913     10.9300     12.9192      9.3996      0.0000      6.3436      9.1424     13.8102
 37      0.0017      0.5381      0.5632      0.0000      0.0000      0.0000      0.0000      0.2901      1.9854
 38     40.5995     37.8355     45.0309     42.3902     42.8176     48.7633     35.4997     39.4792     42.6942
 39      0.0000      2.4594      0.0000      2.5941      0.0000      0.1259      2.5490      2.2175      2.0650
 40      0.0000      1.4168      0.0000      0.0000      1.2727      0.0000      1.4311      0.0000      0.0000
 41      0.0000      0.6955      0.0000      0.0000      0.0000      0.0000      0.0000      0.7560      0.0000
 42      0.0000      0.2167      0.0000      0.0000      0.0000      0.0000      0.0000      1.6401      0.0000
 43      0.0000      0.1212      0.0000      0.0000      0.0000      0.0000      0.0000      0.0000      0.0000
 44      0.0000      0.0778      0.0000      0.0912      0.0000      0.0000      0.0000      0.0000      0.0000
 45      0.0000      0.4677      0.0074      0.0000      0.0000      0.0000      0.0000      0.0000      0.0000
 46      0.0000      0.0903      0.0660      0.0000      0.0000      0.0000      0.0000      0.0000      0.0000
