###################################################################
## OUTPUT of StarlightChains_v04.for    [Cid@UFSC - 01/Apr/2007] ##
###################################################################

## Some input info
iPTF14gnl.txt                            [arq_obs]
Base.CB07.vall.4m                        [arq_base]
Masks.EmLines.NEW.gm                     [arq_masks]
StCv04.C11.config                        [arq_config]
   66                                    [N_base]
    0                                    [N_YAV_components = # of components with extra extinction!]
    0                                    [i_FitPowerLaw (1/0 = Yes/No)]
-9.99                                    [alpha_PowerLaw]
CCM                                      [red_law_option]
 1.458241                                [q_norm = A(l_norm)/A(V)]

## (Re)Sampling Parameters
 3741.00                                 [l_ini (A)]
 7218.00                                 [l_fin (A)]
    1.00                                 [dl    (A)]     (OBS: dl_cushion =    50.00 A)

## Normalization info
 4020.00                                 [l_norm (A) - for base]
 4010.00                                 [llow_norm (A) - window for f_obs]
 4060.00                                 [lupp_norm (A) - window for f_obs]
5.842500E-18                             [fobs_norm (in input units)]

## S/N
 3691.00                                 [llow_SN (A) - window for S/N]
 7268.00                                 [lupp_SN (A) - window for S/N]
   5.264                                 [S/N in S/N window]
   6.254                                 [S/N in norm. window]
  10.236                                 [S/N_err in S/N window]
  12.163                                 [S/N_err in norm. window]
  1.0000                                 [fscale_chi2]

## etc...
    -2007452                             [idum_orig]
  2203                                   [NOl_eff]
  2175                                   [Nl_eff]
    28    NSIGMA                         [Ntot_cliped & clip_method]
   697270                                [Nglobal_steps]
   7                                     [N_chains]
   7                                     [NEX0s_base = N_base in EX0s-fits]
 0   0   1       10   2.0   2.021E+01    [Clip-Bug, RC-Crash & Burn-In warning-flags, n_censored_weights, wei_nsig_threshold & wei_limit]
    18     18.021     17.527      0.494  [idt_all, wdt_TotTime, wdt_UsrTime & wdt_SysTime (sec)]

## Synthesis Results - Best model ##

 9.79188E-01                             [chi2/Nl_eff]
     7.69744                             [adev (%)]

   117.50356                             [sum-of-x (%)]
 6.77828E-18                             [Flux_tot (units of input spectrum!)]
 1.62543E-14                             [Mini_tot (???)]
 1.00674E-14                             [Mcor_tot (???)]

  -1.30                                  [v0_min  (km/s)]
 285.89                                  [vd_min  (km/s)]
-0.0095                                  [AV_min  (mag)]
 0.0000                                  [YAV_min (mag)]

# j     x_j(%)      Mini_j(%)     Mcor_j(%)     age_j(yr)     Z_j      (L/M)_j    YAV?  Mstars   component_j        a/Fe...       SSP_chi2r SSP_adev(%)   SSP_AV   SSP_x(%)
  1      0.0000     0.0000E+00    0.0000E+00    1.000000E+06  0.00400  1.094E-02    0   1.0000   age020_m42            0.0000     1.1129E+00     7.7341   2.3008    98.2110
  2      0.0000     0.0000E+00    0.0000E+00    3.160000E+06  0.00400  4.007E-02    0   0.9999   age045_m42            0.0000     9.8059E-01     7.5484   1.5380   106.9166
  3      0.0000     0.0000E+00    0.0000E+00    5.010000E+06  0.00400  2.539E-02    0   0.9488   age055_m42            0.0000     1.0156E+00     7.5605   1.8759   103.4156
  4      0.0000     0.0000E+00    0.0000E+00    6.610000E+06  0.00400  2.620E-02    0   0.9220   age061_m42            0.0000     9.9146E-01     7.5901   1.4657   107.1960
  5      0.0000     0.0000E+00    0.0000E+00    1.000000E+07  0.00400  1.322E-02    0   0.8862   age070_m42            0.0000     1.1529E+00     8.1597   1.2045   108.9483
  6      0.0000     0.0000E+00    0.0000E+00    1.445000E+07  0.00400  7.883E-03    0   0.8571   age078_m42            0.0000     1.1504E+00     8.0553   1.5402   105.6963
  7      0.0000     0.0000E+00    0.0000E+00    2.512000E+07  0.00400  5.251E-03    0   0.8174   age090_m42            0.0000     1.2014E+00     8.3621   1.0738   109.6914
  8      0.0000     0.0000E+00    0.0000E+00    4.000000E+07  0.00400  3.649E-03    0   0.7851   age104_m42            0.0000     1.1676E+00     8.2955   0.8373   111.0387
  9      0.0000     0.0000E+00    0.0000E+00    5.500000E+07  0.00400  3.098E-03    0   0.7629   age110_m42            0.0000     1.0974E+00     8.0610   0.9784   111.5242
 10      0.0000     0.0000E+00    0.0000E+00    1.015200E+08  0.00400  2.228E-03    0   0.7207   age116_m42            0.0000     1.0826E+00     8.0048   0.9889   112.1229
 11      0.0000     0.0000E+00    0.0000E+00    2.861200E+08  0.00400  1.093E-03    0   0.6648   age125_m42            0.0000     1.1538E+00     8.3312   0.4206   115.8809
 12      0.0000     0.0000E+00    0.0000E+00    5.088000E+08  0.00400  6.597E-04    0   0.6365   age130_m42            0.0000     1.1406E+00     8.2706   0.3927   117.5214
 13      0.0000     0.0000E+00    0.0000E+00    1.434000E+09  0.00400  2.132E-04    0   0.5798   age139_m42            0.0000     1.1211E+00     8.3791  -0.5987   120.5792
 14      0.0000     0.0000E+00    0.0000E+00    4.250000E+09  0.00400  5.895E-05    0   0.5377   age158_m42            0.0000     1.0556E+00     7.9831  -1.0000   113.8186
 15      0.0000     0.0000E+00    0.0000E+00    7.500000E+09  0.00400  3.510E-05    0   0.5212   age171_m42            0.0000     1.3150E+00     8.4792  -1.0000   105.2096
 16      0.0000     0.0000E+00    0.0000E+00    1.300000E+10  0.00400  2.005E-05    0   0.5034   age193_m42            0.0000     1.7595E+00     9.7402  -1.0000    97.9734
 17      0.0000     0.0000E+00    0.0000E+00    1.800000E+10  0.00400  1.525E-05    0   0.4967   age213_m42            0.0000     1.8129E+00     9.9715  -1.0000    96.6267
 18      0.0000     0.0000E+00    0.0000E+00    1.000000E+06  0.00800  1.238E-02    0   1.0000   age020_m52            0.0000     1.1087E+00     7.7220   2.2971    98.3938
 19      0.0000     0.0000E+00    0.0000E+00    3.160000E+06  0.00800  3.074E-02    0   0.9966   age045_m52            0.0000     1.0840E+00     7.6600   2.2158    99.4427
 20      0.0000     0.0000E+00    0.0000E+00    5.010000E+06  0.00800  2.668E-02    0   0.9443   age055_m52            0.0000     1.0368E+00     7.5902   1.9631   102.2257
 21     58.3010     9.6866E-01    1.4352E+00    6.610000E+06  0.00800  2.136E-02    0   0.9177   age061_m52            0.0000     1.1075E+00     7.9372   0.7026   110.0581
 22      0.0000     0.0000E+00    0.0000E+00    1.000000E+07  0.00800  1.215E-02    0   0.8827   age070_m52            0.0000     1.2230E+00     8.3480   1.3963   108.2411
 23      0.0000     0.0000E+00    0.0000E+00    1.445000E+07  0.00800  8.717E-03    0   0.8552   age078_m52            0.0000     1.1491E+00     8.0789   1.5027   107.3110
 24      0.0000     0.0000E+00    0.0000E+00    2.512000E+07  0.00800  5.592E-03    0   0.8162   age090_m52            0.0000     1.2100E+00     8.4026   1.1368   111.0922
 25      0.0000     0.0000E+00    0.0000E+00    4.000000E+07  0.00800  3.896E-03    0   0.7841   age104_m52            0.0000     1.1578E+00     8.2808   1.0400   112.4215
 26      0.0000     0.0000E+00    0.0000E+00    1.015200E+08  0.00800  2.148E-03    0   0.7226   age116_m52            0.0000     1.0839E+00     8.0548   0.9609   112.9147
 27      0.0000     0.0000E+00    0.0000E+00    2.861200E+08  0.00800  9.925E-04    0   0.6683   age125_m52            0.0000     1.1578E+00     8.2938   0.4576   118.6044
 28      0.0000     0.0000E+00    0.0000E+00    9.047900E+08  0.00800  3.141E-04    0   0.6138   age135_m52            0.0000     1.2129E+00     8.6344  -0.3676   124.6933
 29      0.0000     0.0000E+00    0.0000E+00    1.434000E+09  0.00800  1.719E-04    0   0.5853   age139_m52            0.0000     1.1192E+00     8.3629  -0.9376   121.4791
 30      0.0000     0.0000E+00    0.0000E+00    2.500000E+09  0.00800  7.872E-05    0   0.5600   age150_m52            0.0000     1.3464E+00     8.5075  -1.0000   109.0076
 31      0.0000     0.0000E+00    0.0000E+00    4.250000E+09  0.00800  4.336E-05    0   0.5426   age158_m52            0.0000     1.3885E+00     8.5960  -1.0000   107.3170
 32      0.0000     0.0000E+00    0.0000E+00    6.250000E+09  0.00800  3.159E-05    0   0.5319   age166_m52            0.0000     2.0172E+00    10.2785  -1.0000    98.9273
 33      0.0000     0.0000E+00    0.0000E+00    1.300000E+10  0.00800  1.361E-05    0   0.5073   age193_m52            0.0000     4.2283E+00    15.9813  -1.0000    80.4521
 34      0.0000     0.0000E+00    0.0000E+00    1.800000E+10  0.00800  9.886E-06    0   0.4990   age213_m52            0.0000     4.9498E+00    17.3415  -1.0000    76.2496
 35      0.0000     0.0000E+00    0.0000E+00    1.000000E+06  0.02000  1.544E-02    0   1.0000   age020_m62            0.0000     1.1101E+00     7.7237   2.2934    98.5935
 36      0.0000     0.0000E+00    0.0000E+00    3.160000E+06  0.02000  3.762E-02    0   0.9858   age045_m62            0.0000     1.0953E+00     7.6763   2.2322    99.4635
 37      0.0000     0.0000E+00    0.0000E+00    5.010000E+06  0.02000  3.296E-02    0   0.9342   age055_m62            0.0000     9.8224E-01     7.4718   1.8271   105.0825
 38      0.0000     0.0000E+00    0.0000E+00    8.710000E+06  0.02000  1.154E-02    0   0.8861   age067_m62            0.0000     2.0189E+00    10.6013   0.8934   109.8296
 39      0.0000     0.0000E+00    0.0000E+00    1.445000E+07  0.02000  7.663E-03    0   0.8472   age078_m62            0.0000     1.3928E+00     8.8770   1.0555   110.4417
 40      0.0000     0.0000E+00    0.0000E+00    2.512000E+07  0.02000  4.532E-03    0   0.8099   age090_m62            0.0000     1.4358E+00     9.0630   1.0482   110.2486
 41      0.0000     0.0000E+00    0.0000E+00    5.500000E+07  0.02000  2.733E-03    0   0.7595   age110_m62            0.0000     1.1589E+00     8.2495   1.0264   111.3789
 42      0.0000     0.0000E+00    0.0000E+00    1.609000E+08  0.02000  1.369E-03    0   0.6985   age120_m62            0.0000     1.1481E+00     8.2086   0.8362   115.8037
 43      0.0000     0.0000E+00    0.0000E+00    2.861200E+08  0.02000  9.013E-04    0   0.6714   age125_m62            0.0000     1.2433E+00     8.5188   0.5637   120.1847
 44      0.0068     4.8094E-03    5.0077E-03    5.088000E+08  0.02000  5.028E-04    0   0.6449   age130_m62            0.0000     1.2812E+00     8.7251   0.1625   124.3872
 45      0.0000     0.0000E+00    0.0000E+00    9.047900E+08  0.02000  2.428E-04    0   0.6179   age135_m62            0.0000     1.1829E+00     8.4969  -0.4266   123.5775
 46      0.0000     0.0000E+00    0.0000E+00    1.434000E+09  0.02000  1.263E-04    0   0.5908   age139_m62            0.0000     1.1933E+00     8.4271  -0.8653   121.2902
 47      0.0000     0.0000E+00    0.0000E+00    2.500000E+09  0.02000  5.985E-05    0   0.5673   age150_m62            0.0000     1.5162E+00     8.8463  -1.0000   109.3417
 48      0.0000     0.0000E+00    0.0000E+00    4.250000E+09  0.02000  3.271E-05    0   0.5468   age158_m62            0.0000     2.5628E+00    11.5831  -1.0000    95.6992
 49      0.0000     0.0000E+00    0.0000E+00    1.000000E+10  0.02000  1.360E-05    0   0.5167   age181_m62            0.0000     4.4142E+00    15.8155  -1.0000    82.0194
 50      0.0000     0.0000E+00    0.0000E+00    1.800000E+10  0.02000  7.124E-06    0   0.5013   age213_m62            0.0000     5.7365E+00    18.4115  -1.0000    74.0615
 51      0.0000     0.0000E+00    0.0000E+00    1.000000E+06  0.05000  2.592E-02    0   0.9998   age020_m72            0.0000     1.1303E+00     7.7804   2.2875    98.4870
 52      0.0000     0.0000E+00    0.0000E+00    3.160000E+06  0.05000  4.845E-02    0   0.9577   age045_m72            0.0000     1.0327E+00     7.5461   2.1034   101.3460
 53      0.0000     0.0000E+00    0.0000E+00    5.010000E+06  0.05000  3.072E-02    0   0.9147   age055_m72            0.0000     1.2230E+00     8.1954   1.6498   105.6484
 54      0.0000     0.0000E+00    0.0000E+00    6.610000E+06  0.05000  1.455E-02    0   0.8877   age061_m72            0.0000     2.5833E+00    11.8809   0.9796   110.0543
 55      0.0000     0.0000E+00    0.0000E+00    1.000000E+07  0.05000  9.074E-03    0   0.8524   age070_m72            0.0000     1.2659E+00     8.2294   1.8477   105.0656
 56      0.0000     0.0000E+00    0.0000E+00    2.512000E+07  0.05000  4.250E-03    0   0.7902   age090_m72            0.0000     1.2233E+00     8.3364   1.5205   108.2363
 57      0.0000     0.0000E+00    0.0000E+00    4.000000E+07  0.05000  3.087E-03    0   0.7618   age104_m72            0.0000     1.2772E+00     8.5880   1.2858   110.4860
 58      0.0000     0.0000E+00    0.0000E+00    1.015200E+08  0.05000  1.700E-03    0   0.7096   age116_m72            0.0000     1.1819E+00     8.3534   0.9871   115.0914
 59      0.0000     0.0000E+00    0.0000E+00    2.861200E+08  0.05000  7.384E-04    0   0.6633   age125_m72            0.0000     1.2674E+00     8.6119   0.4203   122.3368
 60     22.1515     2.0585E+01    2.1178E+01    5.088000E+08  0.05000  3.819E-04    0   0.6372   age130_m72            0.0000     1.2102E+00     8.5186  -0.0908   124.9211
 61     37.0442     7.8441E+01    7.7382E+01    9.047900E+08  0.05000  1.676E-04    0   0.6110   age135_m72            0.0000     1.2890E+00     8.6103  -0.7860   122.1951
 62      0.0000     0.0000E+00    0.0000E+00    1.434000E+09  0.05000  8.837E-05    0   0.5874   age139_m72            0.0000     1.6057E+00     9.0371  -1.0000   110.9174
 63      0.0000     0.0000E+00    0.0000E+00    2.500000E+09  0.05000  4.233E-05    0   0.5598   age150_m72            0.0000     2.6604E+00    11.6828  -1.0000    96.4441
 64      0.0000     0.0000E+00    0.0000E+00    6.250000E+09  0.05000  1.435E-05    0   0.5249   age166_m72            0.0000     4.9650E+00    17.0356  -1.0000    78.2123
 65      0.0000     0.0000E+00    0.0000E+00    1.300000E+10  0.05000  6.513E-06    0   0.5036   age193_m72            0.0000     6.7936E+00    20.4538  -1.0000    69.5085
 66      0.0000     0.0000E+00    0.0000E+00    1.800000E+10  0.05000  4.527E-06    0   0.4945   age213_m72            0.0000     7.8963E+00    22.3003  -1.0000    64.3778


## Synthesis Results - Average & Chains ##

# j      x_j: min, <> & last-chain-values for 1 ...  7 chains
  1      0.0000      0.3585      0.0000      0.0000      0.0000      2.3978      0.0000      0.0000      0.0000
  2      0.0000      0.6967      1.8337      0.0000      0.4204      0.9724      0.0000      0.3144      1.9608
  3      0.0000      0.1982      0.0000      0.0000      0.0000      0.0000      0.0000      0.0000      0.0000
  4      0.0000      1.1881      0.0000      3.8799      0.0000      0.0000      0.0000      0.0000      0.7353
  5      0.0000      0.3247      0.3642      0.0000      0.0000      0.2250      1.3541      0.0000      0.0000
  6      0.0000      0.1203      0.0000      0.4487      0.2504      0.0000      0.0000      0.0000      1.4253
  7      0.0000      0.2689      0.0000      0.0000      0.0000      0.0000      0.0000      0.7712      0.0000
  8      0.0000      0.4171      0.0000      0.0000      0.0000      0.0000      0.0000      0.0000      0.2158
  9      0.0000      0.4851      0.0000      2.3781      0.0000      1.0341      0.0000      0.0000      0.0000
 10      0.0000      0.4391      0.1193      0.0000      0.0000      1.9249      1.3782      0.1076      0.0943
 11      0.0000      0.8363      0.3509      0.0000      0.0000      1.1132      0.0000      0.0000      0.0000
 12      0.0000      1.9264      2.2047      1.1079      0.0000      0.0232      0.0000      0.0000      1.6463
 13      0.0000      0.1193      0.0000      0.0000      0.0000      0.0000      0.0000      0.0000      0.0000
 14      0.0000      0.7711      0.0000      0.1876      0.0000      0.0000      0.0000      0.3449      2.1369
 15      0.0000      0.1413      0.0000      0.0000      0.0000      0.0000      0.0000      0.0000      0.0000
 16      0.0000      0.1204      0.0000      0.0000      0.0000      0.0000      0.0000      0.0000      0.0000
 17      0.0000      0.0949      0.0000      0.0000      0.1814      0.0000      0.0000      0.0000      0.0000
 18      0.0000      0.1741      0.0000      0.0000      0.0000      0.0000      0.0000      0.0399      0.0000
 19      0.0000      0.4613      1.0928      0.0000      0.0000      0.0000      0.0000      0.0000      0.0000
 20      0.0000      0.2202      0.0000      0.0000      0.0000      0.0000      0.0000      0.0000      0.0000
 21     58.3010     44.1389     51.0285     44.9700     52.7058     47.3942     47.1025     51.2733     48.7132
 22      0.0000      0.1976      0.0000      0.3879      0.0000      0.0000      0.0000      0.4951      0.0000
 23      0.0000      0.2365      0.1028      0.9142      0.0000      0.0000      0.0703      0.0765      0.0000
 24      0.0000      0.1955      0.0000      0.0000      0.0000      0.1484      0.0000      1.2571      0.0000
 25      0.0000      0.2493      0.0000      0.0000      0.1857      0.0000      0.0000      0.0000      0.0000
 26      0.0000      0.2508      0.0000      0.0000      0.0000      1.3493      0.0000      0.1551      0.0000
 27      0.0000      0.7595      0.0000      0.0000      0.0000      0.0000      0.0000      0.7180      0.0000
 28      0.0000      0.7180      1.0987      0.0000      0.9348      0.0000      0.0000      0.4369      0.0000
 29      0.0000      0.0959      0.0000      0.0000      0.0000      0.0000      0.0000      0.0000      0.0000
 30      0.0000      0.1030      0.0000      0.0000      0.0000      0.3277      0.0000      0.0000      0.0000
 31      0.0000      0.1368      0.0000      0.0000      0.0000      0.0000      0.0000      0.0000      0.0000
 32      0.0000      0.0987      0.0000      0.0000      0.0000      0.0000      0.0000      0.0000      0.0000
 33      0.0000      0.0129      0.0000      0.0000      0.0000      0.0000      0.0000      0.0000      0.0000
 34      0.0000      0.0089      0.0000      0.0000      0.0000      0.0000      0.0000      0.0000      0.0000
 35      0.0000      0.1967      1.1509      0.0000      0.0000      0.0000      0.0000      0.0000      1.3542
 36      0.0000      0.2551      0.0000      0.4164      0.0000      0.0000      0.1438      1.6859      0.0000
 37      0.0000      0.4196      0.0000      0.0000      0.0000      1.1806      0.0000      0.0000      0.0000
 38      0.0000      0.0975      0.0000      0.0000      0.0000      0.0000      0.0000      0.0000      0.0000
 39      0.0000      0.1556      0.0000      0.0000      0.0000      0.0000      0.0000      0.0000      0.0000
 40      0.0000      0.1807      0.0000      0.0458      0.0000      0.0158      0.0000      0.0000      0.0000
 41      0.0000      0.2027      0.0000      0.0000      0.0000      0.0000      0.0000      0.0000      0.0000
 42      0.0000      0.3388      0.0000      0.0554      0.0000      0.0000      0.8133      0.0000      0.0000
 43      0.0000      0.4154      0.0000      0.0838      0.1762      0.1404      0.0000      0.0000      0.0000
 44      0.0068      0.9080      1.0839      0.0000      0.4813      0.0000      0.7243      0.0000      0.9244
 45      0.0000     12.6294     13.7326     15.0330     13.3332     15.3613     11.9663     15.6643      8.5652
 46      0.0000      0.7941      0.0000      0.1173      0.0000      0.0000      0.7743      0.0000      1.4598
