###################################################################
## OUTPUT of StarlightChains_v04.for    [Cid@UFSC - 01/Apr/2007] ##
###################################################################

## Some input info
iPTF14bdn.txt                            [arq_obs]
Base.CB07.vall.4m                        [arq_base]
Masks.EmLines.NEW.gm                     [arq_masks]
StCv04.C11.config                        [arq_config]
   66                                    [N_base]
    0                                    [N_YAV_components = # of components with extra extinction!]
    0                                    [i_FitPowerLaw (1/0 = Yes/No)]
-9.99                                    [alpha_PowerLaw]
CCM                                      [red_law_option]
 1.458241                                [q_norm = A(l_norm)/A(V)]

## (Re)Sampling Parameters
 3741.00                                 [l_ini (A)]
 7218.00                                 [l_fin (A)]
    1.00                                 [dl    (A)]     (OBS: dl_cushion =    50.00 A)

## Normalization info
 4020.00                                 [l_norm (A) - for base]
 4010.00                                 [llow_norm (A) - window for f_obs]
 4060.00                                 [lupp_norm (A) - window for f_obs]
5.103052E-17                             [fobs_norm (in input units)]

## S/N
 3691.00                                 [llow_SN (A) - window for S/N]
 7268.00                                 [lupp_SN (A) - window for S/N]
   5.511                                 [S/N in S/N window]
   7.423                                 [S/N in norm. window]
   8.042                                 [S/N_err in S/N window]
  10.832                                 [S/N_err in norm. window]
  1.0000                                 [fscale_chi2]

## etc...
    -2007451                             [idum_orig]
  2383                                   [NOl_eff]
  2383                                   [Nl_eff]
     0    NSIGMA                         [Ntot_cliped & clip_method]
  1121400                                [Nglobal_steps]
   7                                     [N_chains]
  19                                     [NEX0s_base = N_base in EX0s-fits]
 0   0   1        2   2.0   1.962E+01    [Clip-Bug, RC-Crash & Burn-In warning-flags, n_censored_weights, wei_nsig_threshold & wei_limit]
    11     11.101     10.609      0.492  [idt_all, wdt_TotTime, wdt_UsrTime & wdt_SysTime (sec)]

## Synthesis Results - Best model ##

 2.81736E-01                             [chi2/Nl_eff]
     5.35102                             [adev (%)]

   100.06224                             [sum-of-x (%)]
 9.20901E-17                             [Flux_tot (units of input spectrum!)]
 9.77998E-14                             [Mini_tot (???)]
 6.16358E-14                             [Mcor_tot (???)]

 -27.19                                  [v0_min  (km/s)]
 175.91                                  [vd_min  (km/s)]
 0.4391                                  [AV_min  (mag)]
 0.0000                                  [YAV_min (mag)]

# j     x_j(%)      Mini_j(%)     Mcor_j(%)     age_j(yr)     Z_j      (L/M)_j    YAV?  Mstars   component_j        a/Fe...       SSP_chi2r SSP_adev(%)   SSP_AV   SSP_x(%)
  1      0.0000     0.0000E+00    0.0000E+00    1.000000E+06  0.00400  1.094E-02    0   1.0000   age020_m42            0.0000     4.1085E-01     6.6195   2.3541    86.7209
  2      0.0000     0.0000E+00    0.0000E+00    3.160000E+06  0.00400  4.007E-02    0   0.9999   age045_m42            0.0000     3.4043E-01     5.8389   1.6133    93.4469
  3      0.0000     0.0000E+00    0.0000E+00    5.010000E+06  0.00400  2.539E-02    0   0.9488   age055_m42            0.0000     3.5649E-01     6.0723   1.9358    91.0040
  4      0.0000     0.0000E+00    0.0000E+00    6.610000E+06  0.00400  2.620E-02    0   0.9220   age061_m42            0.0000     3.3226E-01     5.7224   1.5329    93.9759
  5      0.0000     0.0000E+00    0.0000E+00    1.000000E+07  0.00400  1.322E-02    0   0.8862   age070_m42            0.0000     3.1932E-01     5.6962   1.2255    97.2699
  6      0.0000     0.0000E+00    0.0000E+00    1.445000E+07  0.00400  7.883E-03    0   0.8571   age078_m42            0.0000     3.3402E-01     5.8855   1.5594    94.4417
  7      0.0000     0.0000E+00    0.0000E+00    2.512000E+07  0.00400  5.251E-03    0   0.8174   age090_m42            0.0000     3.2480E-01     5.7411   1.0888    98.1551
  8      0.0000     0.0000E+00    0.0000E+00    4.000000E+07  0.00400  3.649E-03    0   0.7851   age104_m42            0.0000     3.1501E-01     5.6213   0.8624    98.9357
  9      1.9335     5.8732E-01    7.1096E-01    5.500000E+07  0.00400  3.098E-03    0   0.7629   age110_m42            0.0000     3.1805E-01     5.5498   1.0250    98.4843
 10      0.0000     0.0000E+00    0.0000E+00    1.015200E+08  0.00400  2.228E-03    0   0.7207   age116_m42            0.0000     3.3488E-01     5.5611   1.0501    98.4277
 11      0.0000     0.0000E+00    0.0000E+00    2.861200E+08  0.00400  1.093E-03    0   0.6648   age125_m42            0.0000     3.7194E-01     5.7507   0.4680   102.0763
 12      0.0000     0.0000E+00    0.0000E+00    5.088000E+08  0.00400  6.597E-04    0   0.6365   age130_m42            0.0000     3.9410E-01     5.7752   0.4720   102.2196
 13      0.0000     0.0000E+00    0.0000E+00    1.434000E+09  0.00400  2.132E-04    0   0.5798   age139_m42            0.0000     3.8417E-01     5.7674  -0.4832   103.4735
 14      0.0000     0.0000E+00    0.0000E+00    4.250000E+09  0.00400  5.895E-05    0   0.5377   age158_m42            0.0000     3.8810E-01     6.0858  -0.8878    97.7309
 15      0.0000     0.0000E+00    0.0000E+00    7.500000E+09  0.00400  3.510E-05    0   0.5212   age171_m42            0.0000     4.4460E-01     6.5829  -1.0000    94.0576
 16      0.0000     0.0000E+00    0.0000E+00    1.300000E+10  0.00400  2.005E-05    0   0.5034   age193_m42            0.0000     5.9124E-01     7.7005  -1.0000    87.3064
 17      0.0000     0.0000E+00    0.0000E+00    1.800000E+10  0.00400  1.525E-05    0   0.4967   age213_m42            0.0000     6.0676E-01     7.8328  -1.0000    86.0834
 18      0.0089     6.7753E-04    1.0751E-03    1.000000E+06  0.00800  1.238E-02    0   1.0000   age020_m52            0.0000     4.0999E-01     6.6208   2.3496    86.9234
 19      0.0000     0.0000E+00    0.0000E+00    3.160000E+06  0.00800  3.074E-02    0   0.9966   age045_m52            0.0000     3.9973E-01     6.5277   2.2720    87.7440
 20      0.0000     0.0000E+00    0.0000E+00    5.010000E+06  0.00800  2.668E-02    0   0.9443   age055_m52            0.0000     3.5828E-01     6.1368   2.0185    90.1747
 21     73.5539     3.2405E+00    4.7186E+00    6.610000E+06  0.00800  2.136E-02    0   0.9177   age061_m52            0.0000     2.9546E-01     5.5381   0.7376    97.7841
 22      0.0000     0.0000E+00    0.0000E+00    1.000000E+07  0.00800  1.215E-02    0   0.8827   age070_m52            0.0000     3.4304E-01     5.9456   1.3985    97.3470
 23      0.0000     0.0000E+00    0.0000E+00    1.445000E+07  0.00800  8.717E-03    0   0.8552   age078_m52            0.0000     3.2640E-01     5.8125   1.5210    95.9375
 24      0.0000     0.0000E+00    0.0000E+00    2.512000E+07  0.00800  5.592E-03    0   0.8162   age090_m52            0.0000     3.3237E-01     5.7960   1.1492    99.4964
 25      0.0000     0.0000E+00    0.0000E+00    4.000000E+07  0.00800  3.896E-03    0   0.7841   age104_m52            0.0000     3.2977E-01     5.7138   1.0651   100.1044
 26      0.0000     0.0000E+00    0.0000E+00    1.015200E+08  0.00800  2.148E-03    0   0.7226   age116_m52            0.0000     3.2584E-01     5.5310   1.0126    99.4804
 27      0.0000     0.0000E+00    0.0000E+00    2.861200E+08  0.00800  9.925E-04    0   0.6683   age125_m52            0.0000     3.9160E-01     5.7508   0.5344   103.3004
 28      0.0000     0.0000E+00    0.0000E+00    9.047900E+08  0.00800  3.141E-04    0   0.6138   age135_m52            0.0000     4.4899E-01     6.1548  -0.2324   105.9992
 29      0.0000     0.0000E+00    0.0000E+00    1.434000E+09  0.00800  1.719E-04    0   0.5853   age139_m52            0.0000     4.3781E-01     6.2989  -0.8039   103.3743
 30      0.0000     0.0000E+00    0.0000E+00    2.500000E+09  0.00800  7.872E-05    0   0.5600   age150_m52            0.0000     4.8798E-01     6.7858  -1.0000    97.4692
 31      0.0000     0.0000E+00    0.0000E+00    4.250000E+09  0.00800  4.336E-05    0   0.5426   age158_m52            0.0000     4.9142E-01     6.8677  -1.0000    95.9258
 32      0.0000     0.0000E+00    0.0000E+00    6.250000E+09  0.00800  3.159E-05    0   0.5319   age166_m52            0.0000     6.9328E-01     8.2579  -1.0000    88.1299
 33      0.0000     0.0000E+00    0.0000E+00    1.300000E+10  0.00800  1.361E-05    0   0.5073   age193_m52            0.0000     1.6389E+00    13.1348  -1.0000    71.2518
 34      0.0000     0.0000E+00    0.0000E+00    1.800000E+10  0.00800  9.886E-06    0   0.4990   age213_m52            0.0000     1.9640E+00    14.4267  -1.0000    67.4919
 35      0.0000     0.0000E+00    0.0000E+00    1.000000E+06  0.02000  1.544E-02    0   1.0000   age020_m62            0.0000     4.1199E-01     6.6403   2.3451    87.1426
 36      0.0000     0.0000E+00    0.0000E+00    3.160000E+06  0.02000  3.762E-02    0   0.9858   age045_m62            0.0000     4.1001E-01     6.6071   2.2838    87.9142
 37      0.0000     0.0000E+00    0.0000E+00    5.010000E+06  0.02000  3.296E-02    0   0.9342   age055_m62            0.0000     3.4707E-01     5.9324   1.8942    92.2052
 38      0.0000     0.0000E+00    0.0000E+00    8.710000E+06  0.02000  1.154E-02    0   0.8861   age067_m62            0.0000     6.5208E-01     8.0783   0.8111   102.1340
 39      0.0000     0.0000E+00    0.0000E+00    1.445000E+07  0.02000  7.663E-03    0   0.8472   age078_m62            0.0000     4.0563E-01     6.4172   1.0323   100.2330
 40      0.0000     0.0000E+00    0.0000E+00    2.512000E+07  0.02000  4.532E-03    0   0.8099   age090_m62            0.0000     4.3097E-01     6.5850   1.0185   100.2752
 41      0.0000     0.0000E+00    0.0000E+00    5.500000E+07  0.02000  2.733E-03    0   0.7595   age110_m62            0.0000     3.2593E-01     5.6744   1.0482    99.3430
 42      0.0000     0.0000E+00    0.0000E+00    1.609000E+08  0.02000  1.369E-03    0   0.6985   age120_m62            0.0000     3.5804E-01     5.6095   0.8924   101.8176
 43      0.0000     0.0000E+00    0.0000E+00    2.861200E+08  0.02000  9.013E-04    0   0.6714   age125_m62            0.0000     4.1445E-01     5.8800   0.6469   104.5013
 44      1.2486     2.3369E+00    2.3913E+00    5.088000E+08  0.02000  5.028E-04    0   0.6449   age130_m62            0.0000     4.7784E-01     6.2258   0.2974   105.8444
 45      0.0000     0.0000E+00    0.0000E+00    9.047900E+08  0.02000  2.428E-04    0   0.6179   age135_m62            0.0000     4.5615E-01     6.2240  -0.2662   104.1029
 46      0.0000     0.0000E+00    0.0000E+00    1.434000E+09  0.02000  1.263E-04    0   0.5908   age139_m62            0.0000     4.7103E-01     6.5566  -0.6962   101.8647
 47      0.0000     0.0000E+00    0.0000E+00    2.500000E+09  0.02000  5.985E-05    0   0.5673   age150_m62            0.0000     5.6523E-01     7.3223  -1.0000    97.7712
 48      0.0000     0.0000E+00    0.0000E+00    4.250000E+09  0.02000  3.271E-05    0   0.5468   age158_m62            0.0000     9.1502E-01     9.4788  -1.0000    85.2408
 49      0.0000     0.0000E+00    0.0000E+00    1.000000E+10  0.02000  1.360E-05    0   0.5167   age181_m62            0.0000     1.6953E+00    13.1419  -1.0000    72.8027
 50      0.0000     0.0000E+00    0.0000E+00    1.800000E+10  0.02000  7.124E-06    0   0.5013   age213_m62            0.0000     2.3186E+00    15.5283  -1.0000    65.6395
 51      0.0000     0.0000E+00    0.0000E+00    1.000000E+06  0.05000  2.592E-02    0   0.9998   age020_m72            0.0000     4.2073E-01     6.7304   2.3355    87.2066
 52      0.0000     0.0000E+00    0.0000E+00    3.160000E+06  0.05000  4.845E-02    0   0.9577   age045_m72            0.0000     3.8683E-01     6.3668   2.1633    89.2579
 53      0.0000     0.0000E+00    0.0000E+00    5.010000E+06  0.05000  3.072E-02    0   0.9147   age055_m72            0.0000     4.0564E-01     6.4435   1.6444    95.1600
 54      0.0000     0.0000E+00    0.0000E+00    6.610000E+06  0.05000  1.455E-02    0   0.8877   age061_m72            0.0000     1.1247E+00    10.3544   0.8435   103.9344
 55      0.0000     0.0000E+00    0.0000E+00    1.000000E+07  0.05000  9.074E-03    0   0.8524   age070_m72            0.0000     5.2150E-01     7.1102   1.8307    94.8367
 56      0.0000     0.0000E+00    0.0000E+00    2.512000E+07  0.05000  4.250E-03    0   0.7902   age090_m72            0.0000     4.3572E-01     6.5217   1.5142    97.3536
 57      0.0000     0.0000E+00    0.0000E+00    4.000000E+07  0.05000  3.087E-03    0   0.7618   age104_m72            0.0000     4.4841E-01     6.5465   1.2748    99.5459
 58      0.0000     0.0000E+00    0.0000E+00    1.015200E+08  0.05000  1.700E-03    0   0.7096   age116_m72            0.0000     3.7066E-01     5.7815   1.0241   101.9214
 59      0.0000     0.0000E+00    0.0000E+00    2.861200E+08  0.05000  7.384E-04    0   0.6633   age125_m72            0.0000     4.5612E-01     6.0812   0.5284   105.2424
 60     11.7709     2.9004E+01    2.9325E+01    5.088000E+08  0.05000  3.819E-04    0   0.6372   age130_m72            0.0000     4.6681E-01     6.1805   0.0652   105.4682
 61     11.5464     6.4830E+01    6.2853E+01    9.047900E+08  0.05000  1.676E-04    0   0.6110   age135_m72            0.0000     5.5306E-01     7.0560  -0.5860   101.4365
 62      0.0000     0.0000E+00    0.0000E+00    1.434000E+09  0.05000  8.837E-05    0   0.5874   age139_m72            0.0000     6.1395E-01     7.5815  -1.0000    99.1762
 63      0.0000     0.0000E+00    0.0000E+00    2.500000E+09  0.05000  4.233E-05    0   0.5598   age150_m72            0.0000     9.6394E-01     9.7150  -1.0000    85.9163
 64      0.0000     0.0000E+00    0.0000E+00    6.250000E+09  0.05000  1.435E-05    0   0.5249   age166_m72            0.0000     1.9642E+00    14.2855  -1.0000    69.3823
 65      0.0000     0.0000E+00    0.0000E+00    1.300000E+10  0.05000  6.513E-06    0   0.5036   age193_m72            0.0000     2.8659E+00    17.4685  -1.0000    61.5446
 66      0.0000     0.0000E+00    0.0000E+00    1.800000E+10  0.05000  4.527E-06    0   0.4945   age213_m72            0.0000     3.4412E+00    19.2753  -1.0000    56.9383


## Synthesis Results - Average & Chains ##

# j      x_j: min, <> & last-chain-values for 1 ...  7 chains
  1      0.0000      0.5095      0.0000      0.0000      2.7157      0.0000      0.0000      0.0000      0.0000
  2      0.0000      1.4218      0.0204      0.0000      3.4683      1.6450      0.0000      1.4798      2.1272
  3      0.0000      0.3620      1.6333      0.0000      0.0000      0.0000      0.1790      0.0000      0.0000
  4      0.0000      0.4734      0.0000      5.3766      1.9179      0.0000      0.0000      0.0000      0.0000
  5      0.0000      0.9825      0.7192      8.2728      0.0000      0.5693      0.0000      0.0000      0.0000
  6      0.0000      1.0858      6.3980      1.1324      0.5430      0.0000      0.0000      0.0000      0.0000
  7      0.0000      2.6793      0.2427      3.9653      0.0000      2.2775      0.0000      2.0927      0.0000
  8      0.0000      1.6528      0.0000      0.0000      7.1066      0.0000      0.7330      0.0000      0.0000
  9      1.9335      1.1813      0.6902      0.0000      0.0000      1.0548      1.1048      4.2849      1.3947
 10      0.0000      0.5870      1.4875      1.0322      2.0713      1.2426      0.0000      3.8477      2.6098
 11      0.0000      1.0486      0.0000      0.0000      0.0000      0.0000      0.0000      0.0000      0.0000
 12      0.0000      1.2315      0.8219      0.7824      0.2565      0.0000      0.0000      0.0000      1.2290
 13      0.0000      0.8493      0.0000      0.5021      0.0000      0.0000      0.6798      0.0000      3.0384
 14      0.0000      0.6044      0.0000      0.0000      0.0000      0.0000      0.0000      0.0000      0.0000
 15      0.0000      0.3473      0.0000      0.0000      0.0000      0.0000      0.0000      0.0000      0.0000
 16      0.0000      0.2757      0.0000      0.0000      0.9383      0.0000      0.5695      0.2845      0.0000
 17      0.0000      0.1604      0.3200      0.0000      0.0000      0.0000      0.9668      0.0000      0.1020
 18      0.0089      0.6567      0.0000      0.0000      1.4986      0.0000      0.7421      0.0000      0.0000
 19      0.0000      0.4033      0.0000      0.0981      0.0000      2.4359      0.0000      0.0000      0.0000
 20      0.0000      0.4076      0.0000      0.0000      0.0000      1.5035      1.0453      0.0000      3.0871
 21     73.5539     38.0181     45.0426     45.2905     42.4906     50.3318     55.8181     44.5978     49.2325
 22      0.0000      0.9420      0.0000      0.0000      0.5632      4.2615      0.0000      0.0000      0.0000
 23      0.0000      0.6045      0.0000      0.0000      1.9929      0.0000      0.4886      0.0000      0.5363
 24      0.0000      1.0191      0.0000      1.3249      0.0000      0.0000      3.1370      0.0000      0.0000
 25      0.0000      0.6052      0.0000      0.0000      0.0000      0.0000      0.0000      1.2507      0.0000
 26      0.0000      0.7764      0.0000      0.0000      0.0000      0.0000      0.2692      0.4549      0.0000
 27      0.0000      1.4105      0.0000      0.0556      0.0000      0.1689      0.4297      0.0000      0.0864
 28      0.0000      1.1806      2.9480      0.0000      0.5307      0.0000      0.0000      0.0000      0.0000
 29      0.0000      0.1033      0.0000      0.0000      0.0000      0.0000      0.0000      0.0000      0.0000
 30      0.0000      0.2820      0.0000      0.0000      0.0000      3.1312      0.0000      0.0000      0.0000
 31      0.0000      0.2069      0.5289      0.1011      0.0000      0.0000      0.0000      0.0000      0.0000
 32      0.0000      0.0803      0.0742      0.0000      0.8133      0.0000      0.0000      0.0000      0.0000
 33      0.0000      0.0194      0.0000      0.0000      0.0000      0.0000      0.0000      0.0000      0.0000
 34      0.0000      0.0252      0.0000      0.0000      0.0000      0.0000      0.0000      0.0000      0.0000
 35      0.0000      0.5201      0.0000      1.7525      0.0000      0.0000      0.0000      5.1009      1.1492
 36      0.0000      0.5861      0.6876      0.0000      0.5042      0.0000      1.1768      0.0000      0.0000
 37      0.0000      0.9661      0.0000      0.0000      0.6045      0.0000      0.0000      0.0000      1.3589
 38      0.0000      0.6658      0.7932      0.0000      0.0000      0.0000      0.0000      1.2316      1.6771
 39      0.0000      0.5832      0.0000      0.2205      0.0000      0.9642      0.0000      0.9736      0.0000
 40      0.0000      0.5518      0.9939      0.0000      0.0000      0.0000      1.1464      0.0000      0.0763
 41      0.0000      0.8044      0.0000      0.0000      0.2441      0.0000      0.9390      0.0000      0.0000
 42      0.0000      0.7082      0.0000      0.0000      0.0000      0.0000      1.5345      0.0000      0.0000
 43      0.0000      1.0407      0.7101      0.0000      0.0000      2.5802      0.0000      0.0000      0.6243
 44      1.2486      1.9053      0.0000      0.0000      0.0000      0.0000      1.6428      0.0000      0.0000
 45      0.0000      5.2494      6.2447      6.9485      1.5179      3.3044      8.1461      5.8341      8.6676
 46      0.0000      0.6622      0.3223      0.0000      1.5362      1.1442      0.0000      0.0000      0.0000
