###################################################################
## OUTPUT of StarlightChains_v04.for    [Cid@UFSC - 01/Apr/2007] ##
###################################################################

## Some input info
iPTF13dkl.txt                            [arq_obs]
Base.CB07.vall.4m                        [arq_base]
Masks.EmLines.NEW.gm                     [arq_masks]
StCv04.C11.config                        [arq_config]
   66                                    [N_base]
    0                                    [N_YAV_components = # of components with extra extinction!]
    0                                    [i_FitPowerLaw (1/0 = Yes/No)]
-9.99                                    [alpha_PowerLaw]
CCM                                      [red_law_option]
 1.458241                                [q_norm = A(l_norm)/A(V)]

## (Re)Sampling Parameters
 3741.00                                 [l_ini (A)]
 7218.00                                 [l_fin (A)]
    1.00                                 [dl    (A)]     (OBS: dl_cushion =    50.00 A)

## Normalization info
 4020.00                                 [l_norm (A) - for base]
 4010.00                                 [llow_norm (A) - window for f_obs]
 4060.00                                 [lupp_norm (A) - window for f_obs]
1.929690E-17                             [fobs_norm (in input units)]

## S/N
 3691.00                                 [llow_SN (A) - window for S/N]
 7268.00                                 [lupp_SN (A) - window for S/N]
   3.903                                 [S/N in S/N window]
   4.712                                 [S/N in norm. window]
  10.000                                 [S/N_err in S/N window]
  12.072                                 [S/N_err in norm. window]
  1.0000                                 [fscale_chi2]

## etc...
    -2007449                             [idum_orig]
  2212                                   [NOl_eff]
  1846                                   [Nl_eff]
   366    NSIGMA                         [Ntot_cliped & clip_method]
   549010                                [Nglobal_steps]
   7                                     [N_chains]
  10                                     [NEX0s_base = N_base in EX0s-fits]
 0   0   1       17   2.0   3.822E+01    [Clip-Bug, RC-Crash & Burn-In warning-flags, n_censored_weights, wei_nsig_threshold & wei_limit]
    10      9.931      9.433      0.498  [idt_all, wdt_TotTime, wdt_UsrTime & wdt_SysTime (sec)]

## Synthesis Results - Best model ##

 1.90145E+00                             [chi2/Nl_eff]
    11.29662                             [adev (%)]

    92.43253                             [sum-of-x (%)]
 1.70982E-17                             [Flux_tot (units of input spectrum!)]
 8.56263E-14                             [Mini_tot (???)]
 5.25697E-14                             [Mcor_tot (???)]

-120.75                                  [v0_min  (km/s)]
 257.25                                  [vd_min  (km/s)]
-0.0315                                  [AV_min  (mag)]
 0.0000                                  [YAV_min (mag)]

# j     x_j(%)      Mini_j(%)     Mcor_j(%)     age_j(yr)     Z_j      (L/M)_j    YAV?  Mstars   component_j        a/Fe...       SSP_chi2r SSP_adev(%)   SSP_AV   SSP_x(%)
  1      0.0000     0.0000E+00    0.0000E+00    1.000000E+06  0.00400  1.094E-02    0   1.0000   age020_m42            0.0000     2.4377E+00    11.9556   2.7959    76.6726
  2      0.0000     0.0000E+00    0.0000E+00    3.160000E+06  0.00400  4.007E-02    0   0.9999   age045_m42            0.0000     2.2111E+00    11.6720   2.0636    82.2132
  3      0.0000     0.0000E+00    0.0000E+00    5.010000E+06  0.00400  2.539E-02    0   0.9488   age055_m42            0.0000     2.2875E+00    11.7551   2.3835    80.2112
  4      0.0000     0.0000E+00    0.0000E+00    6.610000E+06  0.00400  2.620E-02    0   0.9220   age061_m42            0.0000     2.2054E+00    11.6639   1.9883    82.5173
  5      0.0000     0.0000E+00    0.0000E+00    1.000000E+07  0.00400  1.322E-02    0   0.8862   age070_m42            0.0000     2.3694E+00    12.0469   1.7082    84.3826
  6      0.0000     0.0000E+00    0.0000E+00    1.445000E+07  0.00400  7.883E-03    0   0.8571   age078_m42            0.0000     2.3844E+00    12.0097   2.0377    82.1675
  7      0.0000     0.0000E+00    0.0000E+00    2.512000E+07  0.00400  5.251E-03    0   0.8174   age090_m42            0.0000     2.3934E+00    12.1291   1.5772    84.9197
  8      0.0000     0.0000E+00    0.0000E+00    4.000000E+07  0.00400  3.649E-03    0   0.7851   age104_m42            0.0000     2.3399E+00    12.0502   1.3474    85.6923
  9      0.0000     0.0000E+00    0.0000E+00    5.500000E+07  0.00400  3.098E-03    0   0.7629   age110_m42            0.0000     2.2389E+00    11.7878   1.5010    85.6622
 10      0.0000     0.0000E+00    0.0000E+00    1.015200E+08  0.00400  2.228E-03    0   0.7207   age116_m42            0.0000     2.1935E+00    11.6804   1.5210    85.7946
 11      0.0000     0.0000E+00    0.0000E+00    2.861200E+08  0.00400  1.093E-03    0   0.6648   age125_m42            0.0000     2.2367E+00    11.8771   0.9592    88.2813
 12      0.0000     0.0000E+00    0.0000E+00    5.088000E+08  0.00400  6.597E-04    0   0.6365   age130_m42            0.0000     2.1582E+00    11.6923   0.9468    88.9890
 13      0.0000     0.0000E+00    0.0000E+00    1.434000E+09  0.00400  2.132E-04    0   0.5798   age139_m42            0.0000     2.0573E+00    11.6639  -0.0305    90.7681
 14      0.0000     0.0000E+00    0.0000E+00    4.250000E+09  0.00400  5.895E-05    0   0.5377   age158_m42            0.0000     1.9702E+00    11.4576  -0.4721    87.1316
 15      0.0000     0.0000E+00    0.0000E+00    7.500000E+09  0.00400  3.510E-05    0   0.5212   age171_m42            0.0000     1.9751E+00    11.4631  -0.6563    86.4089
 16      0.0000     0.0000E+00    0.0000E+00    1.300000E+10  0.00400  2.005E-05    0   0.5034   age193_m42            0.0000     2.0040E+00    11.5171  -0.8158    85.7475
 17      0.0000     0.0000E+00    0.0000E+00    1.800000E+10  0.00400  1.525E-05    0   0.4967   age213_m42            0.0000     2.0055E+00    11.5248  -0.8409    85.4243
 18      0.0000     0.0000E+00    0.0000E+00    1.000000E+06  0.00800  1.238E-02    0   1.0000   age020_m52            0.0000     2.4390E+00    11.9576   2.7909    76.8613
 19      0.0000     0.0000E+00    0.0000E+00    3.160000E+06  0.00800  3.074E-02    0   0.9966   age045_m52            0.0000     2.3994E+00    11.9041   2.7110    77.6493
 20      0.0000     0.0000E+00    0.0000E+00    5.010000E+06  0.00800  2.668E-02    0   0.9443   age055_m52            0.0000     2.3118E+00    11.7895   2.4648    79.5379
 21      0.0000     0.0000E+00    0.0000E+00    6.610000E+06  0.00800  2.136E-02    0   0.9177   age061_m52            0.0000     2.3415E+00    12.0647   1.2068    85.2644
 22      0.0000     0.0000E+00    0.0000E+00    1.000000E+07  0.00800  1.215E-02    0   0.8827   age070_m52            0.0000     2.4465E+00    12.2157   1.8906    84.1833
 23      0.0000     0.0000E+00    0.0000E+00    1.445000E+07  0.00800  8.717E-03    0   0.8552   age078_m52            0.0000     2.3742E+00    12.0268   1.9993    83.4272
 24      0.0000     0.0000E+00    0.0000E+00    2.512000E+07  0.00800  5.592E-03    0   0.8162   age090_m52            0.0000     2.3914E+00    12.1566   1.6407    85.9863
 25      0.0000     0.0000E+00    0.0000E+00    4.000000E+07  0.00800  3.896E-03    0   0.7841   age104_m52            0.0000     2.3144E+00    12.0096   1.5535    86.6458
 26      0.0000     0.0000E+00    0.0000E+00    1.015200E+08  0.00800  2.148E-03    0   0.7226   age116_m52            0.0000     2.2086E+00    11.7830   1.4894    86.5098
 27      0.0000     0.0000E+00    0.0000E+00    2.861200E+08  0.00800  9.925E-04    0   0.6683   age125_m52            0.0000     2.1523E+00    11.6843   1.0126    89.8262
 28      0.0000     0.0000E+00    0.0000E+00    9.047900E+08  0.00800  3.141E-04    0   0.6138   age135_m52            0.0000     1.9915E+00    11.5033   0.2119    93.4772
 29      0.0000     0.0000E+00    0.0000E+00    1.434000E+09  0.00800  1.719E-04    0   0.5853   age139_m52            0.0000     1.9884E+00    11.5906  -0.3676    91.4694
 30      0.0000     0.0000E+00    0.0000E+00    2.500000E+09  0.00800  7.872E-05    0   0.5600   age150_m52            0.0000     1.9594E+00    11.4668  -0.6358    88.8336
 31      0.0000     0.0000E+00    0.0000E+00    4.250000E+09  0.00800  4.336E-05    0   0.5426   age158_m52            0.0000     1.9649E+00    11.4679  -0.6517    87.9961
 32      0.0000     0.0000E+00    0.0000E+00    6.250000E+09  0.00800  3.159E-05    0   0.5319   age166_m52            0.0000     2.0003E+00    11.5400  -0.8514    87.8583
 33      0.0000     0.0000E+00    0.0000E+00    1.300000E+10  0.00800  1.361E-05    0   0.5073   age193_m52            0.0000     2.4144E+00    12.4347  -1.0000    77.1638
 34      0.0000     0.0000E+00    0.0000E+00    1.800000E+10  0.00800  9.886E-06    0   0.4990   age213_m52            0.0000     2.7159E+00    13.0468  -1.0000    73.4905
 35      0.0000     0.0000E+00    0.0000E+00    1.000000E+06  0.02000  1.544E-02    0   1.0000   age020_m62            0.0000     2.4462E+00    11.9732   2.7872    77.0325
 36      0.0000     0.0000E+00    0.0000E+00    3.160000E+06  0.02000  3.762E-02    0   0.9858   age045_m62            0.0000     2.4203E+00    11.9344   2.7237    77.8126
 37      0.0000     0.0000E+00    0.0000E+00    5.010000E+06  0.02000  3.296E-02    0   0.9342   age055_m62            0.0000     2.2328E+00    11.6737   2.3400    81.3356
 38      0.0000     0.0000E+00    0.0000E+00    8.710000E+06  0.02000  1.154E-02    0   0.8861   age067_m62            0.0000     3.1530E+00    13.8198   1.3483    86.6364
 39      0.0000     0.0000E+00    0.0000E+00    1.445000E+07  0.02000  7.663E-03    0   0.8472   age078_m62            0.0000     2.5911E+00    12.5974   1.5411    86.1181
 40      0.0000     0.0000E+00    0.0000E+00    2.512000E+07  0.02000  4.532E-03    0   0.8099   age090_m62            0.0000     2.6147E+00    12.6702   1.5338    85.9398
 41      0.0000     0.0000E+00    0.0000E+00    5.500000E+07  0.02000  2.733E-03    0   0.7595   age110_m62            0.0000     2.3245E+00    12.0277   1.5352    86.0397
 42      0.0000     0.0000E+00    0.0000E+00    1.609000E+08  0.02000  1.369E-03    0   0.6985   age120_m62            0.0000     2.2114E+00    11.7677   1.3717    88.4393
 43      0.0000     0.0000E+00    0.0000E+00    2.861200E+08  0.02000  9.013E-04    0   0.6714   age125_m62            0.0000     2.1807E+00    11.7068   1.1185    91.0134
 44      0.0000     0.0000E+00    0.0000E+00    5.088000E+08  0.02000  5.028E-04    0   0.6449   age130_m62            0.0000     2.0483E+00    11.4830   0.7408    93.3165
 45     47.9518     4.2665E+01    4.2940E+01    9.047900E+08  0.02000  2.428E-04    0   0.6179   age135_m62            0.0000     1.9146E+00    11.3093   0.1524    92.7715
 46      0.0000     0.0000E+00    0.0000E+00    1.434000E+09  0.02000  1.263E-04    0   0.5908   age139_m62            0.0000     1.9167E+00    11.3602  -0.2922    91.3318
 47      0.0000     0.0000E+00    0.0000E+00    2.500000E+09  0.02000  5.985E-05    0   0.5673   age150_m62            0.0000     1.9632E+00    11.4553  -0.6544    89.8139
 48      0.0000     0.0000E+00    0.0000E+00    4.250000E+09  0.02000  3.271E-05    0   0.5468   age158_m62            0.0000     2.0624E+00    11.6600  -0.9555    88.7953
 49      0.0000     0.0000E+00    0.0000E+00    1.000000E+10  0.02000  1.360E-05    0   0.5167   age181_m62            0.0000     2.5027E+00    12.5639  -1.0000    78.6879
 50      0.0000     0.0000E+00    0.0000E+00    1.800000E+10  0.02000  7.124E-06    0   0.5013   age213_m62            0.0000     3.1119E+00    13.7686  -1.0000    71.6889
 51      0.0000     0.0000E+00    0.0000E+00    1.000000E+06  0.05000  2.592E-02    0   0.9998   age020_m72            0.0000     2.4731E+00    12.0172   2.7790    77.0406
 52      0.0000     0.0000E+00    0.0000E+00    3.160000E+06  0.05000  4.845E-02    0   0.9577   age045_m72            0.0000     2.3227E+00    11.7944   2.6017    79.0261
 53      0.0000     0.0000E+00    0.0000E+00    5.010000E+06  0.05000  3.072E-02    0   0.9147   age055_m72            0.0000     2.4785E+00    12.2320   2.1390    82.4815
 54      0.0000     0.0000E+00    0.0000E+00    6.610000E+06  0.05000  1.455E-02    0   0.8877   age061_m72            0.0000     3.5912E+00    14.8147   1.4329    86.9505
 55      0.0000     0.0000E+00    0.0000E+00    1.000000E+07  0.05000  9.074E-03    0   0.8524   age070_m72            0.0000     2.5017E+00    12.2681   2.3460    81.8564
 56      0.0000     0.0000E+00    0.0000E+00    2.512000E+07  0.05000  4.250E-03    0   0.7902   age090_m72            0.0000     2.4154E+00    12.1707   2.0244    83.9150
 57      0.0000     0.0000E+00    0.0000E+00    4.000000E+07  0.05000  3.087E-03    0   0.7618   age104_m72            0.0000     2.4411E+00    12.2789   1.7923    85.4723
 58      0.0000     0.0000E+00    0.0000E+00    1.015200E+08  0.05000  1.700E-03    0   0.7096   age116_m72            0.0000     2.2679E+00    11.9050   1.5165    88.1120
 59      0.0000     0.0000E+00    0.0000E+00    2.861200E+08  0.05000  7.384E-04    0   0.6633   age125_m72            0.0000     2.1182E+00    11.6203   0.9869    92.1807
 60      0.0000     0.0000E+00    0.0000E+00    5.088000E+08  0.05000  3.819E-04    0   0.6372   age130_m72            0.0000     1.9583E+00    11.3656   0.4881    93.7406
 61     44.4807     5.7335E+01    5.7060E+01    9.047900E+08  0.05000  1.676E-04    0   0.6110   age135_m72            0.0000     1.9161E+00    11.3373  -0.2086    91.9201
 62      0.0000     0.0000E+00    0.0000E+00    1.434000E+09  0.05000  8.837E-05    0   0.5874   age139_m72            0.0000     1.9645E+00    11.4724  -0.6590    91.2863
 63      0.0000     0.0000E+00    0.0000E+00    2.500000E+09  0.05000  4.233E-05    0   0.5598   age150_m72            0.0000     2.0839E+00    11.7279  -0.9558    89.5358
 64      0.0000     0.0000E+00    0.0000E+00    6.250000E+09  0.05000  1.435E-05    0   0.5249   age166_m72            0.0000     2.7377E+00    13.0692  -1.0000    75.3703
 65      0.0000     0.0000E+00    0.0000E+00    1.300000E+10  0.05000  6.513E-06    0   0.5036   age193_m72            0.0000     3.7243E+00    14.9033  -1.0000    67.7098
 66      0.0000     0.0000E+00    0.0000E+00    1.800000E+10  0.05000  4.527E-06    0   0.4945   age213_m72            0.0000     4.4293E+00    16.1140  -1.0000    63.0448


## Synthesis Results - Average & Chains ##

# j      x_j: min, <> & last-chain-values for 1 ...  7 chains
  1      0.0000      0.0472      0.0000      0.0000      0.0410      0.0000      0.0000      0.0000      0.0000
  2      0.0000      0.1859      0.0000      0.0000      0.0000      0.0000      0.0000      0.7058      0.0000
  3      0.0000      0.1010      0.0000      0.0000      0.0000      0.0000      0.0000      0.0000      0.0000
  4      0.0000      0.1801      0.0000      0.0000      0.0000      0.0000      0.0000      0.0000      0.0000
  5      0.0000      0.1339      0.0000      0.0000      0.0777      0.0000      0.0000      0.0000      0.0000
  6      0.0000      0.1885      0.0000      0.0000      0.0000      0.0000      0.0000      0.0000      0.0000
  7      0.0000      0.1107      0.0000      0.0000      0.0000      0.0000      0.0000      0.0000      0.0000
  8      0.0000      0.1154      0.0000      0.0000      0.0000      0.0000      0.1748      0.0000      0.0000
  9      0.0000      0.2404      0.0000      0.0000      1.2410      0.0000      0.0000      0.0000      0.0000
 10      0.0000      0.1342      0.0000      0.0000      0.0000      1.5759      0.0000      0.0000      0.6655
 11      0.0000      0.2561      1.4074      0.4868      0.0000      0.0000      0.0000      0.1141      0.0000
 12      0.0000      0.4192      0.0000      0.0000      0.7352      0.7207      1.9925      0.0000      0.0000
 13      0.0000      0.6127      3.1456      0.0000      0.0000      0.0000      0.0000      0.0000      0.0000
 14      0.0000      1.0137      0.0000      0.2544      0.8085      2.4840      0.0000      2.2262      0.0000
 15      0.0000      0.4079      0.0000      0.7102      0.0000      0.0000      0.3225      0.0000      0.8004
 16      0.0000      0.3051      0.0000      0.0000      0.0000      0.4727      0.0000      0.0000      0.2214
 17      0.0000      0.1780      0.0000      0.0000      0.2583      0.0000      0.6696      0.0000      0.0000
 18      0.0000      0.0315      0.0000      0.0000      0.0000      0.0000      0.0000      0.0000      0.0000
 19      0.0000      0.0444      0.0000      0.0000      0.0000      0.0000      0.0000      0.0000      0.0000
 20      0.0000      0.0844      0.0000      0.0000      0.0000      0.0000      0.0261      0.0000      0.0000
 21      0.0000      0.1446      0.0000      0.0000      0.0000      0.0000      0.0000      0.4648      0.0000
 22      0.0000      0.0508      0.0000      0.0000      0.0000      0.0000      0.0000      0.0000      0.0000
 23      0.0000      0.0494      0.0000      0.0000      0.0000      0.0000      0.0232      0.0000      0.0000
 24      0.0000      0.0932      0.0000      0.1011      0.0000      0.0000      0.0000      0.0000      0.1317
 25      0.0000      0.1107      0.0000      0.0000      0.0000      0.0000      0.0000      0.0000      0.0000
 26      0.0000      0.2091      0.0000      0.0000      0.0000      0.0000      0.0000      0.8399      0.0000
 27      0.0000      0.2876      0.0000      0.0000      0.0000      0.0000      1.9128      0.2348      0.0000
 28      0.0000      2.2109      0.0000      0.0000      0.0000      0.0000      4.3321      4.5489      0.3396
 29      0.0000      0.6924      0.0000      0.0000      1.1472      0.0516      0.0000      0.0000      0.0000
 30      0.0000      0.4599      0.0000      0.0000      0.6831      0.8828      0.1595      1.4849      0.0000
 31      0.0000      0.6992      4.5664      0.4716      1.0993      0.4479      0.2558      0.0000      0.6364
 32      0.0000      0.1990      0.0000      0.0000      1.2296      0.0000      0.0000      0.0000      0.0000
 33      0.0000      0.0797      0.0000      0.0000      0.2845      0.0000      0.0000      0.0000      0.0000
 34      0.0000      0.0612      0.0000      0.0000      0.0000      0.0000      0.0000      0.0000      0.0000
 35      0.0000      0.0731      0.0000      0.0000      0.0000      0.0000      0.0000      0.0316      0.0000
 36      0.0000      0.0639      0.1221      0.0000      0.0000      1.0650      0.0000      0.0000      0.0000
 37      0.0000      0.0541      0.0000      0.0000      0.0000      0.0000      0.0000      0.0000      0.0000
 38      0.0000      0.1101      0.0000      0.0000      0.0000      0.0000      0.0000      0.0000      0.0000
 39      0.0000      0.0887      0.0000      0.0000      0.0000      0.6262      0.0000      0.0000      0.0000
 40      0.0000      0.0641      0.0000      0.8660      0.0000      0.0000      0.0000      0.0759      0.0000
 41      0.0000      0.2871      0.0000      0.0000      0.0000      0.0000      0.0000      0.0000      1.1127
 42      0.0000      0.3225      0.0000      0.9566      0.0000      0.0000      0.0000      0.0000      0.0000
 43      0.0000      0.1265      0.0000      0.0000      0.0000      0.0000      0.0000      0.0000      0.0000
 44      0.0000      0.5760      0.0347      0.0000      2.0516      0.0000      0.5400      0.6031      1.3711
 45     47.9518     23.1916     28.4691     24.7745     30.7259     21.6864     22.3888     27.6530     24.8229
 46      0.0000      3.4292      6.3228      6.4693      3.2638      4.0880      2.3595      3.1112      3.4364
