###################################################################
## OUTPUT of StarlightChains_v04.for    [Cid@UFSC - 01/Apr/2007] ##
###################################################################

## Some input info
iPTF13dkx.txt                            [arq_obs]
Base.CB07.vall.4m                        [arq_base]
Masks.EmLines.NEW.gm                     [arq_masks]
StCv04.C11.config                        [arq_config]
   66                                    [N_base]
    0                                    [N_YAV_components = # of components with extra extinction!]
    0                                    [i_FitPowerLaw (1/0 = Yes/No)]
-9.99                                    [alpha_PowerLaw]
CCM                                      [red_law_option]
 1.458241                                [q_norm = A(l_norm)/A(V)]

## (Re)Sampling Parameters
 3741.00                                 [l_ini (A)]
 7218.00                                 [l_fin (A)]
    1.00                                 [dl    (A)]     (OBS: dl_cushion =    50.00 A)

## Normalization info
 4020.00                                 [l_norm (A) - for base]
 4010.00                                 [llow_norm (A) - window for f_obs]
 4060.00                                 [lupp_norm (A) - window for f_obs]
3.451645E-17                             [fobs_norm (in input units)]

## S/N
 3691.00                                 [llow_SN (A) - window for S/N]
 7268.00                                 [lupp_SN (A) - window for S/N]
   2.168                                 [S/N in S/N window]
   3.922                                 [S/N in norm. window]
  10.000                                 [S/N_err in S/N window]
  18.095                                 [S/N_err in norm. window]
  1.0000                                 [fscale_chi2]

## etc...
    -2007450                             [idum_orig]
  2284                                   [NOl_eff]
  1898                                   [Nl_eff]
   386    NSIGMA                         [Ntot_cliped & clip_method]
   411110                                [Nglobal_steps]
   7                                     [N_chains]
   7                                     [NEX0s_base = N_base in EX0s-fits]
 0   0   1       33   2.0   4.860E+01    [Clip-Bug, RC-Crash & Burn-In warning-flags, n_censored_weights, wei_nsig_threshold & wei_limit]
    10      9.110      8.615      0.496  [idt_all, wdt_TotTime, wdt_UsrTime & wdt_SysTime (sec)]

## Synthesis Results - Best model ##

 1.73948E+00                             [chi2/Nl_eff]
    10.74851                             [adev (%)]

    89.88398                             [sum-of-x (%)]
 1.60114E-17                             [Flux_tot (units of input spectrum!)]
 3.47105E-14                             [Mini_tot (???)]
 2.22930E-14                             [Mcor_tot (???)]

 -55.65                                  [v0_min  (km/s)]
 189.46                                  [vd_min  (km/s)]
-0.4925                                  [AV_min  (mag)]
 0.0000                                  [YAV_min (mag)]

# j     x_j(%)      Mini_j(%)     Mcor_j(%)     age_j(yr)     Z_j      (L/M)_j    YAV?  Mstars   component_j        a/Fe...       SSP_chi2r SSP_adev(%)   SSP_AV   SSP_x(%)
  1      0.0000     0.0000E+00    0.0000E+00    1.000000E+06  0.00400  1.094E-02    0   1.0000   age020_m42            0.0000     2.4351E+00    11.9236   1.6791    72.2962
  2      0.0000     0.0000E+00    0.0000E+00    3.160000E+06  0.00400  4.007E-02    0   0.9999   age045_m42            0.0000     2.0784E+00    11.4137   0.9282    78.1984
  3      0.0000     0.0000E+00    0.0000E+00    5.010000E+06  0.00400  2.539E-02    0   0.9488   age055_m42            0.0000     2.2317E+00    11.6436   1.2588    75.8917
  4      0.0000     0.0000E+00    0.0000E+00    6.610000E+06  0.00400  2.620E-02    0   0.9220   age061_m42            0.0000     2.0632E+00    11.3782   0.8514    78.5043
  5      0.0000     0.0000E+00    0.0000E+00    1.000000E+07  0.00400  1.322E-02    0   0.8862   age070_m42            0.0000     2.2168E+00    11.6440   0.5668    80.3535
  6      0.0000     0.0000E+00    0.0000E+00    1.445000E+07  0.00400  7.883E-03    0   0.8571   age078_m42            0.0000     2.2828E+00    11.7115   0.9030    77.9905
  7      0.0000     0.0000E+00    0.0000E+00    2.512000E+07  0.00400  5.251E-03    0   0.8174   age090_m42            0.0000     2.2304E+00    11.6814   0.4347    80.9026
  8      0.0000     0.0000E+00    0.0000E+00    4.000000E+07  0.00400  3.649E-03    0   0.7851   age104_m42            0.0000     2.1615E+00    11.5784   0.2027    81.7415
  9      0.0000     0.0000E+00    0.0000E+00    5.500000E+07  0.00400  3.098E-03    0   0.7629   age110_m42            0.0000     2.0205E+00    11.3226   0.3525    81.8771
 10      0.0000     0.0000E+00    0.0000E+00    1.015200E+08  0.00400  2.228E-03    0   0.7207   age116_m42            0.0000     1.9411E+00    11.1828   0.3697    82.1470
 11      0.0000     0.0000E+00    0.0000E+00    2.861200E+08  0.00400  1.093E-03    0   0.6648   age125_m42            0.0000     1.9725E+00    11.3222  -0.1965    84.6808
 12      0.0000     0.0000E+00    0.0000E+00    5.088000E+08  0.00400  6.597E-04    0   0.6365   age130_m42            0.0000     1.8759E+00    11.1156  -0.2099    85.4649
 13      0.0000     0.0000E+00    0.0000E+00    1.434000E+09  0.00400  2.132E-04    0   0.5798   age139_m42            0.0000     1.9718E+00    11.4023  -1.0000    81.1584
 14      0.0000     0.0000E+00    0.0000E+00    4.250000E+09  0.00400  5.895E-05    0   0.5377   age158_m42            0.0000     3.1086E+00    13.9281  -1.0000    64.7946
 15      0.0000     0.0000E+00    0.0000E+00    7.500000E+09  0.00400  3.510E-05    0   0.5212   age171_m42            0.0000     3.8645E+00    15.3738  -1.0000    59.2370
 16      0.0000     0.0000E+00    0.0000E+00    1.300000E+10  0.00400  2.005E-05    0   0.5034   age193_m42            0.0000     4.6473E+00    16.7541  -1.0000    54.6708
 17      0.0000     0.0000E+00    0.0000E+00    1.800000E+10  0.00400  1.525E-05    0   0.4967   age213_m42            0.0000     4.7803E+00    16.9960  -1.0000    53.8461
 18      0.0000     0.0000E+00    0.0000E+00    1.000000E+06  0.00800  1.238E-02    0   1.0000   age020_m52            0.0000     2.4337E+00    11.9234   1.6749    72.4508
 19      0.0000     0.0000E+00    0.0000E+00    3.160000E+06  0.00800  3.074E-02    0   0.9966   age045_m52            0.0000     2.3974E+00    11.8847   1.5936    73.2315
 20      0.0000     0.0000E+00    0.0000E+00    5.010000E+06  0.00800  2.668E-02    0   0.9443   age055_m52            0.0000     2.2716E+00    11.6955   1.3429    75.1545
 21      0.0000     0.0000E+00    0.0000E+00    6.610000E+06  0.00800  2.136E-02    0   0.9177   age061_m52            0.0000     2.2790E+00    11.7079   0.0771    80.8050
 22      0.0000     0.0000E+00    0.0000E+00    1.000000E+07  0.00800  1.215E-02    0   0.8827   age070_m52            0.0000     2.3222E+00    11.8283   0.7523    80.0211
 23      0.0000     0.0000E+00    0.0000E+00    1.445000E+07  0.00800  8.717E-03    0   0.8552   age078_m52            0.0000     2.2573E+00    11.6900   0.8650    79.1969
 24      0.0000     0.0000E+00    0.0000E+00    2.512000E+07  0.00800  5.592E-03    0   0.8162   age090_m52            0.0000     2.2200E+00    11.6938   0.4982    81.9297
 25      0.0000     0.0000E+00    0.0000E+00    4.000000E+07  0.00800  3.896E-03    0   0.7841   age104_m52            0.0000     2.1198E+00    11.5338   0.4086    82.6595
 26      0.0000     0.0000E+00    0.0000E+00    1.015200E+08  0.00800  2.148E-03    0   0.7226   age116_m52            0.0000     1.9880E+00    11.2746   0.3422    82.6551
 27      0.0000     0.0000E+00    0.0000E+00    2.861200E+08  0.00800  9.925E-04    0   0.6683   age125_m52            0.0000     1.8403E+00    11.0163  -0.1501    86.4609
 28      0.0000     0.0000E+00    0.0000E+00    9.047900E+08  0.00800  3.141E-04    0   0.6138   age135_m52            0.0000     1.7969E+00    10.9152  -0.9338    89.4222
 29      0.0000     0.0000E+00    0.0000E+00    1.434000E+09  0.00800  1.719E-04    0   0.5853   age139_m52            0.0000     2.7600E+00    13.2260  -1.0000    71.1680
 30      0.0000     0.0000E+00    0.0000E+00    2.500000E+09  0.00800  7.872E-05    0   0.5600   age150_m52            0.0000     3.7443E+00    15.1644  -1.0000    61.4802
 31      0.0000     0.0000E+00    0.0000E+00    4.250000E+09  0.00800  4.336E-05    0   0.5426   age158_m52            0.0000     3.8188E+00    15.2834  -1.0000    60.4669
 32      0.0000     0.0000E+00    0.0000E+00    6.250000E+09  0.00800  3.159E-05    0   0.5319   age166_m52            0.0000     4.7759E+00    16.9598  -1.0000    55.1618
 33      0.0000     0.0000E+00    0.0000E+00    1.300000E+10  0.00800  1.361E-05    0   0.5073   age193_m52            0.0000     7.4907E+00    21.2849  -1.0000    43.8446
 34      0.0000     0.0000E+00    0.0000E+00    1.800000E+10  0.00800  9.886E-06    0   0.4990   age213_m52            0.0000     8.1259E+00    22.0944  -1.0000    41.4255
 35      0.0000     0.0000E+00    0.0000E+00    1.000000E+06  0.02000  1.544E-02    0   1.0000   age020_m62            0.0000     2.4440E+00    11.9482   1.6704    72.6315
 36      0.0000     0.0000E+00    0.0000E+00    3.160000E+06  0.02000  3.762E-02    0   0.9858   age045_m62            0.0000     2.4323E+00    11.9570   1.6069    73.3487
 37      0.0000     0.0000E+00    0.0000E+00    5.010000E+06  0.02000  3.296E-02    0   0.9342   age055_m62            0.0000     2.1299E+00    11.4857   1.2091    77.1733
 38      0.0000     0.0000E+00    0.0000E+00    8.710000E+06  0.02000  1.154E-02    0   0.8861   age067_m62            0.0000     3.0905E+00    13.3162   0.2105    82.2005
 39      0.0000     0.0000E+00    0.0000E+00    1.445000E+07  0.02000  7.663E-03    0   0.8472   age078_m62            0.0000     2.5080E+00    12.2173   0.4037    81.7956
 40      0.0000     0.0000E+00    0.0000E+00    2.512000E+07  0.02000  4.532E-03    0   0.8099   age090_m62            0.0000     2.5164E+00    12.2745   0.3939    81.7026
 41      0.0000     0.0000E+00    0.0000E+00    5.500000E+07  0.02000  2.733E-03    0   0.7595   age110_m62            0.0000     2.1535E+00    11.5822   0.3923    82.0028
 42      0.0000     0.0000E+00    0.0000E+00    1.609000E+08  0.02000  1.369E-03    0   0.6985   age120_m62            0.0000     1.9067E+00    11.1336   0.2137    84.9243
 43      0.0000     0.0000E+00    0.0000E+00    2.861200E+08  0.02000  9.013E-04    0   0.6714   age125_m62            0.0000     1.8077E+00    10.9427  -0.0491    87.8274
 44     64.3302     6.5661E+01    6.5931E+01    5.088000E+08  0.02000  5.028E-04    0   0.6449   age130_m62            0.0000     1.7413E+00    10.7558  -0.4210    89.8848
 45      0.0000     0.0000E+00    0.0000E+00    9.047900E+08  0.02000  2.428E-04    0   0.6179   age135_m62            0.0000     1.7983E+00    10.9156  -0.9826    88.3297
 46      0.0000     0.0000E+00    0.0000E+00    1.434000E+09  0.02000  1.263E-04    0   0.5908   age139_m62            0.0000     2.4633E+00    12.5578  -1.0000    73.3360
 47      0.0000     0.0000E+00    0.0000E+00    2.500000E+09  0.02000  5.985E-05    0   0.5673   age150_m62            0.0000     3.7921E+00    15.2288  -1.0000    61.6766
 48      0.0000     0.0000E+00    0.0000E+00    4.250000E+09  0.02000  3.271E-05    0   0.5468   age158_m62            0.0000     5.3004E+00    17.7944  -1.0000    53.1875
 49      0.0000     0.0000E+00    0.0000E+00    1.000000E+10  0.02000  1.360E-05    0   0.5167   age181_m62            0.0000     7.3209E+00    20.8236  -1.0000    44.9008
 50      0.0000     0.0000E+00    0.0000E+00    1.800000E+10  0.02000  7.124E-06    0   0.5013   age213_m62            0.0000     8.6107E+00    22.5450  -1.0000    40.2467
 51      0.0000     0.0000E+00    0.0000E+00    1.000000E+06  0.05000  2.592E-02    0   0.9998   age020_m72            0.0000     2.4830E+00    12.0112   1.6636    72.5950
 52      0.0000     0.0000E+00    0.0000E+00    3.160000E+06  0.05000  4.845E-02    0   0.9577   age045_m72            0.0000     2.3052E+00    11.7720   1.4818    74.6070
 53      0.0000     0.0000E+00    0.0000E+00    5.010000E+06  0.05000  3.072E-02    0   0.9147   age055_m72            0.0000     2.4526E+00    12.0501   1.0089    78.0875
 54      0.0000     0.0000E+00    0.0000E+00    6.610000E+06  0.05000  1.455E-02    0   0.8877   age061_m72            0.0000     3.6578E+00    14.4468   0.2882    82.5854
 55      0.0000     0.0000E+00    0.0000E+00    1.000000E+07  0.05000  9.074E-03    0   0.8524   age070_m72            0.0000     2.4964E+00    12.2208   1.2113    77.5907
 56      0.0000     0.0000E+00    0.0000E+00    2.512000E+07  0.05000  4.250E-03    0   0.7902   age090_m72            0.0000     2.3232E+00    11.9236   0.8824    79.8447
 57      0.0000     0.0000E+00    0.0000E+00    4.000000E+07  0.05000  3.087E-03    0   0.7618   age104_m72            0.0000     2.3040E+00    11.9500   0.6459    81.5289
 58      0.0000     0.0000E+00    0.0000E+00    1.015200E+08  0.05000  1.700E-03    0   0.7096   age116_m72            0.0000     1.9792E+00    11.3158   0.3579    84.6006
 59      0.0000     0.0000E+00    0.0000E+00    2.861200E+08  0.05000  7.384E-04    0   0.6633   age125_m72            0.0000     1.7611E+00    10.8213  -0.1804    88.9793
 60     25.5537     3.4339E+01    3.4069E+01    5.088000E+08  0.05000  3.819E-04    0   0.6372   age130_m72            0.0000     1.7504E+00    10.7755  -0.6587    89.7375
 61      0.0000     0.0000E+00    0.0000E+00    9.047900E+08  0.05000  1.676E-04    0   0.6110   age135_m72            0.0000     2.2433E+00    12.0351  -1.0000    76.4538
 62      0.0000     0.0000E+00    0.0000E+00    1.434000E+09  0.05000  8.837E-05    0   0.5874   age139_m72            0.0000     3.8068E+00    15.2514  -1.0000    62.5811
 63      0.0000     0.0000E+00    0.0000E+00    2.500000E+09  0.05000  4.233E-05    0   0.5598   age150_m72            0.0000     5.3058E+00    17.7607  -1.0000    53.6481
 64      0.0000     0.0000E+00    0.0000E+00    6.250000E+09  0.05000  1.435E-05    0   0.5249   age166_m72            0.0000     7.9300E+00    21.6779  -1.0000    42.6711
 65      0.0000     0.0000E+00    0.0000E+00    1.300000E+10  0.05000  6.513E-06    0   0.5036   age193_m72            0.0000     9.7055E+00    23.9735  -1.0000    37.5571
 66      0.0000     0.0000E+00    0.0000E+00    1.800000E+10  0.05000  4.527E-06    0   0.4945   age213_m72            0.0000     1.0734E+01    25.2322  -1.0000    34.6132


## Synthesis Results - Average & Chains ##

# j      x_j: min, <> & last-chain-values for 1 ...  7 chains
  1      0.0000      0.0715      0.0000      0.0000      0.0000      0.0000      0.0000      0.0000      0.0000
  2      0.0000      0.3574      0.0000      0.0000      0.0000      0.0000      0.0000      0.0000      1.4318
  3      0.0000      0.1521      0.0000      0.0000      0.0000      0.0000      0.0000      0.0000      0.0000
  4      0.0000      0.2619      0.0000      0.5546      0.0000      0.0000      0.0000      0.7319      0.0000
  5      0.0000      0.1522      0.0000      0.0000      0.0000      0.0000      0.0000      0.0000      0.0000
  6      0.0000      0.1615      0.1277      0.2022      0.0000      0.0000      0.0000      0.0000      0.0000
  7      0.0000      0.2088      0.0000      0.0617      0.0000      0.0000      0.0000      0.0000      0.0000
  8      0.0000      0.2920      0.0000      0.0000      0.2568      0.5326      0.0000      0.1369      0.0000
  9      0.0000      0.4360      2.0253      0.1552      0.0000      0.0000      0.7864      0.0000      0.0000
 10      0.0000      0.7501      0.0000      0.5825      0.0000      0.0873      0.0000      0.0000      0.9544
 11      0.0000      0.4145      0.0000      0.0000      0.0000      0.0000      0.0000      0.0000      0.0000
 12      0.0000      0.8932      0.4638      0.0000      1.7173      3.2159      0.1056      0.0000      0.1274
 13      0.0000      0.0937      0.0000      0.0000      0.0000      0.0000      0.0000      0.0000      0.0000
 14      0.0000      0.0299      0.0000      0.0000      0.1607      0.0000      0.0000      0.0000      0.0000
 15      0.0000      0.0422      0.0000      0.1066      0.0000      0.0000      0.0000      0.0000      0.0000
 16      0.0000      0.0072      0.0000      0.0000      0.0000      0.0000      0.0000      0.0000      0.0448
 17      0.0000      0.0132      0.0000      0.0000      0.0000      0.0000      0.0000      0.0000      0.0000
 18      0.0000      0.0560      0.0000      0.0000      0.1900      0.0000      0.0000      0.0401      0.0000
 19      0.0000      0.0303      0.0000      0.0000      0.0000      0.0000      0.0000      0.0000      0.0000
 20      0.0000      0.0652      0.0000      0.0000      0.0000      0.0000      0.0000      0.0000      0.0000
 21      0.0000      0.1565      0.0000      0.0000      0.0000      0.0000      0.0000      0.0000      0.8001
 22      0.0000      0.1362      0.0000      0.0423      0.0000      0.0000      0.4331      0.0000      0.0000
 23      0.0000      0.0441      0.0000      0.0000      0.0000      0.1995      0.0000      0.0000      0.0000
 24      0.0000      0.0787      0.0000      0.0000      0.0000      0.0000      0.0000      0.0000      0.0000
 25      0.0000      0.1668      0.0000      0.8611      0.0000      0.1065      0.1453      0.0000      0.0000
 26      0.0000      0.3745      0.0000      0.0568      0.0000      0.0000      0.0000      0.0000      0.1531
 27      0.0000      1.5138      1.1887      0.0000      3.6012      1.7598      0.0000      0.0000      0.0744
 28      0.0000      0.2047      0.0000      0.0000      0.0000      0.0000      0.0000      0.0000      0.0000
 29      0.0000      0.0159      0.0000      0.0000      0.0000      0.0000      0.0000      0.0000      0.0000
 30      0.0000      0.0274      0.0000      0.0763      0.0000      0.0776      0.0000      0.0000      0.0000
 31      0.0000      0.0291      0.0000      0.0000      0.0000      0.0000      0.0000      0.0000      0.0000
 32      0.0000      0.0081      0.0000      0.0000      0.0000      0.0193      0.0000      0.0000      0.0000
 33      0.0000      0.0039      0.0000      0.0000      0.0000      0.0000      0.0000      0.0000      0.0000
 34      0.0000      0.0039      0.0000      0.0000      0.0000      0.0000      0.0000      0.0000      0.0000
 35      0.0000      0.1077      0.0000      0.0000      0.0000      0.0000      0.0000      0.4814      0.0000
 36      0.0000      0.1361      0.0000      0.0000      0.0000      0.1179      0.0000      0.2712      0.0000
 37      0.0000      0.1941      0.0000      0.0000      0.0000      0.0000      0.0000      0.0000      0.4711
 38      0.0000      0.0379      0.0000      0.0000      0.0000      0.0000      0.0000      0.0000      0.0000
 39      0.0000      0.0922      0.0000      0.0000      0.0000      0.0000      0.0000      0.0000      0.0178
 40      0.0000      0.0989      0.0000      0.3340      0.0000      0.0000      0.4196      0.0000      0.0000
 41      0.0000      0.1356      0.0000      0.0000      0.0000      0.0000      0.0000      0.2156      0.0000
 42      0.0000      0.6465      0.0000      1.3741      0.0000      0.0000      0.8046      0.0000      0.0000
 43      0.0000      1.5086      4.6437      0.0000      4.1004      3.9698      0.9264      1.1205      4.4462
 44     64.3302     52.6307     55.5719     47.8572     55.7074     54.6868     58.0670     58.7661     51.7333
 45      0.0000      0.3656      0.0000      0.0000      0.0000      0.0000      0.1190      0.0000      0.5613
 46      0.0000      0.0756      0.0000      0.0593      0.0000      0.0000      0.0000      0.0000      0.0000
