###################################################################
## OUTPUT of StarlightChains_v04.for    [Cid@UFSC - 01/Apr/2007] ##
###################################################################

## Some input info
LSQ12hzj.txt                             [arq_obs]
Base.CB07.vall.4m                        [arq_base]
Masks.EmLines.NEW.gm                     [arq_masks]
StCv04.C11.config                        [arq_config]
   66                                    [N_base]
    0                                    [N_YAV_components = # of components with extra extinction!]
    0                                    [i_FitPowerLaw (1/0 = Yes/No)]
-9.99                                    [alpha_PowerLaw]
CCM                                      [red_law_option]
 1.458241                                [q_norm = A(l_norm)/A(V)]

## (Re)Sampling Parameters
 3741.00                                 [l_ini (A)]
 7218.00                                 [l_fin (A)]
    1.00                                 [dl    (A)]     (OBS: dl_cushion =    50.00 A)

## Normalization info
 4020.00                                 [l_norm (A) - for base]
 4010.00                                 [llow_norm (A) - window for f_obs]
 4060.00                                 [lupp_norm (A) - window for f_obs]
6.742873E-17                             [fobs_norm (in input units)]

## S/N
 3691.00                                 [llow_SN (A) - window for S/N]
 7268.00                                 [lupp_SN (A) - window for S/N]
   6.390                                 [S/N in S/N window]
   5.544                                 [S/N in norm. window]
   0.000                                 [S/N_err in S/N window]
   0.000                                 [S/N_err in norm. window]
  1.0000                                 [fscale_chi2]

## etc...
    -2007454                             [idum_orig]
  2065                                   [NOl_eff]
  2025                                   [Nl_eff]
    40    NSIGMA                         [Ntot_cliped & clip_method]
  1984780                                [Nglobal_steps]
   7                                     [N_chains]
  34                                     [NEX0s_base = N_base in EX0s-fits]
 0   0   1        2   2.0   1.314E+02    [Clip-Bug, RC-Crash & Burn-In warning-flags, n_censored_weights, wei_nsig_threshold & wei_limit]
    19     18.041     17.516      0.525  [idt_all, wdt_TotTime, wdt_UsrTime & wdt_SysTime (sec)]

## Synthesis Results - Best model ##

 9.80464E-01                             [chi2/Nl_eff]
     9.76374                             [adev (%)]

   128.48264                             [sum-of-x (%)]
 1.44709E-16                             [Flux_tot (units of input spectrum!)]
 1.56184E-12                             [Mini_tot (???)]
 8.43810E-13                             [Mcor_tot (???)]

  30.81                                  [v0_min  (km/s)]
 123.03                                  [vd_min  (km/s)]
 0.3820                                  [AV_min  (mag)]
 0.0000                                  [YAV_min (mag)]

# j     x_j(%)      Mini_j(%)     Mcor_j(%)     age_j(yr)     Z_j      (L/M)_j    YAV?  Mstars   component_j        a/Fe...       SSP_chi2r SSP_adev(%)   SSP_AV   SSP_x(%)
  1      0.0000     0.0000E+00    0.0000E+00    1.000000E+06  0.00400  1.094E-02    0   1.0000   age020_m42            0.0000     1.7834E+00    11.1072   3.1734   101.2332
  2      0.0000     0.0000E+00    0.0000E+00    3.160000E+06  0.00400  4.007E-02    0   0.9999   age045_m42            0.0000     1.5942E+00    10.2524   2.4456   108.5480
  3      1.8690     5.3084E-03    9.3224E-03    5.010000E+06  0.00400  2.539E-02    0   0.9488   age055_m42            0.0000     1.6368E+00    10.6039   2.7539   106.4356
  4      0.0000     0.0000E+00    0.0000E+00    6.610000E+06  0.00400  2.620E-02    0   0.9220   age061_m42            0.0000     1.5172E+00    10.2403   2.3541   109.8682
  5      0.0000     0.0000E+00    0.0000E+00    1.000000E+07  0.00400  1.322E-02    0   0.8862   age070_m42            0.0000     1.2436E+00    10.8665   1.9454   119.6886
  6      0.0000     0.0000E+00    0.0000E+00    1.445000E+07  0.00400  7.883E-03    0   0.8571   age078_m42            0.0000     1.3395E+00    10.9336   2.2948   115.3237
  7      2.5124     3.4504E-02    5.2203E-02    2.512000E+07  0.00400  5.251E-03    0   0.8174   age090_m42            0.0000     1.2045E+00    11.0392   1.7869   122.0681
  8      1.5072     2.9786E-02    4.3285E-02    4.000000E+07  0.00400  3.649E-03    0   0.7851   age104_m42            0.0000     1.1787E+00    10.7239   1.5699   122.4440
  9      3.1131     7.2465E-02    1.0233E-01    5.500000E+07  0.00400  3.098E-03    0   0.7629   age110_m42            0.0000     1.2501E+00    10.2291   1.7855   118.7672
 10      1.0212     3.3052E-02    4.4090E-02    1.015200E+08  0.00400  2.228E-03    0   0.7207   age116_m42            0.0000     1.2806E+00    10.0248   1.8389   117.0716
 11      0.0006     3.6592E-05    4.5026E-05    2.861200E+08  0.00400  1.093E-03    0   0.6648   age125_m42            0.0000     1.1928E+00    10.0444   1.2410   122.9918
 12      0.0000     0.0000E+00    0.0000E+00    5.088000E+08  0.00400  6.597E-04    0   0.6365   age130_m42            0.0000     1.1886E+00     9.5973   1.2808   120.8230
 13      0.0000     0.0000E+00    0.0000E+00    1.434000E+09  0.00400  2.132E-04    0   0.5798   age139_m42            0.0000     1.0185E+00     8.7174   0.2958   123.6812
 14      6.2361     7.6286E+00    7.5923E+00    4.250000E+09  0.00400  5.895E-05    0   0.5377   age158_m42            0.0000     1.0535E+00     8.1904  -0.0640   114.1381
 15      2.7563     5.6629E+00    5.4630E+00    7.500000E+09  0.00400  3.510E-05    0   0.5212   age171_m42            0.0000     1.0707E+00     8.1317  -0.2111   111.2964
 16      0.0000     0.0000E+00    0.0000E+00    1.300000E+10  0.00400  2.005E-05    0   0.5034   age193_m42            0.0000     1.1076E+00     8.2154  -0.3366   108.7549
 17      0.0000     0.0000E+00    0.0000E+00    1.800000E+10  0.00400  1.525E-05    0   0.4967   age213_m42            0.0000     1.0951E+00     8.2213  -0.3731   108.9241
 18      0.0000     0.0000E+00    0.0000E+00    1.000000E+06  0.00800  1.238E-02    0   1.0000   age020_m52            0.0000     1.7774E+00    11.1182   3.1687   101.4751
 19      0.0000     0.0000E+00    0.0000E+00    3.160000E+06  0.00800  3.074E-02    0   0.9966   age045_m52            0.0000     1.7562E+00    11.0544   3.0894   102.4831
 20      1.3322     3.6009E-03    6.2939E-03    5.010000E+06  0.00800  2.668E-02    0   0.9443   age055_m52            0.0000     1.6213E+00    10.7086   2.8270   105.9035
 21      0.0000     0.0000E+00    0.0000E+00    6.610000E+06  0.00800  2.136E-02    0   0.9177   age061_m52            0.0000     1.1673E+00    10.4777   1.4485   120.6143
 22      0.0000     0.0000E+00    0.0000E+00    1.000000E+07  0.00800  1.215E-02    0   0.8827   age070_m52            0.0000     1.2063E+00    11.2595   2.0961   121.2804
 23      0.0000     0.0000E+00    0.0000E+00    1.445000E+07  0.00800  8.717E-03    0   0.8552   age078_m52            0.0000     1.2775E+00    10.9010   2.2469   117.6685
 24      2.3822     3.0720E-02    4.6410E-02    2.512000E+07  0.00800  5.592E-03    0   0.8162   age090_m52            0.0000     1.1416E+00    11.0272   1.8417   124.1727
 25      1.9042     3.5247E-02    5.1154E-02    4.000000E+07  0.00800  3.896E-03    0   0.7841   age104_m52            0.0000     1.1477E+00    10.5808   1.7873   123.2253
 26      4.7486     1.5942E-01    2.1322E-01    1.015200E+08  0.00800  2.148E-03    0   0.7226   age116_m52            0.0000     1.2078E+00    10.0653   1.7782   119.7783
 27      0.0000     0.0000E+00    0.0000E+00    2.861200E+08  0.00800  9.925E-04    0   0.6683   age125_m52            0.0000     1.1089E+00     9.5213   1.3384   122.3031
 28      0.0000     0.0000E+00    0.0000E+00    9.047900E+08  0.00800  3.141E-04    0   0.6138   age135_m52            0.0000     1.0352E+00     8.2978   0.6055   123.3268
 29     10.1212     4.2459E+00    4.5998E+00    1.434000E+09  0.00800  1.719E-04    0   0.5853   age139_m52            0.0000     1.0455E+00     8.1617   0.0186   121.2945
 30      0.0000     0.0000E+00    0.0000E+00    2.500000E+09  0.00800  7.872E-05    0   0.5600   age150_m52            0.0000     1.0746E+00     8.0985  -0.1735   113.5087
 31      0.0000     0.0000E+00    0.0000E+00    4.250000E+09  0.00800  4.336E-05    0   0.5426   age158_m52            0.0000     1.0699E+00     8.1037  -0.1809   112.0052
 32      0.0000     0.0000E+00    0.0000E+00    6.250000E+09  0.00800  3.159E-05    0   0.5319   age166_m52            0.0000     1.0996E+00     8.2351  -0.3413   109.8085
 33      6.6187     3.5070E+01    3.2930E+01    1.300000E+10  0.00800  1.361E-05    0   0.5073   age193_m52            0.0000     1.1698E+00     8.5780  -0.7632   106.6810
 34      0.0000     0.0000E+00    0.0000E+00    1.800000E+10  0.00800  9.886E-06    0   0.4990   age213_m52            0.0000     1.2246E+00     8.9814  -0.8235   103.8312
 35      1.7278     8.0699E-03    1.4937E-02    1.000000E+06  0.02000  1.544E-02    0   1.0000   age020_m62            0.0000     1.7778E+00    11.1544   3.1657   101.6552
 36      0.0000     0.0000E+00    0.0000E+00    3.160000E+06  0.02000  3.762E-02    0   0.9858   age045_m62            0.0000     1.7695E+00    11.1249   3.1054   102.5403
 37      2.3216     5.0794E-03    8.7831E-03    5.010000E+06  0.02000  3.296E-02    0   0.9342   age055_m62            0.0000     1.5988E+00    10.4419   2.7251   107.1729
 38     19.0224     1.1887E-01    1.9496E-01    8.710000E+06  0.02000  1.154E-02    0   0.8861   age067_m62            0.0000     1.1131E+00    15.6640   1.2949   142.0411
 39      4.6009     4.3298E-02    6.7895E-02    1.445000E+07  0.02000  7.663E-03    0   0.8472   age078_m62            0.0000     1.1015E+00    12.0343   1.6735   128.7511
 40      6.3623     1.0124E-01    1.5176E-01    2.512000E+07  0.02000  4.532E-03    0   0.8099   age090_m62            0.0000     1.1128E+00    12.2970   1.6503   129.5744
 41      3.2439     8.5595E-02    1.2033E-01    5.500000E+07  0.02000  2.733E-03    0   0.7595   age110_m62            0.0000     1.1169E+00    10.6819   1.7621   122.7646
 42      0.0000     0.0000E+00    0.0000E+00    1.609000E+08  0.02000  1.369E-03    0   0.6985   age120_m62            0.0000     1.1451E+00    10.0302   1.6672   122.1179
 43      0.0000     0.0000E+00    0.0000E+00    2.861200E+08  0.02000  9.013E-04    0   0.6714   age125_m62            0.0000     1.1080E+00     9.6926   1.4389   124.1858
 44      0.0000     0.0000E+00    0.0000E+00    5.088000E+08  0.02000  5.028E-04    0   0.6449   age130_m62            0.0000     1.1152E+00     8.8598   1.1470   122.2140
 45      0.0000     0.0000E+00    0.0000E+00    9.047900E+08  0.02000  2.428E-04    0   0.6179   age135_m62            0.0000     1.0558E+00     8.1587   0.5902   119.8002
 46     13.2946     7.5908E+00    8.3008E+00    1.434000E+09  0.02000  1.263E-04    0   0.5908   age139_m62            0.0000     1.0491E+00     8.0423   0.1563   117.3827
 47      3.4008     4.0976E+00    4.3026E+00    2.500000E+09  0.02000  5.985E-05    0   0.5673   age150_m62            0.0000     1.1106E+00     8.2559  -0.1453   112.2208
 48      5.3325     1.1756E+01    1.1898E+01    4.250000E+09  0.02000  3.271E-05    0   0.5468   age158_m62            0.0000     1.1912E+00     8.6763  -0.3896   108.0491
 49      0.0000     0.0000E+00    0.0000E+00    1.000000E+10  0.02000  1.360E-05    0   0.5167   age181_m62            0.0000     1.3072E+00     9.4225  -0.6711   104.3663
 50      0.0000     0.0000E+00    0.0000E+00    1.800000E+10  0.02000  7.124E-06    0   0.5013   age213_m62            0.0000     1.4056E+00    10.2458  -0.8228   100.8195
 51      0.0000     0.0000E+00    0.0000E+00    1.000000E+06  0.05000  2.592E-02    0   0.9998   age020_m72            0.0000     1.7784E+00    11.2881   3.1486   102.0886
 52      0.0000     0.0000E+00    0.0000E+00    3.160000E+06  0.05000  4.845E-02    0   0.9577   age045_m72            0.0000     1.7316E+00    10.8536   2.9936   103.6912
 53      2.5258     5.9292E-03    1.0038E-02    5.010000E+06  0.05000  3.072E-02    0   0.9147   age055_m72            0.0000     1.3452E+00    11.2171   2.3843   116.6473
 54      0.9856     4.8851E-03    8.0266E-03    6.610000E+06  0.05000  1.455E-02    0   0.8877   age061_m72            0.0000     2.1021E+00    18.2055   1.3361   146.4779
 55      0.0000     0.0000E+00    0.0000E+00    1.000000E+07  0.05000  9.074E-03    0   0.8524   age070_m72            0.0000     1.5683E+00    11.2735   2.6342   113.5623
 56      2.9416     4.9913E-02    7.3004E-02    2.512000E+07  0.05000  4.250E-03    0   0.7902   age090_m72            0.0000     1.3733E+00    11.0903   2.2720   118.7480
 57      1.8795     4.3905E-02    6.1908E-02    4.000000E+07  0.05000  3.087E-03    0   0.7618   age104_m72            0.0000     1.3574E+00    11.3188   2.0075   122.9628
 58      0.0000     0.0000E+00    0.0000E+00    1.015200E+08  0.05000  1.700E-03    0   0.7096   age116_m72            0.0000     1.1475E+00    10.3660   1.7782   123.7224
 59      0.0000     0.0000E+00    0.0000E+00    2.861200E+08  0.05000  7.384E-04    0   0.6633   age125_m72            0.0000     1.0778E+00     9.2391   1.3483   123.3371
 60      0.0053     1.0076E-03    1.1883E-03    5.088000E+08  0.05000  3.819E-04    0   0.6372   age130_m72            0.0000     1.0686E+00     8.4938   0.9135   121.6148
 61      0.0000     0.0000E+00    0.0000E+00    9.047900E+08  0.05000  1.676E-04    0   0.6110   age135_m72            0.0000     1.1487E+00     8.3820   0.2972   114.8987
 62     10.5029     8.5708E+00    9.3185E+00    1.434000E+09  0.05000  8.837E-05    0   0.5874   age139_m72            0.0000     1.1309E+00     8.3676  -0.1466   113.8983
 63      2.0053     3.4163E+00    3.5398E+00    2.500000E+09  0.05000  4.233E-05    0   0.5598   age150_m72            0.0000     1.2384E+00     8.8672  -0.3715   108.0248
 64      2.2067     1.1089E+01    1.0774E+01    6.250000E+09  0.05000  1.435E-05    0   0.5249   age166_m72            0.0000     1.3863E+00     9.7008  -0.7551   103.2618
 65      0.0000     0.0000E+00    0.0000E+00    1.300000E+10  0.05000  6.513E-06    0   0.5036   age193_m72            0.0000     1.5511E+00    10.8327  -0.9636   100.9201
 66      0.0000     0.0000E+00    0.0000E+00    1.800000E+10  0.05000  4.527E-06    0   0.4945   age213_m72            0.0000     1.7089E+00    11.9244  -1.0000    95.1180


## Synthesis Results - Average & Chains ##

# j      x_j: min, <> & last-chain-values for 1 ...  7 chains
  1      0.0000      0.3715      0.3533      0.0000      0.0000      0.3420      0.5612      0.0000      0.0000
  2      0.0000      0.2917      0.0000      0.1936      1.5809      0.0000      0.6457      0.2044      0.7204
  3      1.8690      0.3885      1.1307      0.0000      0.0000      0.8930      0.0000      0.0000      0.9023
  4      0.0000      0.2872      0.0000      0.0000      0.0817      0.2018      1.0720      0.0000      0.0000
  5      0.0000      0.3770      0.1595      0.3610      0.0000      0.0627      0.0000      0.4634      0.0000
  6      0.0000      0.7155      0.0000      0.0000      0.4488      0.7915      1.4582      0.0000      0.0000
  7      2.5124      2.2507      1.8697      0.0000      1.3751      2.3395      2.5396      5.0498      2.3247
  8      1.5072      0.7146      0.6692      0.0000      0.7580      0.0000      1.5589      3.2166      0.5006
  9      3.1131      0.8708      1.7730      0.0000      0.5657      0.4289      0.6413      2.4246      0.5913
 10      1.0212      0.5198      0.6758      0.0000      0.0000      2.9015      0.6684      0.3219      1.0455
 11      0.0006      0.7274      0.5879      0.0000      0.2059      0.8628      0.0000      1.4249      0.0000
 12      0.0000      1.1661      0.0000      1.4045      0.6643      1.7783      0.0000      0.0000      0.0000
 13      0.0000      8.0879      8.7341      6.8516      8.4675      8.6154      6.4621      5.2739      8.8234
 14      6.2361      6.6727      7.7972      6.2104      6.0522      6.6052      6.6959      5.1487      7.3045
 15      2.7563      4.0942      4.1510      3.4245      3.8332      5.6870      2.8407      7.4031      3.3555
 16      0.0000      0.2335      0.0000      0.0000      1.3294      0.0000      0.0229      0.0000      0.0000
 17      0.0000      0.3664      0.0000      0.7221      0.0000      0.1845      0.0000      0.9550      0.0000
 18      0.0000      0.4336      0.0000      0.4431      1.0677      0.9914      0.1138      0.5683      0.5213
 19      0.0000      0.6640      0.0000      1.2704      0.0000      1.2316      0.2091      0.7577      1.2999
 20      1.3322      0.4268      0.6392      2.6352      0.1120      0.0000      0.0000      1.7158      0.0409
 21      0.0000      0.3638      0.0000      1.7142      0.0000      0.0000      0.0000      0.0000      0.0000
 22      0.0000      0.5668      0.0000      1.2916      1.8865      0.8539      1.9789      0.0000      0.0000
 23      0.0000      0.1993      0.0000      0.5867      0.4058      0.0000      0.7051      0.0000      0.1177
 24      2.3822      1.4993      0.5797      1.5768      0.0000      1.8672      0.3186      1.5774      1.6205
 25      1.9042      0.4915      0.4938      0.0000      0.7599      1.2492      0.0000      0.0226      0.6839
 26      4.7486      4.6492      5.0902      4.9379      5.8212      5.4443      5.4551      4.6388      5.2180
 27      0.0000      0.6942      0.0000      0.1422      1.0050      0.4599      0.8743      1.2917      0.5822
 28      0.0000      1.6487      0.0000      0.0000      0.0000      0.0000      0.8737      0.0000      3.5305
 29     10.1212     13.8103     14.0901     14.3983     13.6800     13.5930     14.1742     15.5543     17.1895
 30      0.0000      2.3583      0.3701      3.1512      2.5617      3.7579      4.3703      0.1786      1.7630
 31      0.0000      1.8596      2.5433      1.2666      0.2286      0.7757      1.7870      2.6440      0.0000
 32      0.0000      0.5280      0.2895      0.8920      0.0000      0.0000      0.2235      0.5261      0.0000
 33      6.6187      2.3128      2.5756      3.1428      0.8436      2.1429      3.1157      2.2528      2.5793
 34      0.0000      0.1064      0.2876      0.0000      0.0000      0.0000      0.0000      0.0000      0.0000
 35      1.7278      0.1992      0.7335      0.0000      0.8313      0.0000      0.0365      0.0000      0.0000
 36      0.0000      0.4631      0.4434      0.4720      1.6030      0.0000      1.1374      1.0012      0.3974
 37      2.3216      0.2102      1.3895      0.0000      1.5796      0.6593      0.3170      0.0000      0.3433
 38     19.0224      5.6762      9.3151      3.3976      6.5129      6.9087      6.5426      8.3922      6.5900
 39      4.6009      2.0971      3.1127      5.5177      3.8798      2.0980      3.1453      2.2079      2.2200
 40      6.3623      2.5937      3.5660      5.3151      3.5528      3.9391      0.8665      2.9201      2.3763
 41      3.2439      3.7857      3.7189      5.1727      3.7659      4.0598      4.3467      2.2997      4.5580
 42      0.0000      1.0716      0.0000      2.3777      1.3491      0.0000      0.0000      1.3572      2.6506
 43      0.0000      0.3627      0.0000      0.0000      0.0000      0.0000      2.0123      1.4054      0.0000
 44      0.0000      0.7311      1.9081      0.2221      0.0000      0.0000      0.0000      0.0000      0.7472
 45      0.0000      1.7571      0.0000      0.0000      0.3056      1.8219      0.0000      0.0000      2.2988
 46     13.2946     15.9491     19.8095     15.1202     17.5388     15.7356     15.8550     16.1813     11.4494
