###################################################################
## OUTPUT of StarlightChains_v04.for    [Cid@UFSC - 01/Apr/2007] ##
###################################################################

## Some input info
LSQ15aae.txt                             [arq_obs]
Base.CB07.vall.4m                        [arq_base]
Masks.EmLines.NEW.gm                     [arq_masks]
StCv04.C11.config                        [arq_config]
   66                                    [N_base]
    0                                    [N_YAV_components = # of components with extra extinction!]
    0                                    [i_FitPowerLaw (1/0 = Yes/No)]
-9.99                                    [alpha_PowerLaw]
CCM                                      [red_law_option]
 1.458241                                [q_norm = A(l_norm)/A(V)]

## (Re)Sampling Parameters
 3741.00                                 [l_ini (A)]
 7218.00                                 [l_fin (A)]
    1.00                                 [dl    (A)]     (OBS: dl_cushion =    50.00 A)

## Normalization info
 4020.00                                 [l_norm (A) - for base]
 4010.00                                 [llow_norm (A) - window for f_obs]
 4060.00                                 [lupp_norm (A) - window for f_obs]
2.819321E-17                             [fobs_norm (in input units)]

## S/N
 3691.00                                 [llow_SN (A) - window for S/N]
 7268.00                                 [lupp_SN (A) - window for S/N]
   4.516                                 [S/N in S/N window]
   5.032                                 [S/N in norm. window]
  10.000                                 [S/N_err in S/N window]
  11.143                                 [S/N_err in norm. window]
  1.0000                                 [fscale_chi2]

## etc...
    -2007455                             [idum_orig]
  2214                                   [NOl_eff]
  1976                                   [Nl_eff]
   238    NSIGMA                         [Ntot_cliped & clip_method]
  1030400                                [Nglobal_steps]
   7                                     [N_chains]
  20                                     [NEX0s_base = N_base in EX0s-fits]
 0   0   1       46   2.0   2.155E+01    [Clip-Bug, RC-Crash & Burn-In warning-flags, n_censored_weights, wei_nsig_threshold & wei_limit]
    11     10.820     10.323      0.497  [idt_all, wdt_TotTime, wdt_UsrTime & wdt_SysTime (sec)]

## Synthesis Results - Best model ##

 1.50480E+00                             [chi2/Nl_eff]
     9.87851                             [adev (%)]

    95.52439                             [sum-of-x (%)]
 1.56043E-17                             [Flux_tot (units of input spectrum!)]
 2.70579E-13                             [Mini_tot (???)]
 1.48184E-13                             [Mcor_tot (???)]

-101.91                                  [v0_min  (km/s)]
 253.79                                  [vd_min  (km/s)]
-0.4063                                  [AV_min  (mag)]
 0.0000                                  [YAV_min (mag)]

# j     x_j(%)      Mini_j(%)     Mcor_j(%)     age_j(yr)     Z_j      (L/M)_j    YAV?  Mstars   component_j        a/Fe...       SSP_chi2r SSP_adev(%)   SSP_AV   SSP_x(%)
  1      0.0000     0.0000E+00    0.0000E+00    1.000000E+06  0.00400  1.094E-02    0   1.0000   age020_m42            0.0000     1.9952E+00    10.7567   2.9430    81.5569
  2      0.0000     0.0000E+00    0.0000E+00    3.160000E+06  0.00400  4.007E-02    0   0.9999   age045_m42            0.0000     1.8452E+00    10.5691   2.2107    87.3923
  3      0.0000     0.0000E+00    0.0000E+00    5.010000E+06  0.00400  2.539E-02    0   0.9488   age055_m42            0.0000     1.9053E+00    10.6484   2.5337    85.1501
  4      0.0000     0.0000E+00    0.0000E+00    6.610000E+06  0.00400  2.620E-02    0   0.9220   age061_m42            0.0000     1.8631E+00    10.6169   2.1368    87.6240
  5      0.0000     0.0000E+00    0.0000E+00    1.000000E+07  0.00400  1.322E-02    0   0.8862   age070_m42            0.0000     2.0620E+00    11.1757   1.8558    89.4816
  6      0.0000     0.0000E+00    0.0000E+00    1.445000E+07  0.00400  7.883E-03    0   0.8571   age078_m42            0.0000     2.0717E+00    11.1383   2.1870    87.0680
  7      0.0000     0.0000E+00    0.0000E+00    2.512000E+07  0.00400  5.251E-03    0   0.8174   age090_m42            0.0000     2.1058E+00    11.3184   1.7257    89.9754
  8      0.0000     0.0000E+00    0.0000E+00    4.000000E+07  0.00400  3.649E-03    0   0.7851   age104_m42            0.0000     2.0452E+00    11.1931   1.4945    90.8773
  9      3.1929     6.2222E-02    8.6677E-02    5.500000E+07  0.00400  3.098E-03    0   0.7629   age110_m42            0.0000     1.9537E+00    10.9083   1.6484    90.8836
 10      0.0000     0.0000E+00    0.0000E+00    1.015200E+08  0.00400  2.228E-03    0   0.7207   age116_m42            0.0000     1.9150E+00    10.7820   1.6690    91.0450
 11      0.0000     0.0000E+00    0.0000E+00    2.861200E+08  0.00400  1.093E-03    0   0.6648   age125_m42            0.0000     1.9545E+00    10.9475   1.0990    93.9787
 12      0.0000     0.0000E+00    0.0000E+00    5.088000E+08  0.00400  6.597E-04    0   0.6365   age130_m42            0.0000     1.8591E+00    10.6729   1.0843    94.9216
 13      0.0000     0.0000E+00    0.0000E+00    1.434000E+09  0.00400  2.132E-04    0   0.5798   age139_m42            0.0000     1.6890E+00    10.3630   0.1006    97.2360
 14     45.3164     4.6410E+01    4.5566E+01    4.250000E+09  0.00400  5.895E-05    0   0.5377   age158_m42            0.0000     1.5192E+00     9.9462  -0.3487    93.8460
 15      6.0317     1.0375E+01    9.8735E+00    7.500000E+09  0.00400  3.510E-05    0   0.5212   age171_m42            0.0000     1.5126E+00     9.9108  -0.5358    93.2606
 16      0.0000     0.0000E+00    0.0000E+00    1.300000E+10  0.00400  2.005E-05    0   0.5034   age193_m42            0.0000     1.5271E+00     9.9220  -0.6989    92.7680
 17      0.0000     0.0000E+00    0.0000E+00    1.800000E+10  0.00400  1.525E-05    0   0.4967   age213_m42            0.0000     1.5245E+00     9.9153  -0.7237    92.3921
 18      0.0000     0.0000E+00    0.0000E+00    1.000000E+06  0.00800  1.238E-02    0   1.0000   age020_m52            0.0000     1.9951E+00    10.7561   2.9394    81.7134
 19      0.0000     0.0000E+00    0.0000E+00    3.160000E+06  0.00800  3.074E-02    0   0.9966   age045_m52            0.0000     1.9766E+00    10.7230   2.8626    82.4270
 20      0.0000     0.0000E+00    0.0000E+00    5.010000E+06  0.00800  2.668E-02    0   0.9443   age055_m52            0.0000     1.9260E+00    10.6701   2.6164    84.3767
 21      0.0000     0.0000E+00    0.0000E+00    6.610000E+06  0.00800  2.136E-02    0   0.9177   age061_m52            0.0000     1.9411E+00    10.9345   1.3443    90.9240
 22      0.0000     0.0000E+00    0.0000E+00    1.000000E+07  0.00800  1.215E-02    0   0.8827   age070_m52            0.0000     2.1415E+00    11.3655   2.0391    89.1907
 23      0.0000     0.0000E+00    0.0000E+00    1.445000E+07  0.00800  8.717E-03    0   0.8552   age078_m52            0.0000     2.0618E+00    11.1376   2.1509    88.3302
 24      0.0000     0.0000E+00    0.0000E+00    2.512000E+07  0.00800  5.592E-03    0   0.8162   age090_m52            0.0000     2.1055E+00    11.3316   1.7909    91.0324
 25      0.0000     0.0000E+00    0.0000E+00    4.000000E+07  0.00800  3.896E-03    0   0.7841   age104_m52            0.0000     2.0325E+00    11.1585   1.7037    91.7606
 26      0.0000     0.0000E+00    0.0000E+00    1.015200E+08  0.00800  2.148E-03    0   0.7226   age116_m52            0.0000     1.9194E+00    10.8530   1.6371    91.7913
 27      0.0000     0.0000E+00    0.0000E+00    2.861200E+08  0.00800  9.925E-04    0   0.6683   age125_m52            0.0000     1.8565E+00    10.6434   1.1523    95.7160
 28      0.0000     0.0000E+00    0.0000E+00    9.047900E+08  0.00800  3.141E-04    0   0.6138   age135_m52            0.0000     1.6557E+00    10.2389   0.3438   100.1350
 29      0.0000     0.0000E+00    0.0000E+00    1.434000E+09  0.00800  1.719E-04    0   0.5853   age139_m52            0.0000     1.5741E+00    10.0925  -0.2377    98.1845
 30      0.0364     2.7921E-02    2.8550E-02    2.500000E+09  0.00800  7.872E-05    0   0.5600   age150_m52            0.0000     1.5116E+00     9.8776  -0.5097    95.6824
 31      0.0013     1.7902E-03    1.7737E-03    4.250000E+09  0.00800  4.336E-05    0   0.5426   age158_m52            0.0000     1.5232E+00     9.9192  -0.5279    94.8727
 32      0.0000     0.0000E+00    0.0000E+00    6.250000E+09  0.00800  3.159E-05    0   0.5319   age166_m52            0.0000     1.5595E+00     9.9958  -0.7298    94.9003
 33      0.0000     0.0000E+00    0.0000E+00    1.300000E+10  0.00800  1.361E-05    0   0.5073   age193_m52            0.0000     1.7957E+00    10.4498  -1.0000    87.5485
 34      0.0000     0.0000E+00    0.0000E+00    1.800000E+10  0.00800  9.886E-06    0   0.4990   age213_m52            0.0000     2.0588E+00    10.9820  -1.0000    83.5321
 35      2.8435     1.1118E-02    2.0301E-02    1.000000E+06  0.02000  1.544E-02    0   1.0000   age020_m62            0.0000     2.0024E+00    10.7678   2.9357    81.8921
 36      0.0000     0.0000E+00    0.0000E+00    3.160000E+06  0.02000  3.762E-02    0   0.9858   age045_m62            0.0000     1.9930E+00    10.7468   2.8750    82.6074
 37      0.0000     0.0000E+00    0.0000E+00    5.010000E+06  0.02000  3.296E-02    0   0.9342   age055_m62            0.0000     1.8611E+00    10.5443   2.4922    86.2822
 38      0.0000     0.0000E+00    0.0000E+00    8.710000E+06  0.02000  1.154E-02    0   0.8861   age067_m62            0.0000     2.8846E+00    13.3000   1.4936    91.6081
 39      0.0000     0.0000E+00    0.0000E+00    1.445000E+07  0.02000  7.663E-03    0   0.8472   age078_m62            0.0000     2.2841E+00    11.8073   1.6873    91.2482
 40      0.0000     0.0000E+00    0.0000E+00    2.512000E+07  0.02000  4.532E-03    0   0.8099   age090_m62            0.0000     2.3357E+00    11.9462   1.6822    90.9280
 41      0.0000     0.0000E+00    0.0000E+00    5.500000E+07  0.02000  2.733E-03    0   0.7595   age110_m62            0.0000     2.0352E+00    11.1453   1.6850    91.1388
 42      0.0064     2.8241E-04    3.6019E-04    1.609000E+08  0.02000  1.369E-03    0   0.6985   age120_m62            0.0000     1.9387E+00    10.8356   1.5188    93.8741
 43      0.0000     0.0000E+00    0.0000E+00    2.861200E+08  0.02000  9.013E-04    0   0.6714   age125_m62            0.0000     1.9098E+00    10.7496   1.2633    96.7671
 44      0.0000     0.0000E+00    0.0000E+00    5.088000E+08  0.02000  5.028E-04    0   0.6449   age130_m62            0.0000     1.7453E+00    10.3457   0.8816    99.5592
 45      0.0081     2.0231E-03    2.2825E-03    9.047900E+08  0.02000  2.428E-04    0   0.6179   age135_m62            0.0000     1.5679E+00     9.9753   0.2871    99.3642
 46      0.0000     0.0000E+00    0.0000E+00    1.434000E+09  0.02000  1.263E-04    0   0.5908   age139_m62            0.0000     1.5328E+00     9.9167  -0.1605    98.0464
 47      0.0000     0.0000E+00    0.0000E+00    2.500000E+09  0.02000  5.985E-05    0   0.5673   age150_m62            0.0000     1.5449E+00     9.9419  -0.5279    96.7900
 48      0.0000     0.0000E+00    0.0000E+00    4.250000E+09  0.02000  3.271E-05    0   0.5468   age158_m62            0.0000     1.6372E+00    10.1604  -0.8335    96.0014
 49      0.0000     0.0000E+00    0.0000E+00    1.000000E+10  0.02000  1.360E-05    0   0.5167   age181_m62            0.0000     1.9496E+00    10.7362  -1.0000    89.3103
 50      0.0000     0.0000E+00    0.0000E+00    1.800000E+10  0.02000  7.124E-06    0   0.5013   age213_m62            0.0000     2.4741E+00    11.7442  -1.0000    81.5894
 51      0.0000     0.0000E+00    0.0000E+00    1.000000E+06  0.05000  2.592E-02    0   0.9998   age020_m72            0.0000     2.0374E+00    10.8414   2.9275    81.8832
 52      0.0000     0.0000E+00    0.0000E+00    3.160000E+06  0.05000  4.845E-02    0   0.9577   age045_m72            0.0000     1.9243E+00    10.6227   2.7561    83.7716
 53      0.0000     0.0000E+00    0.0000E+00    5.010000E+06  0.05000  3.072E-02    0   0.9147   age055_m72            0.0000     2.1353E+00    11.2722   2.2875    87.4166
 54      0.0000     0.0000E+00    0.0000E+00    6.610000E+06  0.05000  1.455E-02    0   0.8877   age061_m72            0.0000     3.3782E+00    14.4922   1.5713    91.9827
 55      0.0000     0.0000E+00    0.0000E+00    1.000000E+07  0.05000  9.074E-03    0   0.8524   age070_m72            0.0000     2.1814E+00    11.3381   2.4908    86.8001
 56      0.0000     0.0000E+00    0.0000E+00    2.512000E+07  0.05000  4.250E-03    0   0.7902   age090_m72            0.0000     2.1301E+00    11.3334   2.1751    88.7766
 57      0.0000     0.0000E+00    0.0000E+00    4.000000E+07  0.05000  3.087E-03    0   0.7618   age104_m72            0.0000     2.1723E+00    11.4893   1.9431    90.4057
 58      0.0000     0.0000E+00    0.0000E+00    1.015200E+08  0.05000  1.700E-03    0   0.7096   age116_m72            0.0000     2.0085E+00    11.0330   1.6672    93.3195
 59      0.0000     0.0000E+00    0.0000E+00    2.861200E+08  0.05000  7.384E-04    0   0.6633   age125_m72            0.0000     1.8333E+00    10.5623   1.1309    98.1249
 60      0.0000     0.0000E+00    0.0000E+00    5.088000E+08  0.05000  3.819E-04    0   0.6372   age130_m72            0.0000     1.6414E+00    10.1317   0.6293   100.0793
 61     10.5168     3.7883E+00    4.2265E+00    9.047900E+08  0.05000  1.676E-04    0   0.6110   age135_m72            0.0000     1.5475E+00     9.9046  -0.0714    98.5498
 62      0.0000     0.0000E+00    0.0000E+00    1.434000E+09  0.05000  8.837E-05    0   0.5874   age139_m72            0.0000     1.5717E+00     9.9816  -0.5271    98.1633
 63     27.5708     3.9322E+01    4.0194E+01    2.500000E+09  0.05000  4.233E-05    0   0.5598   age150_m72            0.0000     1.6699E+00    10.2052  -0.8304    96.7090
 64      0.0000     0.0000E+00    0.0000E+00    6.250000E+09  0.05000  1.435E-05    0   0.5249   age166_m72            0.0000     2.1150E+00    11.0760  -1.0000    85.6703
 65      0.0000     0.0000E+00    0.0000E+00    1.300000E+10  0.05000  6.513E-06    0   0.5036   age193_m72            0.0000     3.0036E+00    12.8124  -1.0000    77.2098
 66      0.0000     0.0000E+00    0.0000E+00    1.800000E+10  0.05000  4.527E-06    0   0.4945   age213_m72            0.0000     3.6779E+00    14.0682  -1.0000    71.9960


## Synthesis Results - Average & Chains ##

# j      x_j: min, <> & last-chain-values for 1 ...  7 chains
  1      0.0000      0.1059      0.7415      0.0000      0.0000      0.0000      0.0000      0.0000      0.0000
  2      0.0000      0.5639      0.5915      0.0000      0.0000      0.4231      0.0000      1.3436      1.4325
  3      0.0000      0.1134      0.0000      0.2467      0.0000      0.2887      0.0000      0.0000      0.3587
  4      0.0000      0.4080      0.0000      0.0000      2.3225      0.0000      0.0000      0.3311      0.0000
  5      0.0000      0.2475      0.0000      0.0000      0.1665      0.2260      0.0000      0.0000      0.0000
  6      0.0000      0.1790      0.1515      1.3097      0.0000      0.8362      0.0000      0.0000      0.0000
  7      0.0000      0.4668      0.0000      0.4520      0.0000      0.0000      0.0000      0.0000      0.0000
  8      0.0000      0.2659      0.0000      0.0000      0.0000      0.0000      1.2816      0.0000      0.0000
  9      3.1929      0.2004      0.0000      2.7584      0.2213      0.0000      0.0000      0.0000      0.0000
 10      0.0000      0.3394      0.0596      0.0000      0.0000      0.0000      0.0000      1.0255      0.4580
 11      0.0000      0.4720      0.0000      0.0000      0.0000      0.0000      0.0000      0.0000      0.0550
 12      0.0000      0.5739      0.3797      0.0000      0.0000      0.0000      1.6971      0.0000      1.3758
 13      0.0000      1.2676      2.4107      0.6316      0.0000      0.6997      0.0000      0.0000      0.0000
 14     45.3164      8.3852      8.4303      4.6045      8.4407     16.9758     14.7176     11.9805     12.1266
 15      6.0317      1.5477      0.9878      3.9662      3.8208      0.0000      6.2352      3.0801      2.9694
 16      0.0000      0.6858      2.5366      0.0000      1.6719      1.5431      1.0671      0.0000      4.1686
 17      0.0000      0.6710      0.0000      0.0000      0.0000      0.0000      0.0000      1.0262      0.0000
 18      0.0000      0.2230      0.0000      0.0000      0.0000      0.5289      0.3363      1.4604      0.0000
 19      0.0000      0.2413      0.0000      0.0000      0.0000      0.8377      0.8218      0.0000      0.6697
 20      0.0000      0.1157      0.0000      0.0000      0.1395      0.0000      0.0000      0.0000      0.0000
 21      0.0000      0.6986      2.6684      0.0000      2.8237      0.0000      0.0000      0.2037      0.0000
 22      0.0000      0.1346      0.0000      0.1653      0.0000      0.2988      0.0000      0.0000      0.0000
 23      0.0000      0.1732      0.0000      0.6281      0.0000      1.1793      0.0000      0.0000      0.0000
 24      0.0000      0.2781      0.0000      0.0000      0.0000      0.0000      0.0000      1.5359      0.0000
 25      0.0000      0.2268      0.0000      0.0000      0.0000      0.0000      0.0000      0.5608      0.0000
 26      0.0000      0.4410      0.3866      1.7292      0.0000      0.0000      0.8559      0.0000      0.0000
 27      0.0000      0.2262      0.0000      0.0000      0.0000      0.0000      0.0000      0.0000      0.5403
 28      0.0000      0.6259      0.0000      0.5348      0.5467      0.0000      0.1138      0.0000      0.0000
 29      0.0000      1.3461      0.5559      0.0000      0.1432      0.0000      0.0000      0.0000      0.0000
 30      0.0364      1.6042      3.7761      1.6434      2.6458      0.0000      1.7141      0.6849      0.2573
 31      0.0013      1.4638      2.2865      1.7527      1.4253      0.9471      0.0000      3.0327      0.0000
 32      0.0000      0.8186      0.0000      0.0000      0.0000      1.4752      0.3937      0.6037      0.0000
 33      0.0000      0.0643      0.0000      0.0000      0.0054      0.0000      0.0000      0.0000      0.0000
 34      0.0000      0.1703      0.0000      0.0000      0.0000      0.0000      0.0000      0.0000      0.0000
 35      2.8435      0.2581      0.6591      0.7708      0.0000      0.0000      0.0000      0.0000      0.5717
 36      0.0000      0.1815      0.0000      0.0000      0.0000      0.0000      0.0000      0.2479      0.3931
 37      0.0000      0.2956      0.0000      0.0000      0.0000      0.0000      0.0000      0.1379      0.0000
 38      0.0000      0.1815      0.0000      0.0000      0.1827      0.0000      0.0000      0.0000      0.0000
 39      0.0000      0.1720      0.7646      0.8213      2.5529      0.0000      0.0000      0.0000      0.0000
 40      0.0000      0.2766      0.0000      0.1828      0.0000      1.9954      0.0000      0.0000      3.0999
 41      0.0000      0.4678      0.0000      2.3007      1.3043      0.0000      1.5266      1.5227      0.0000
 42      0.0064      0.2656      0.0000      0.6643      0.0000      0.0000      1.0235      0.0000      0.0000
 43      0.0000      0.1854      0.0000      0.0000      0.0000      0.0000      0.0000      0.1196      0.0000
 44      0.0000      0.6553      0.0000      0.0000      0.0000      1.6355      0.0000      0.0000      1.2764
 45      0.0081      2.5430      3.2415      2.7100      0.0000      2.5255      9.5057      3.3412      6.2637
 46      0.0000      5.9748      4.8918      3.5831      5.7745      0.0000      9.0821      4.6060      2.6990
