###################################################################
## OUTPUT of StarlightChains_v04.for    [Cid@UFSC - 01/Apr/2007] ##
###################################################################

## Some input info
LSQ12fhh.txt                             [arq_obs]
Base.CB07.vall.4m                        [arq_base]
Masks.EmLines.NEW.gm                     [arq_masks]
StCv04.C11.config                        [arq_config]
   66                                    [N_base]
    0                                    [N_YAV_components = # of components with extra extinction!]
    0                                    [i_FitPowerLaw (1/0 = Yes/No)]
-9.99                                    [alpha_PowerLaw]
CCM                                      [red_law_option]
 1.458241                                [q_norm = A(l_norm)/A(V)]

## (Re)Sampling Parameters
 3741.00                                 [l_ini (A)]
 7218.00                                 [l_fin (A)]
    1.00                                 [dl    (A)]     (OBS: dl_cushion =    50.00 A)

## Normalization info
 4020.00                                 [l_norm (A) - for base]
 4010.00                                 [llow_norm (A) - window for f_obs]
 4060.00                                 [lupp_norm (A) - window for f_obs]
5.949819E-17                             [fobs_norm (in input units)]

## S/N
 3691.00                                 [llow_SN (A) - window for S/N]
 7268.00                                 [lupp_SN (A) - window for S/N]
   6.094                                 [S/N in S/N window]
   5.049                                 [S/N in norm. window]
  19.000                                 [S/N_err in S/N window]
  15.742                                 [S/N_err in norm. window]
  1.0000                                 [fscale_chi2]

## etc...
    -2007453                             [idum_orig]
  2385                                   [NOl_eff]
  2385                                   [Nl_eff]
     0    NSIGMA                         [Ntot_cliped & clip_method]
  1840020                                [Nglobal_steps]
   7                                     [N_chains]
  33                                     [NEX0s_base = N_base in EX0s-fits]
 0   0   1        1   2.0   2.276E+01    [Clip-Bug, RC-Crash & Burn-In warning-flags, n_censored_weights, wei_nsig_threshold & wei_limit]
    16     16.058     15.565      0.493  [idt_all, wdt_TotTime, wdt_UsrTime & wdt_SysTime (sec)]

## Synthesis Results - Best model ##

 3.39831E-01                             [chi2/Nl_eff]
     2.46548                             [adev (%)]

   105.68970                             [sum-of-x (%)]
 1.16080E-16                             [Flux_tot (units of input spectrum!)]
 2.57794E-12                             [Mini_tot (???)]
 1.35491E-12                             [Mcor_tot (???)]

  41.97                                  [v0_min  (km/s)]
 145.52                                  [vd_min  (km/s)]
 0.4564                                  [AV_min  (mag)]
 0.0000                                  [YAV_min (mag)]

# j     x_j(%)      Mini_j(%)     Mcor_j(%)     age_j(yr)     Z_j      (L/M)_j    YAV?  Mstars   component_j        a/Fe...       SSP_chi2r SSP_adev(%)   SSP_AV   SSP_x(%)
  1      1.8811     7.3257E-03    1.3938E-02    1.000000E+06  0.00400  1.094E-02    0   1.0000   age020_m42            0.0000     1.7993E+00     6.0807   3.6053    91.2110
  2      0.0000     0.0000E+00    0.0000E+00    3.160000E+06  0.00400  4.007E-02    0   0.9999   age045_m42            0.0000     1.4401E+00     5.1177   2.8959    96.8280
  3      0.0000     0.0000E+00    0.0000E+00    5.010000E+06  0.00400  2.539E-02    0   0.9488   age055_m42            0.0000     1.5417E+00     5.4098   3.2061    94.8465
  4      0.0181     2.9454E-05    5.1669E-05    6.610000E+06  0.00400  2.620E-02    0   0.9220   age061_m42            0.0000     1.3645E+00     5.0719   2.8183    97.2589
  5      0.0000     0.0000E+00    0.0000E+00    1.000000E+07  0.00400  1.322E-02    0   0.8862   age070_m42            0.0000     1.2727E+00     5.1900   2.4981   101.2357
  6      0.0000     0.0000E+00    0.0000E+00    1.445000E+07  0.00400  7.883E-03    0   0.8571   age078_m42            0.0000     1.3746E+00     5.3648   2.8270    98.5577
  7      0.0000     0.0000E+00    0.0000E+00    2.512000E+07  0.00400  5.251E-03    0   0.8174   age090_m42            0.0000     1.3029E+00     5.3135   2.3615   102.1371
  8      0.0000     0.0000E+00    0.0000E+00    4.000000E+07  0.00400  3.649E-03    0   0.7851   age104_m42            0.0000     1.2022E+00     5.1129   2.1390   102.7543
  9      0.0000     0.0000E+00    0.0000E+00    5.500000E+07  0.00400  3.098E-03    0   0.7629   age110_m42            0.0000     1.1820E+00     4.9494   2.3140   101.7166
 10      0.0000     0.0000E+00    0.0000E+00    1.015200E+08  0.00400  2.228E-03    0   0.7207   age116_m42            0.0000     1.1818E+00     4.9456   2.3482   101.2418
 11      0.0000     0.0000E+00    0.0000E+00    2.861200E+08  0.00400  1.093E-03    0   0.6648   age125_m42            0.0000     1.0861E+00     4.9774   1.7723   104.8481
 12      0.0000     0.0000E+00    0.0000E+00    5.088000E+08  0.00400  6.597E-04    0   0.6365   age130_m42            0.0000     9.7758E-01     4.8155   1.7819   104.7039
 13      2.6731     5.3417E-01    5.8928E-01    1.434000E+09  0.00400  2.132E-04    0   0.5798   age139_m42            0.0000     5.3735E-01     3.6194   0.8175   106.3581
 14      0.0000     0.0000E+00    0.0000E+00    4.250000E+09  0.00400  5.895E-05    0   0.5377   age158_m42            0.0000     4.3438E-01     2.9502   0.3974   101.2683
 15      4.9614     6.0221E+00    5.9719E+00    7.500000E+09  0.00400  3.510E-05    0   0.5212   age171_m42            0.0000     4.7112E-01     3.1689   0.2238    99.9923
 16      5.8863     1.2508E+01    1.1980E+01    1.300000E+10  0.00400  2.005E-05    0   0.5034   age193_m42            0.0000     5.5519E-01     3.4988   0.0721    98.9134
 17      4.4855     1.2531E+01    1.1843E+01    1.800000E+10  0.00400  1.525E-05    0   0.4967   age213_m42            0.0000     5.2862E-01     3.3959   0.0446    98.6532
 18      2.9691     1.0218E-02    1.9441E-02    1.000000E+06  0.00800  1.238E-02    0   1.0000   age020_m52            0.0000     1.7966E+00     6.0861   3.6017    91.3858
 19      0.0000     0.0000E+00    0.0000E+00    3.160000E+06  0.00800  3.074E-02    0   0.9966   age045_m52            0.0000     1.7619E+00     5.9979   3.5263    92.1236
 20      0.0000     0.0000E+00    0.0000E+00    5.010000E+06  0.00800  2.668E-02    0   0.9443   age055_m52            0.0000     1.5508E+00     5.5119   3.2838    94.1882
 21      0.0000     0.0000E+00    0.0000E+00    6.610000E+06  0.00800  2.136E-02    0   0.9177   age061_m52            0.0000     9.7979E-01     4.7001   1.9942   102.5263
 22      0.0000     0.0000E+00    0.0000E+00    1.000000E+07  0.00800  1.215E-02    0   0.8827   age070_m52            0.0000     1.3337E+00     5.4423   2.6666   101.5773
 23      0.0000     0.0000E+00    0.0000E+00    1.445000E+07  0.00800  8.717E-03    0   0.8552   age078_m52            0.0000     1.3020E+00     5.2358   2.7909    99.9936
 24      0.0000     0.0000E+00    0.0000E+00    2.512000E+07  0.00800  5.592E-03    0   0.8162   age090_m52            0.0000     1.2463E+00     5.2506   2.4250   103.3959
 25      0.0085     9.2626E-05    1.3819E-04    4.000000E+07  0.00800  3.896E-03    0   0.7841   age104_m52            0.0000     1.1697E+00     5.0635   2.3496   103.6362
 26      0.0000     0.0000E+00    0.0000E+00    1.015200E+08  0.00800  2.148E-03    0   0.7226   age116_m52            0.0000     1.1003E+00     4.8528   2.3067   102.5346
 27      0.0000     0.0000E+00    0.0000E+00    2.861200E+08  0.00800  9.925E-04    0   0.6683   age125_m52            0.0000     9.3066E-01     4.7761   1.8463   105.6918
 28      2.0841     2.8268E-01    3.3013E-01    9.047900E+08  0.00800  3.141E-04    0   0.6138   age135_m52            0.0000     6.0267E-01     3.8862   1.0784   108.5599
 29     27.7429     6.8759E+00    7.6572E+00    1.434000E+09  0.00800  1.719E-04    0   0.5853   age139_m52            0.0000     4.0508E-01     3.0299   0.4972   106.4391
 30      0.0000     0.0000E+00    0.0000E+00    2.500000E+09  0.00800  7.872E-05    0   0.5600   age150_m52            0.0000     4.7600E-01     3.3096   0.2550   102.2990
 31      0.0000     0.0000E+00    0.0000E+00    4.250000E+09  0.00800  4.336E-05    0   0.5426   age158_m52            0.0000     4.9883E-01     3.3876   0.2404   101.3030
 32      4.4185     5.9590E+00    6.0307E+00    6.250000E+09  0.00800  3.159E-05    0   0.5319   age166_m52            0.0000     6.4201E-01     4.0212   0.0569   100.4714
 33      0.0000     0.0000E+00    0.0000E+00    1.300000E+10  0.00800  1.361E-05    0   0.5073   age193_m52            0.0000     9.4407E-01     5.0716  -0.3870    98.7266
 34      0.0000     0.0000E+00    0.0000E+00    1.800000E+10  0.00800  9.886E-06    0   0.4990   age213_m52            0.0000     1.2256E+00     5.8964  -0.4726    97.2836
 35      0.0000     0.0000E+00    0.0000E+00    1.000000E+06  0.02000  1.544E-02    0   1.0000   age020_m62            0.0000     1.8074E+00     6.1225   3.5957    91.6734
 36      0.0000     0.0000E+00    0.0000E+00    3.160000E+06  0.02000  3.762E-02    0   0.9858   age045_m62            0.0000     1.7937E+00     6.0938   3.5373    92.3661
 37      0.0000     0.0000E+00    0.0000E+00    5.010000E+06  0.02000  3.296E-02    0   0.9342   age055_m62            0.0000     1.4776E+00     5.2612   3.1734    95.6993
 38      0.8977     3.3143E-03    5.5877E-03    8.710000E+06  0.02000  1.154E-02    0   0.8861   age067_m62            0.0000     2.3364E+00     8.2187   2.0422   108.4875
 39      3.4226     1.9029E-02    3.0673E-02    1.445000E+07  0.02000  7.663E-03    0   0.8472   age078_m62            0.0000     1.3991E+00     5.9344   2.2920   105.0806
 40      1.9236     1.8083E-02    2.7865E-02    2.512000E+07  0.02000  4.532E-03    0   0.8099   age090_m62            0.0000     1.5025E+00     6.1129   2.2830   104.9125
 41      0.0000     0.0000E+00    0.0000E+00    5.500000E+07  0.02000  2.733E-03    0   0.7595   age110_m62            0.0000     1.1138E+00     4.9617   2.3296   103.0058
 42      0.0127     3.9396E-04    5.2358E-04    1.609000E+08  0.02000  1.369E-03    0   0.6985   age120_m62            0.0000     1.0525E+00     4.8882   2.1957   104.5064
 43      0.0000     0.0000E+00    0.0000E+00    2.861200E+08  0.02000  9.013E-04    0   0.6714   age125_m62            0.0000     1.0018E+00     4.9796   1.9577   106.8671
 44      0.0000     0.0000E+00    0.0000E+00    5.088000E+08  0.02000  5.028E-04    0   0.6449   age130_m62            0.0000     8.7151E-01     4.6912   1.6128   108.0805
 45      0.1238     2.1729E-02    2.5546E-02    9.047900E+08  0.02000  2.428E-04    0   0.6179   age135_m62            0.0000     5.4590E-01     3.5966   1.0391   106.8684
 46      3.2050     1.0811E+00    1.2153E+00    1.434000E+09  0.02000  1.263E-04    0   0.5908   age139_m62            0.0000     4.7835E-01     3.3224   0.5996   105.0752
 47      0.0000     0.0000E+00    0.0000E+00    2.500000E+09  0.02000  5.985E-05    0   0.5673   age150_m62            0.0000     6.4626E-01     4.0125   0.2568   102.5603
 48      4.1524     5.4084E+00    5.6267E+00    4.250000E+09  0.02000  3.271E-05    0   0.5468   age158_m62            0.0000     9.7185E-01     5.2020  -0.0195   100.3718
 49      1.5756     4.9359E+00    4.8526E+00    1.000000E+10  0.02000  1.360E-05    0   0.5167   age181_m62            0.0000     1.5084E+00     6.6766  -0.3315    98.3926
 50      1.6691     9.9821E+00    9.5210E+00    1.800000E+10  0.02000  7.124E-06    0   0.5013   age213_m62            0.0000     2.0061E+00     7.7750  -0.5106    96.3200
 51      2.3285     3.8273E-03    7.2806E-03    1.000000E+06  0.05000  2.592E-02    0   0.9998   age020_m72            0.0000     1.8454E+00     6.2385   3.5839    91.8328
 52      0.0000     0.0000E+00    0.0000E+00    3.160000E+06  0.05000  4.845E-02    0   0.9577   age045_m72            0.0000     1.7021E+00     5.7583   3.4295    93.2061
 53      0.0000     0.0000E+00    0.0000E+00    5.010000E+06  0.05000  3.072E-02    0   0.9147   age055_m72            0.0000     1.4199E+00     5.6910   2.9106    99.6225
 54      6.4014     1.8744E-02    3.1658E-02    6.610000E+06  0.05000  1.455E-02    0   0.8877   age061_m72            0.0000     4.0461E+00    10.7978   2.0851   110.5812
 55      0.0000     0.0000E+00    0.0000E+00    1.000000E+07  0.05000  9.074E-03    0   0.8524   age070_m72            0.0000     1.8001E+00     6.3328   3.1131    98.8559
 56      0.0612     6.1353E-04    9.2244E-04    2.512000E+07  0.05000  4.250E-03    0   0.7902   age090_m72            0.0000     1.5157E+00     5.7753   2.8027   100.9502
 57      1.2604     1.7395E-02    2.5213E-02    4.000000E+07  0.05000  3.087E-03    0   0.7618   age104_m72            0.0000     1.5389E+00     5.8866   2.5684   102.9539
 58      0.0000     0.0000E+00    0.0000E+00    1.015200E+08  0.05000  1.700E-03    0   0.7096   age116_m72            0.0000     1.1581E+00     5.1200   2.3282   104.6298
 59      1.7197     9.9223E-02    1.2522E-01    2.861200E+08  0.05000  7.384E-04    0   0.6633   age125_m72            0.0000     8.8937E-01     4.7460   1.8426   107.4890
 60      0.0000     0.0000E+00    0.0000E+00    5.088000E+08  0.05000  3.819E-04    0   0.6372   age130_m72            0.0000     6.6448E-01     4.0512   1.3731   108.0327
 61      0.0000     0.0000E+00    0.0000E+00    9.047900E+08  0.05000  1.676E-04    0   0.6110   age135_m72            0.0000     7.0779E-01     4.2170   0.7088   104.6383
 62      4.8849     2.3551E+00    2.6321E+00    1.434000E+09  0.05000  8.837E-05    0   0.5874   age139_m72            0.0000     7.1500E-01     4.2825   0.2602   103.8547
 63     10.0521     1.0117E+01    1.0776E+01    2.500000E+09  0.05000  4.233E-05    0   0.5598   age150_m72            0.0000     1.1164E+00     5.6251  -0.0110   100.8259
 64      2.9874     8.8694E+00    8.8580E+00    6.250000E+09  0.05000  1.435E-05    0   0.5249   age166_m72            0.0000     1.6958E+00     7.0859  -0.4195    97.5888
 65      1.8830     1.2318E+01    1.1803E+01    1.300000E+10  0.05000  6.513E-06    0   0.5036   age193_m72            0.0000     2.3994E+00     8.4799  -0.6599    96.8342
 66      0.0000     0.0000E+00    0.0000E+00    1.800000E+10  0.05000  4.527E-06    0   0.4945   age213_m72            0.0000     2.9065E+00     9.3268  -0.7953    95.5704


## Synthesis Results - Average & Chains ##

# j      x_j: min, <> & last-chain-values for 1 ...  7 chains
  1      1.8811      1.7185      0.9922      1.2139      1.2691      1.4487      0.9657      2.3467      2.6856
  2      0.0000      0.3093      0.0000      0.1191      0.0000      0.0000      1.0708      0.0000      0.0000
  3      0.0000      0.2078      0.0757      0.0000      0.3645      0.9141      0.6314      0.0000      0.0000
  4      0.0181      0.9059      2.5264      0.1051      1.1989      0.7072      0.0000      0.0000      0.9572
  5      0.0000      0.2147      0.1547      0.6163      0.0000      0.0000      0.0000      0.8725      0.3544
  6      0.0000      0.8234      0.0000      0.6650      0.8614      1.0488      0.0545      0.8308      0.0597
  7      0.0000      0.2479      0.0000      0.4265      0.0000      0.0000      0.0000      0.1015      0.1676
  8      0.0000      0.1496      0.0000      0.0000      0.0906      0.0000      0.0000      0.1825      0.0000
  9      0.0000      0.2087      0.0000      0.0000      0.1204      0.0000      0.6899      0.0000      0.0000
 10      0.0000      0.1970      0.1333      0.0000      0.0000      0.0000      0.0000      0.1220      0.0000
 11      0.0000      0.5942      0.5734      1.5281      0.0000      0.0000      0.0000      0.3042      0.0000
 12      0.0000      0.2562      0.0298      0.0000      0.3591      0.5191      0.0000      0.0000      0.0000
 13      2.6731      1.5272      2.4848      0.0000      1.3060      2.5164      0.5732      0.3639      1.8332
 14      0.0000      2.1337      0.9781      0.0000      2.2770      0.9135      0.1958      1.0777      0.0000
 15      4.9614      5.4815      3.9801      5.8964      4.5843      4.9388      6.6684      6.0070      2.6799
 16      5.8863      5.8953      5.8954      5.3255      5.6019      7.1510      5.7044      5.3198      6.0278
 17      4.4855      1.9726      2.3054      3.0382      1.2054      1.5644      3.6066      2.3291      2.9745
 18      2.9691      0.7399      0.0000      1.3158      0.0000      0.9079      1.3138      0.6571      0.8683
 19      0.0000      0.2071      0.0303      0.2312      0.0000      0.8828      0.0000      0.5633      0.0000
 20      0.0000      0.2392      0.0155      0.5749      0.0000      0.0000      0.0000      0.0000      0.5595
 21      0.0000      0.3638      0.3630      0.2626      1.4640      0.0000      0.0000      0.4692      0.0000
 22      0.0000      0.3062      0.0356      0.0000      0.0000      0.6281      0.5398      0.1505      0.0000
 23      0.0000      0.2860      0.0000      0.0875      0.0000      0.0000      0.0000      1.4702      0.0000
 24      0.0000      0.1002      0.0000      0.3549      0.0321      0.0000      0.0000      0.0000      0.0000
 25      0.0085      0.1168      0.0000      0.0000      0.0000      0.0000      0.0000      0.5155      0.5542
 26      0.0000      0.2068      0.0000      0.0000      0.3309      0.0399      0.5264      0.0000      0.0000
 27      0.0000      0.4388      0.5342      0.0000      0.0000      0.0000      0.7492      0.3295      0.0000
 28      2.0841      0.7989      0.3956      0.0463      0.3290      0.2714      0.0000      3.7376      1.5347
 29     27.7429     22.0667     22.0811     24.2836     23.5893     22.9217     21.1086     23.1238     23.1803
 30      0.0000      2.0648      0.1078      0.0000      1.6570      0.9222      3.3752      0.0303      1.6722
 31      0.0000      2.1043      2.6710      2.1117      2.5894      4.0615      5.7552      2.0531      1.7336
 32      4.4185      4.8624      5.1849      5.4557      4.2641      4.6686      4.9358      5.4069      6.6185
 33      0.0000      0.1678      0.0000      0.0000      0.5748      0.0000      0.0000      1.4678      0.0000
 34      0.0000      0.3213      0.0000      1.6340      0.0000      0.4762      0.2912      0.0850      0.0000
 35      0.0000      0.3032      0.3122      0.4005      2.1064      0.0000      0.0000      0.7329      0.0000
 36      0.0000      0.0940      0.1548      0.5485      0.0000      0.0000      0.0000      0.0000      0.0000
 37      0.0000      0.2282      0.4982      0.0000      0.0000      0.8352      0.5838      0.6835      0.0000
 38      0.8977      0.6074      1.7353      0.1427      0.0000      0.8669      0.0889      0.0000      0.8897
 39      3.4226      2.7986      2.6238      2.7825      2.8259      3.1935      4.6463      2.3824      3.6419
 40      1.9236      1.0619      2.0896      0.6930      1.0869      1.8113      1.4074      0.6422      1.1573
 41      0.0000      0.7153      0.8347      1.3935      0.7255      0.0000      0.0000      0.5056      0.1377
 42      0.0127      0.9814      0.0000      0.8878      0.9938      0.4496      0.3395      1.2953      2.5197
 43      0.0000      0.3024      0.0000      0.9938      0.0000      0.5112      0.0000      0.1100      0.2839
 44      0.0000      0.5894      1.2749      1.3477      1.5310      0.0000      0.0000      0.1828      0.0601
 45      0.1238      0.7791      2.4863      0.7840      0.6905      1.4601      1.0667      0.0000      0.4350
 46      3.2050      2.5072      1.2668      1.1005      1.4395      3.5680      2.2943      3.0502      0.4666
