###################################################################
## OUTPUT of StarlightChains_v04.for    [Cid@UFSC - 01/Apr/2007] ##
###################################################################

## Some input info
PS15dov.txt                              [arq_obs]
Base.CB07.vall.4m                        [arq_base]
Masks.EmLines.NEW.gm                     [arq_masks]
StCv04.C11.config                        [arq_config]
   66                                    [N_base]
    0                                    [N_YAV_components = # of components with extra extinction!]
    0                                    [i_FitPowerLaw (1/0 = Yes/No)]
-9.99                                    [alpha_PowerLaw]
CCM                                      [red_law_option]
 1.458241                                [q_norm = A(l_norm)/A(V)]

## (Re)Sampling Parameters
 3741.00                                 [l_ini (A)]
 7218.00                                 [l_fin (A)]
    1.00                                 [dl    (A)]     (OBS: dl_cushion =    50.00 A)

## Normalization info
 4020.00                                 [l_norm (A) - for base]
 4010.00                                 [llow_norm (A) - window for f_obs]
 4060.00                                 [lupp_norm (A) - window for f_obs]
1.016922E-15                             [fobs_norm (in input units)]

## S/N
 3691.00                                 [llow_SN (A) - window for S/N]
 7268.00                                 [lupp_SN (A) - window for S/N]
   8.060                                 [S/N in S/N window]
  10.353                                 [S/N in norm. window]
  17.969                                 [S/N_err in S/N window]
  23.081                                 [S/N_err in norm. window]
  1.0000                                 [fscale_chi2]

## etc...
    -2007457                             [idum_orig]
  2383                                   [NOl_eff]
  2348                                   [Nl_eff]
    35    NSIGMA                         [Ntot_cliped & clip_method]
  1739990                                [Nglobal_steps]
   7                                     [N_chains]
  23                                     [NEX0s_base = N_base in EX0s-fits]
 0   0   1        2   2.0   7.552E+01    [Clip-Bug, RC-Crash & Burn-In warning-flags, n_censored_weights, wei_nsig_threshold & wei_limit]
    17     17.129     16.624      0.505  [idt_all, wdt_TotTime, wdt_UsrTime & wdt_SysTime (sec)]

## Synthesis Results - Best model ##

 1.08982E+00                             [chi2/Nl_eff]
     4.07750                             [adev (%)]

    96.25600                             [sum-of-x (%)]
 2.32583E-15                             [Flux_tot (units of input spectrum!)]
 6.73402E-12                             [Mini_tot (???)]
 3.87539E-12                             [Mcor_tot (???)]

 -46.09                                  [v0_min  (km/s)]
 184.62                                  [vd_min  (km/s)]
 0.6444                                  [AV_min  (mag)]
 0.0000                                  [YAV_min (mag)]

# j     x_j(%)      Mini_j(%)     Mcor_j(%)     age_j(yr)     Z_j      (L/M)_j    YAV?  Mstars   component_j        a/Fe...       SSP_chi2r SSP_adev(%)   SSP_AV   SSP_x(%)
  1      1.1435     3.7505E-02    6.5170E-02    1.000000E+06  0.00400  1.094E-02    0   1.0000   age020_m42            0.0000     2.3374E+00     6.9112   2.8499    74.9420
  2      0.0000     0.0000E+00    0.0000E+00    3.160000E+06  0.00400  4.007E-02    0   0.9999   age045_m42            0.0000     2.1906E+00     6.2818   2.0828    81.8674
  3      0.0000     0.0000E+00    0.0000E+00    5.010000E+06  0.00400  2.539E-02    0   0.9488   age055_m42            0.0000     2.1418E+00     6.3765   2.4131    79.3968
  4      0.0000     0.0000E+00    0.0000E+00    6.610000E+06  0.00400  2.620E-02    0   0.9220   age061_m42            0.0000     2.0316E+00     6.0270   1.9919    82.7688
  5      4.7686     1.2943E-01    1.9931E-01    1.000000E+07  0.00400  1.322E-02    0   0.8862   age070_m42            0.0000     1.4634E+00     4.7503   1.6091    88.7588
  6      1.7674     8.0448E-02    1.1981E-01    1.445000E+07  0.00400  7.883E-03    0   0.8571   age078_m42            0.0000     1.5668E+00     5.0274   1.9609    85.4624
  7      4.7379     3.2376E-01    4.5985E-01    2.512000E+07  0.00400  5.251E-03    0   0.8174   age090_m42            0.0000     1.3807E+00     4.5465   1.4566    90.2255
  8      1.0377     1.0204E-01    1.3921E-01    4.000000E+07  0.00400  3.649E-03    0   0.7851   age104_m42            0.0000     1.3804E+00     4.5695   1.2314    90.9020
  9      0.0000     0.0000E+00    0.0000E+00    5.500000E+07  0.00400  3.098E-03    0   0.7629   age110_m42            0.0000     1.5806E+00     5.0879   1.4237    89.2806
 10      0.0000     0.0000E+00    0.0000E+00    1.015200E+08  0.00400  2.228E-03    0   0.7207   age116_m42            0.0000     1.7381E+00     5.4670   1.4676    88.4588
 11      0.0000     0.0000E+00    0.0000E+00    2.861200E+08  0.00400  1.093E-03    0   0.6648   age125_m42            0.0000     1.7514E+00     5.1742   0.8528    93.4234
 12      0.0000     0.0000E+00    0.0000E+00    5.088000E+08  0.00400  6.597E-04    0   0.6365   age130_m42            0.0000     1.9278E+00     5.6864   0.8838    92.3351
 13      0.0004     7.4883E-04    7.5443E-04    1.434000E+09  0.00400  2.132E-04    0   0.5798   age139_m42            0.0000     1.7545E+00     5.8321  -0.0777    93.5489
 14      0.0000     0.0000E+00    0.0000E+00    4.250000E+09  0.00400  5.895E-05    0   0.5377   age158_m42            0.0000     2.1024E+00     6.8132  -0.4327    86.2709
 15      0.0000     0.0000E+00    0.0000E+00    7.500000E+09  0.00400  3.510E-05    0   0.5212   age171_m42            0.0000     2.3519E+00     7.3026  -0.5867    84.3912
 16      0.0000     0.0000E+00    0.0000E+00    1.300000E+10  0.00400  2.005E-05    0   0.5034   age193_m42            0.0000     2.6242E+00     7.7708  -0.7202    82.7618
 17      0.0000     0.0000E+00    0.0000E+00    1.800000E+10  0.00400  1.525E-05    0   0.4967   age213_m42            0.0000     2.5724E+00     7.6747  -0.7508    82.6560
 18      0.0057     1.6591E-04    2.8830E-04    1.000000E+06  0.00800  1.238E-02    0   1.0000   age020_m52            0.0000     2.3320E+00     6.9112   2.8471    75.0543
 19      0.0025     2.9187E-05    5.0545E-05    3.160000E+06  0.00800  3.074E-02    0   0.9966   age045_m52            0.0000     2.3190E+00     6.8750   2.7680    75.7968
 20      0.0000     0.0000E+00    0.0000E+00    5.010000E+06  0.00800  2.668E-02    0   0.9443   age055_m52            0.0000     2.1023E+00     6.3720   2.4953    78.6598
 21      0.0002     3.0779E-06    4.9080E-06    6.610000E+06  0.00800  2.136E-02    0   0.9177   age061_m52            0.0000     1.4096E+00     4.7869   1.1224    89.0864
 22      0.0024     7.1763E-05    1.1007E-04    1.000000E+07  0.00800  1.215E-02    0   0.8827   age070_m52            0.0000     1.4081E+00     4.5591   1.7695    89.4057
 23      0.0000     0.0000E+00    0.0000E+00    1.445000E+07  0.00800  8.717E-03    0   0.8552   age078_m52            0.0000     1.4849E+00     4.8800   1.9157    87.0791
 24      0.0000     0.0000E+00    0.0000E+00    2.512000E+07  0.00800  5.592E-03    0   0.8162   age090_m52            0.0000     1.3113E+00     4.4127   1.5114    91.7358
 25      0.0000     0.0000E+00    0.0000E+00    4.000000E+07  0.00800  3.896E-03    0   0.7841   age104_m52            0.0000     1.3851E+00     4.5895   1.4369    91.9547
 26      0.0000     0.0000E+00    0.0000E+00    1.015200E+08  0.00800  2.148E-03    0   0.7226   age116_m52            0.0000     1.5910E+00     5.1131   1.4123    90.1992
 27      0.0000     0.0000E+00    0.0000E+00    2.861200E+08  0.00800  9.925E-04    0   0.6683   age125_m52            0.0000     1.7997E+00     5.5770   0.9460    93.3064
 28      0.0000     0.0000E+00    0.0000E+00    9.047900E+08  0.00800  3.141E-04    0   0.6138   age135_m52            0.0000     2.2047E+00     6.5593   0.1953    95.0381
 29      0.0000     0.0000E+00    0.0000E+00    1.434000E+09  0.00800  1.719E-04    0   0.5853   age139_m52            0.0000     2.2178E+00     6.6485  -0.3676    92.2997
 30      0.0000     0.0000E+00    0.0000E+00    2.500000E+09  0.00800  7.872E-05    0   0.5600   age150_m52            0.0000     2.6046E+00     7.6475  -0.5565    86.4086
 31      0.0000     0.0000E+00    0.0000E+00    4.250000E+09  0.00800  4.336E-05    0   0.5426   age158_m52            0.0000     2.6291E+00     7.7212  -0.5661    85.3685
 32      0.0000     0.0000E+00    0.0000E+00    6.250000E+09  0.00800  3.159E-05    0   0.5319   age166_m52            0.0000     3.0402E+00     8.4269  -0.7271    83.7541
 33      0.0000     0.0000E+00    0.0000E+00    1.300000E+10  0.00800  1.361E-05    0   0.5073   age193_m52            0.0000     3.7929E+00     9.7640  -1.0000    75.6517
 34      0.0000     0.0000E+00    0.0000E+00    1.800000E+10  0.00800  9.886E-06    0   0.4990   age213_m52            0.0000     4.5120E+00    10.7488  -1.0000    71.4741
 35      0.0982     2.2828E-03    3.9666E-03    1.000000E+06  0.02000  1.544E-02    0   1.0000   age020_m62            0.0000     2.3382E+00     6.9278   2.8434    75.2156
 36      0.0000     0.0000E+00    0.0000E+00    3.160000E+06  0.02000  3.762E-02    0   0.9858   age045_m62            0.0000     2.3502E+00     6.9386   2.7841    75.8215
 37      0.0000     0.0000E+00    0.0000E+00    5.010000E+06  0.02000  3.296E-02    0   0.9342   age055_m62            0.0000     2.1306E+00     6.4047   2.3770    80.2558
 38     45.2382     1.4066E+00    2.1658E+00    8.710000E+06  0.02000  1.154E-02    0   0.8861   age067_m62            0.0000     1.9483E+00     4.9720   1.0656    99.0902
 39      0.0000     0.0000E+00    0.0000E+00    1.445000E+07  0.02000  7.663E-03    0   0.8472   age078_m62            0.0000     1.4368E+00     4.3139   1.3629    93.9357
 40      0.0000     0.0000E+00    0.0000E+00    2.512000E+07  0.02000  4.532E-03    0   0.8099   age090_m62            0.0000     1.5053E+00     4.3772   1.3406    94.4063
 41      0.6532     8.5760E-02    1.1318E-01    5.500000E+07  0.02000  2.733E-03    0   0.7595   age110_m62            0.0000     1.3226E+00     4.5534   1.4219    91.1588
 42      0.0000     0.0000E+00    0.0000E+00    1.609000E+08  0.02000  1.369E-03    0   0.6985   age120_m62            0.0000     1.6301E+00     5.3012   1.2949    92.2389
 43      0.0004     1.7075E-04    1.9920E-04    2.861200E+08  0.02000  9.013E-04    0   0.6714   age125_m62            0.0000     1.8552E+00     5.7484   1.0555    94.3930
 44      0.0000     0.0000E+00    0.0000E+00    5.088000E+08  0.02000  5.028E-04    0   0.6449   age130_m62            0.0000     2.3277E+00     6.7278   0.7390    94.1804
 45      0.0000     0.0000E+00    0.0000E+00    9.047900E+08  0.02000  2.428E-04    0   0.6179   age135_m62            0.0000     2.3580E+00     7.0837   0.1923    91.8997
 46      0.0000     0.0000E+00    0.0000E+00    1.434000E+09  0.02000  1.263E-04    0   0.5908   age139_m62            0.0000     2.4416E+00     7.3909  -0.2263    89.4002
 47      0.0000     0.0000E+00    0.0000E+00    2.500000E+09  0.02000  5.985E-05    0   0.5673   age150_m62            0.0000     2.9617E+00     8.3541  -0.5274    85.4987
 48      0.6776     7.4327E+00    7.0621E+00    4.250000E+09  0.02000  3.271E-05    0   0.5468   age158_m62            0.0000     3.6226E+00     9.4664  -0.7690    82.2623
 49      0.0000     0.0000E+00    0.0000E+00    1.000000E+10  0.02000  1.360E-05    0   0.5167   age181_m62            0.0000     4.5462E+00    10.7940  -1.0000    77.5146
 50      0.0000     0.0000E+00    0.0000E+00    1.800000E+10  0.02000  7.124E-06    0   0.5013   age213_m62            0.0000     5.6383E+00    12.1472  -1.0000    69.4815
 51      0.6813     9.4319E-03    1.6386E-02    1.000000E+06  0.05000  2.592E-02    0   0.9998   age020_m72            0.0000     2.3415E+00     6.9389   2.8329    75.2852
 52      0.3110     2.3035E-03    3.8333E-03    3.160000E+06  0.05000  4.845E-02    0   0.9577   age045_m72            0.0000     2.3055E+00     6.8242   2.6644    76.9680
 53      0.0000     0.0000E+00    0.0000E+00    5.010000E+06  0.05000  3.072E-02    0   0.9147   age055_m72            0.0000     1.8214E+00     5.2262   2.0445    86.4861
 54      0.0000     0.0000E+00    0.0000E+00    6.610000E+06  0.05000  1.455E-02    0   0.8877   age061_m72            0.0000     5.2894E+00     7.4981   1.0885   102.3534
 55      0.0000     0.0000E+00    0.0000E+00    1.000000E+07  0.05000  9.074E-03    0   0.8524   age070_m72            0.0000     2.5423E+00     6.1201   2.2638    85.3776
 56      0.0000     0.0000E+00    0.0000E+00    2.512000E+07  0.05000  4.250E-03    0   0.7902   age090_m72            0.0000     2.0227E+00     5.2880   1.9075    88.9918
 57      0.0000     0.0000E+00    0.0000E+00    4.000000E+07  0.05000  3.087E-03    0   0.7618   age104_m72            0.0000     2.0708E+00     5.1651   1.6484    91.8288
 58      0.0000     0.0000E+00    0.0000E+00    1.015200E+08  0.05000  1.700E-03    0   0.7096   age116_m72            0.0000     1.5828E+00     5.0165   1.4118    93.0565
 59      0.0000     0.0000E+00    0.0000E+00    2.861200E+08  0.05000  7.384E-04    0   0.6633   age125_m72            0.0000     2.0150E+00     6.2158   0.9496    94.5236
 60     15.7981     1.4843E+01    1.6435E+01    5.088000E+08  0.05000  3.819E-04    0   0.6372   age130_m72            0.0000     2.2329E+00     6.9730   0.5164    93.3136
 61     18.3973     3.9387E+01    4.1817E+01    9.047900E+08  0.05000  1.676E-04    0   0.6110   age135_m72            0.0000     2.8484E+00     8.2355  -0.0841    87.5983
 62      0.5039     2.0461E+00    2.0884E+00    1.434000E+09  0.05000  8.837E-05    0   0.5874   age139_m72            0.0000     3.0961E+00     8.5526  -0.5233    86.5479
 63      0.0000     0.0000E+00    0.0000E+00    2.500000E+09  0.05000  4.233E-05    0   0.5598   age150_m72            0.0000     3.9061E+00     9.8297  -0.7469    82.0880
 64      0.0000     0.0000E+00    0.0000E+00    6.250000E+09  0.05000  1.435E-05    0   0.5249   age166_m72            0.0000     4.9878E+00    11.3784  -1.0000    73.6103
 65      0.0000     0.0000E+00    0.0000E+00    1.300000E+10  0.05000  6.513E-06    0   0.5036   age193_m72            0.0000     6.7782E+00    13.3663  -1.0000    64.8376
 66      0.4303     3.4110E+01    2.9309E+01    1.800000E+10  0.05000  4.527E-06    0   0.4945   age213_m72            0.0000     8.1212E+00    14.7297  -1.0000    59.8055


## Synthesis Results - Average & Chains ##

# j      x_j: min, <> & last-chain-values for 1 ...  7 chains
  1      1.1435      1.3927      1.6539      1.4125      1.3193      3.1416      1.3276      1.6748      1.2583
  2      0.0000      0.1456      0.1424      0.0000      0.0000      0.0000      0.0356      0.6313      0.0000
  3      0.0000      0.1659      0.1275      0.6296      0.6669      0.3695      0.0000      0.0000      0.0000
  4      0.0000      0.1957      0.0000      0.0000      0.0000      0.0000      0.2614      0.4388      0.0000
  5      4.7686      4.8988      4.6701      4.1125      4.4161      5.2417      5.5728      4.2002      6.9778
  6      1.7674      1.3342      1.5364      1.1948      1.4239      1.3809      0.6991      1.4012      1.0212
  7      4.7379      3.6158      3.5328      3.3048      2.8944      3.7927      3.1996      3.2141      3.7027
  8      1.0377      0.6713      0.6793      1.0229      2.1334      2.9796      1.5025      0.5680      0.9452
  9      0.0000      0.2283      0.1581      0.1958      0.4320      0.0000      0.4243      0.0919      0.4419
 10      0.0000      0.2477      0.1084      0.0000      0.0000      0.2920      0.0177      0.0243      0.6449
 11      0.0000      0.1370      0.0000      0.1039      0.0000      0.0000      0.0000      0.0000      0.0000
 12      0.0000      0.1949      0.0000      0.0000      0.0000      0.0000      0.0000      0.0000      0.0000
 13      0.0004      3.1143      3.2811      2.6124      2.9828      3.3223      2.6057      2.8136      2.5203
 14      0.0000      0.0535      0.0000      0.0000      0.0000      0.0000      0.0000      0.0000      0.0000
 15      0.0000      0.0229      0.0000      0.0000      0.0000      0.0000      0.0000      0.0000      0.0000
 16      0.0000      0.0055      0.0000      0.0000      0.0000      0.0000      0.0000      0.0000      0.0000
 17      0.0000      0.0057      0.0000      0.0000      0.0000      0.0000      0.0000      0.0000      0.0746
 18      0.0057      0.9176      0.9057      1.0583      0.6071      0.8674      1.0016      0.9185      0.6370
 19      0.0025      0.4349      0.0000      0.2842      0.9594      0.0000      1.2170      0.0000      0.7209
 20      0.0000      0.2508      0.0000      0.0000      0.0000      0.4560      0.0000      0.0000      0.0000
 21      0.0002      4.9106      5.7418      7.1685      4.8747      3.8619      3.8236      6.0020      4.0183
 22      0.0024      1.1530      1.5581      0.9065      0.0000      0.0689      0.9336      1.8688      0.1709
 23      0.0000      0.3376      0.9847      0.2870      0.4614      0.0955      0.2834      1.0031      1.0577
 24      0.0000      0.7402      0.9864      0.4718      1.6653      0.2160      0.3219      0.0947      1.5618
 25      0.0000      0.3079      0.0528      0.3009      0.0145      0.0000      0.2310      0.0000      0.0000
 26      0.0000      0.3158      0.0000      0.0000      0.3720      0.0000      0.0201      0.0000      0.2170
 27      0.0000      0.2742      0.0000      0.0000      0.2378      0.0000      0.2485      0.0000      0.0131
 28      0.0000      0.0547      0.0000      0.0000      0.0000      0.0000      0.0000      0.0000      0.0000
 29      0.0000      0.0221      0.0000      0.0000      0.0000      0.0000      0.0000      0.0000      0.0000
 30      0.0000      0.0178      0.0000      0.0000      0.0000      0.0000      0.0000      0.0000      0.0000
 31      0.0000      0.0424      0.0000      0.0000      0.0000      0.0000      0.0000      0.0000      0.0000
 32      0.0000      0.0045      0.0000      0.0000      0.0000      0.0000      0.0000      0.0000      0.0000
 33      0.0000      0.0078      0.0000      0.0000      0.0545      0.0000      0.0000      0.0000      0.0000
 34      0.0000      0.0063      0.0000      0.0000      0.0000      0.0000      0.0000      0.0000      0.0000
 35      0.0982      0.5226      0.7819      0.3610      0.0000      0.3375      0.4968      0.0822      0.3739
 36      0.0000      0.1360      0.0000      0.0000      0.5271      0.0000      0.0000      0.6495      0.0701
 37      0.0000      0.1694      0.4142      0.0000      0.0000      0.3273      0.0000      0.0000      0.0067
 38     45.2382     34.7187     34.7471     36.8309     37.0348     35.7893     35.6987     35.9835     36.0491
 39      0.0000      0.3097      0.0000      0.0000      0.1626      0.0000      0.3239      0.0096      0.2993
 40      0.0000      0.2401      0.0000      0.0000      0.0000      0.0000      0.1769      0.0000      0.1117
 41      0.6532      1.8635      2.3582      2.3253      2.8071      1.5014      1.7048      2.7161      1.7630
 42      0.0000      0.6422      0.5273      1.1150      0.4500      0.2261      0.0000      0.0000      0.4726
 43      0.0004      0.4907      0.0000      0.0000      1.0375      0.7960      0.9099      0.0000      0.3971
 44      0.0000      0.1877      0.1716      0.0000      0.0000      0.0000      0.0000      0.0000      0.0000
 45      0.0000      0.0766      0.0000      0.0000      0.0000      0.0000      0.0000      0.0000      0.0000
 46      0.0000      0.0746      0.0000      0.0000      0.0000      0.0205      0.0000      0.0000      0.0000
