###################################################################
## OUTPUT of StarlightChains_v04.for    [Cid@UFSC - 01/Apr/2007] ##
###################################################################

## Some input info
PS15aot.txt                              [arq_obs]
Base.CB07.vall.4m                        [arq_base]
Masks.EmLines.NEW.gm                     [arq_masks]
StCv04.C11.config                        [arq_config]
   66                                    [N_base]
    0                                    [N_YAV_components = # of components with extra extinction!]
    0                                    [i_FitPowerLaw (1/0 = Yes/No)]
-9.99                                    [alpha_PowerLaw]
CCM                                      [red_law_option]
 1.458241                                [q_norm = A(l_norm)/A(V)]

## (Re)Sampling Parameters
 3741.00                                 [l_ini (A)]
 7218.00                                 [l_fin (A)]
    1.00                                 [dl    (A)]     (OBS: dl_cushion =    50.00 A)

## Normalization info
 4020.00                                 [l_norm (A) - for base]
 4010.00                                 [llow_norm (A) - window for f_obs]
 4060.00                                 [lupp_norm (A) - window for f_obs]
4.312456E-17                             [fobs_norm (in input units)]

## S/N
 3691.00                                 [llow_SN (A) - window for S/N]
 7268.00                                 [lupp_SN (A) - window for S/N]
   3.837                                 [S/N in S/N window]
   2.562                                 [S/N in norm. window]
  23.864                                 [S/N_err in S/N window]
  15.935                                 [S/N_err in norm. window]
  1.0000                                 [fscale_chi2]

## etc...
    -2007456                             [idum_orig]
  2316                                   [NOl_eff]
  2311                                   [Nl_eff]
     5    NSIGMA                         [Ntot_cliped & clip_method]
   727650                                [Nglobal_steps]
   7                                     [N_chains]
   9                                     [NEX0s_base = N_base in EX0s-fits]
 0   0   1        1   2.0   2.596E+01    [Clip-Bug, RC-Crash & Burn-In warning-flags, n_censored_weights, wei_nsig_threshold & wei_limit]
    12     12.402     11.904      0.499  [idt_all, wdt_TotTime, wdt_UsrTime & wdt_SysTime (sec)]

## Synthesis Results - Best model ##

 7.04720E-01                             [chi2/Nl_eff]
     2.98595                             [adev (%)]

   111.47048                             [sum-of-x (%)]
 3.71165E-17                             [Flux_tot (units of input spectrum!)]
 5.12949E-12                             [Mini_tot (???)]
 2.56388E-12                             [Mcor_tot (???)]

 197.28                                  [v0_min  (km/s)]
 323.62                                  [vd_min  (km/s)]
-0.1926                                  [AV_min  (mag)]
 0.0000                                  [YAV_min (mag)]

# j     x_j(%)      Mini_j(%)     Mcor_j(%)     age_j(yr)     Z_j      (L/M)_j    YAV?  Mstars   component_j        a/Fe...       SSP_chi2r SSP_adev(%)   SSP_AV   SSP_x(%)
  1      0.0000     0.0000E+00    0.0000E+00    1.000000E+06  0.00400  1.094E-02    0   1.0000   age020_m42            0.0000     5.9720E+00    11.2602   4.0000    97.7880
  2      0.0000     0.0000E+00    0.0000E+00    3.160000E+06  0.00400  4.007E-02    0   0.9999   age045_m42            0.0000     5.8356E+00    10.4782   3.3267   102.2816
  3      0.0000     0.0000E+00    0.0000E+00    5.010000E+06  0.00400  2.539E-02    0   0.9488   age055_m42            0.0000     5.8774E+00    10.7968   3.6375   100.1621
  4      0.0000     0.0000E+00    0.0000E+00    6.610000E+06  0.00400  2.620E-02    0   0.9220   age061_m42            0.0000     5.8891E+00    10.5508   3.2513   102.6688
  5      0.0000     0.0000E+00    0.0000E+00    1.000000E+07  0.00400  1.322E-02    0   0.8862   age070_m42            0.0000     6.8833E+00    12.0236   2.9416   106.3548
  6      0.0000     0.0000E+00    0.0000E+00    1.445000E+07  0.00400  7.883E-03    0   0.8571   age078_m42            0.0000     6.7955E+00    12.0444   3.2705   103.5456
  7      0.0000     0.0000E+00    0.0000E+00    2.512000E+07  0.00400  5.251E-03    0   0.8174   age090_m42            0.0000     7.1871E+00    12.2943   2.8078   107.1512
  8      0.0000     0.0000E+00    0.0000E+00    4.000000E+07  0.00400  3.649E-03    0   0.7851   age104_m42            0.0000     6.9458E+00    11.9689   2.5831   107.9269
  9      0.0000     0.0000E+00    0.0000E+00    5.500000E+07  0.00400  3.098E-03    0   0.7629   age110_m42            0.0000     6.4673E+00    11.1700   2.7530   107.1083
 10      0.0000     0.0000E+00    0.0000E+00    1.015200E+08  0.00400  2.228E-03    0   0.7207   age116_m42            0.0000     6.1626E+00    10.6413   2.7835   106.8037
 11      0.0000     0.0000E+00    0.0000E+00    2.861200E+08  0.00400  1.093E-03    0   0.6648   age125_m42            0.0000     6.3787E+00    11.0519   2.2181   110.3104
 12      0.0000     0.0000E+00    0.0000E+00    5.088000E+08  0.00400  6.597E-04    0   0.6365   age130_m42            0.0000     5.6733E+00    10.1227   2.2181   110.6385
 13      0.0000     0.0000E+00    0.0000E+00    1.434000E+09  0.00400  2.132E-04    0   0.5798   age139_m42            0.0000     4.2265E+00     8.6704   1.2356   113.3785
 14      0.0000     0.0000E+00    0.0000E+00    4.250000E+09  0.00400  5.895E-05    0   0.5377   age158_m42            0.0000     2.8037E+00     7.1420   0.7957   109.0157
 15      0.0000     0.0000E+00    0.0000E+00    7.500000E+09  0.00400  3.510E-05    0   0.5212   age171_m42            0.0000     2.3354E+00     6.4386   0.6134   108.1735
 16      0.0000     0.0000E+00    0.0000E+00    1.300000E+10  0.00400  2.005E-05    0   0.5034   age193_m42            0.0000     1.9893E+00     5.8831   0.4550   107.4482
 17      0.0000     0.0000E+00    0.0000E+00    1.800000E+10  0.00400  1.525E-05    0   0.4967   age213_m42            0.0000     2.0222E+00     5.9817   0.4291   107.0770
 18      0.0000     0.0000E+00    0.0000E+00    1.000000E+06  0.00800  1.238E-02    0   1.0000   age020_m52            0.0000     5.9515E+00    11.2258   4.0000    97.8244
 19      0.0000     0.0000E+00    0.0000E+00    3.160000E+06  0.00800  3.074E-02    0   0.9966   age045_m52            0.0000     5.8767E+00    10.9908   3.9551    97.3490
 20      0.0000     0.0000E+00    0.0000E+00    5.010000E+06  0.00800  2.668E-02    0   0.9443   age055_m52            0.0000     5.8573E+00    10.8839   3.7154    99.4490
 21      0.0000     0.0000E+00    0.0000E+00    6.610000E+06  0.00800  2.136E-02    0   0.9177   age061_m52            0.0000     6.0812E+00    11.5803   2.4287   108.1699
 22      0.0000     0.0000E+00    0.0000E+00    1.000000E+07  0.00800  1.215E-02    0   0.8827   age070_m52            0.0000     7.1637E+00    12.5590   3.1160   106.4849
 23      0.0000     0.0000E+00    0.0000E+00    1.445000E+07  0.00800  8.717E-03    0   0.8552   age078_m52            0.0000     6.7256E+00    11.9916   3.2335   105.1037
 24      0.0000     0.0000E+00    0.0000E+00    2.512000E+07  0.00800  5.592E-03    0   0.8162   age090_m52            0.0000     7.1108E+00    12.2838   2.8736   108.4290
 25      0.0000     0.0000E+00    0.0000E+00    4.000000E+07  0.00800  3.896E-03    0   0.7841   age104_m52            0.0000     6.8276E+00    11.8212   2.7968   108.7936
 26      0.0000     0.0000E+00    0.0000E+00    1.015200E+08  0.00800  2.148E-03    0   0.7226   age116_m52            0.0000     6.2520E+00    10.9353   2.7466   107.9805
 27      0.0000     0.0000E+00    0.0000E+00    2.861200E+08  0.00800  9.925E-04    0   0.6683   age125_m52            0.0000     5.6126E+00    10.0659   2.2824   111.6698
 28      0.0000     0.0000E+00    0.0000E+00    9.047900E+08  0.00800  3.141E-04    0   0.6138   age135_m52            0.0000     4.0542E+00     8.1915   1.4945   115.9514
 29      0.0000     0.0000E+00    0.0000E+00    1.434000E+09  0.00800  1.719E-04    0   0.5853   age139_m52            0.0000     3.1142E+00     7.4919   0.9079   114.1456
 30      0.0000     0.0000E+00    0.0000E+00    2.500000E+09  0.00800  7.872E-05    0   0.5600   age150_m52            0.0000     2.1083E+00     5.9793   0.6422   110.8749
 31      0.0000     0.0000E+00    0.0000E+00    4.250000E+09  0.00800  4.336E-05    0   0.5426   age158_m52            0.0000     2.0996E+00     5.9143   0.6253   109.9024
 32      0.0000     0.0000E+00    0.0000E+00    6.250000E+09  0.00800  3.159E-05    0   0.5319   age166_m52            0.0000     1.6605E+00     5.0381   0.4288   109.7415
 33      0.0000     0.0000E+00    0.0000E+00    1.300000E+10  0.00800  1.361E-05    0   0.5073   age193_m52            0.0000     1.1706E+00     3.9895  -0.0354   108.9679
 34      0.0000     0.0000E+00    0.0000E+00    1.800000E+10  0.00800  9.886E-06    0   0.4990   age213_m52            0.0000     9.7225E-01     3.5429  -0.1346   108.1338
 35      0.0000     0.0000E+00    0.0000E+00    1.000000E+06  0.02000  1.544E-02    0   1.0000   age020_m62            0.0000     5.9493E+00    11.2150   4.0000    97.8899
 36      0.0000     0.0000E+00    0.0000E+00    3.160000E+06  0.02000  3.762E-02    0   0.9858   age045_m62            0.0000     5.9103E+00    11.0654   3.9667    97.6225
 37      0.0000     0.0000E+00    0.0000E+00    5.010000E+06  0.02000  3.296E-02    0   0.9342   age055_m62            0.0000     5.6960E+00    10.4500   3.6017   101.2300
 38      0.0000     0.0000E+00    0.0000E+00    8.710000E+06  0.02000  1.154E-02    0   0.8861   age067_m62            0.0000     1.0862E+01    16.2675   2.5159   112.5692
 39      0.0000     0.0000E+00    0.0000E+00    1.445000E+07  0.02000  7.663E-03    0   0.8472   age078_m62            0.0000     7.9217E+00    13.5690   2.7516   109.7972
 40      1.7075     2.4456E-03    3.9628E-03    2.512000E+07  0.02000  4.532E-03    0   0.8099   age090_m62            0.0000     8.2108E+00    13.7280   2.7457   109.5065
 41      0.0000     0.0000E+00    0.0000E+00    5.500000E+07  0.02000  2.733E-03    0   0.7595   age110_m62            0.0000     6.6693E+00    11.7830   2.7745   108.2520
 42      0.0000     0.0000E+00    0.0000E+00    1.609000E+08  0.02000  1.369E-03    0   0.6985   age120_m62            0.0000     6.1037E+00    10.6500   2.6333   110.2150
 43      0.0000     0.0000E+00    0.0000E+00    2.861200E+08  0.02000  9.013E-04    0   0.6714   age125_m62            0.0000     5.7820E+00    10.0565   2.3894   113.0251
 44      0.0000     0.0000E+00    0.0000E+00    5.088000E+08  0.02000  5.028E-04    0   0.6449   age130_m62            0.0000     4.7235E+00     8.7102   2.0303   115.1429
 45      0.0000     0.0000E+00    0.0000E+00    9.047900E+08  0.02000  2.428E-04    0   0.6179   age135_m62            0.0000     3.2589E+00     7.2314   1.4434   114.7120
 46      0.0000     0.0000E+00    0.0000E+00    1.434000E+09  0.02000  1.263E-04    0   0.5908   age139_m62            0.0000     2.4819E+00     6.3630   0.9925   113.4517
 47      0.0000     0.0000E+00    0.0000E+00    2.500000E+09  0.02000  5.985E-05    0   0.5673   age150_m62            0.0000     1.7342E+00     5.1347   0.6298   111.8613
 48      0.0000     0.0000E+00    0.0000E+00    4.250000E+09  0.02000  3.271E-05    0   0.5468   age158_m62            0.0000     1.1704E+00     3.9289   0.3297   110.7966
 49      0.0000     0.0000E+00    0.0000E+00    1.000000E+10  0.02000  1.360E-05    0   0.5167   age181_m62            0.0000     8.6193E-01     3.2872  -0.0077   110.0632
 50      0.0000     0.0000E+00    0.0000E+00    1.800000E+10  0.02000  7.124E-06    0   0.5013   age213_m62            0.0000     8.0920E-01     3.3548  -0.2053   108.7931
 51      0.0000     0.0000E+00    0.0000E+00    1.000000E+06  0.05000  2.592E-02    0   0.9998   age020_m72            0.0000     5.9836E+00    11.2654   4.0000    97.5528
 52      4.1568     5.5693E-04    1.0671E-03    3.160000E+06  0.05000  4.845E-02    0   0.9577   age045_m72            0.0000     5.7626E+00    10.7222   3.8552    98.6965
 53      0.0000     0.0000E+00    0.0000E+00    5.010000E+06  0.05000  3.072E-02    0   0.9147   age055_m72            0.0000     6.8380E+00    12.5659   3.3651   104.4782
 54      0.0000     0.0000E+00    0.0000E+00    6.610000E+06  0.05000  1.455E-02    0   0.8877   age061_m72            0.0000     1.4082E+01    18.4246   2.5963   113.6640
 55      0.0000     0.0000E+00    0.0000E+00    1.000000E+07  0.05000  9.074E-03    0   0.8524   age070_m72            0.0000     7.0641E+00    12.7198   3.5839   103.2811
 56      0.0000     0.0000E+00    0.0000E+00    2.512000E+07  0.05000  4.250E-03    0   0.7902   age090_m72            0.0000     7.1487E+00    12.5067   3.2668   105.5605
 57      0.0000     0.0000E+00    0.0000E+00    4.000000E+07  0.05000  3.087E-03    0   0.7618   age104_m72            0.0000     7.4794E+00    12.6464   3.0356   107.5206
 58      0.0000     0.0000E+00    0.0000E+00    1.015200E+08  0.05000  1.700E-03    0   0.7096   age116_m72            0.0000     6.5422E+00    11.2314   2.7753   109.9399
 59      0.0000     0.0000E+00    0.0000E+00    2.861200E+08  0.05000  7.384E-04    0   0.6633   age125_m72            0.0000     5.1523E+00     9.3304   2.2674   114.1166
 60      0.0000     0.0000E+00    0.0000E+00    5.088000E+08  0.05000  3.819E-04    0   0.6372   age130_m72            0.0000     3.7321E+00     7.6898   1.7782   115.7822
 61      0.0000     0.0000E+00    0.0000E+00    9.047900E+08  0.05000  1.676E-04    0   0.6110   age135_m72            0.0000     2.1540E+00     5.5941   1.0848   113.8125
 62      0.0000     0.0000E+00    0.0000E+00    1.434000E+09  0.05000  8.837E-05    0   0.5874   age139_m72            0.0000     1.5954E+00     4.8829   0.6312   113.4479
 63     32.0337     4.9124E+00    5.5017E+00    2.500000E+09  0.05000  4.233E-05    0   0.5598   age150_m72            0.0000     1.0249E+00     3.6485   0.3340   111.5739
 64      0.7080     3.2028E-01    3.3635E-01    6.250000E+09  0.05000  1.435E-05    0   0.5249   age166_m72            0.0000     7.6655E-01     3.1326  -0.1011   109.5010
 65     22.2233     2.2149E+01    2.2316E+01    1.300000E+10  0.05000  6.513E-06    0   0.5036   age193_m72            0.0000     8.0552E-01     3.5122  -0.3656   110.0485
 66     50.6412     7.2615E+01    7.1840E+01    1.800000E+10  0.05000  4.527E-06    0   0.4945   age213_m72            0.0000     9.4995E-01     4.0249  -0.5145   109.4128


## Synthesis Results - Average & Chains ##

# j      x_j: min, <> & last-chain-values for 1 ...  7 chains
  1      0.0000      0.0358      0.0000      0.0000      0.0000      0.0000      0.0000      0.2575      0.0000
  2      0.0000      0.0571      0.0000      0.0000      0.0000      0.0000      0.0000      0.0973      0.0000
  3      0.0000      0.0534      0.0000      0.0000      0.0000      0.0000      0.1038      0.0000      0.7325
  4      0.0000      0.0304      0.0000      0.0000      0.0000      0.0000      0.0000      0.0528      0.2802
  5      0.0000      0.0863      0.3484      0.0128      0.0000      0.0000      0.1965      0.0000      0.0000
  6      0.0000      0.0506      0.3207      0.0000      0.0731      0.0000      0.0000      0.0000      0.0000
  7      0.0000      0.0266      0.0000      0.0000      0.0000      0.1051      0.0000      0.0000      0.0000
  8      0.0000      0.0410      0.0000      0.3814      0.0000      0.0000      0.0000      0.0000      0.0000
  9      0.0000      0.0345      0.0000      0.0000      0.0000      0.1201      0.0000      0.0000      0.0000
 10      0.0000      0.0613      0.0000      0.0000      0.0000      0.5229      0.0000      0.0000      0.0000
 11      0.0000      0.0524      0.0000      0.0827      0.0000      0.0000      0.0000      0.0000      0.0000
 12      0.0000      0.0745      0.0000      0.0000      0.0000      0.7606      0.0000      0.0109      0.0000
 13      0.0000      0.2173      0.0000      0.0126      0.0000      0.0000      0.3985      0.0000      0.0000
 14      0.0000      0.0951      0.0000      0.0000      0.0000      0.4937      0.0000      0.0000      0.0000
 15      0.0000      0.2222      0.0000      0.2663      0.2483      0.0004      2.0159      0.0000      0.0000
 16      0.0000      0.2114      0.0000      0.0000      0.0000      0.0000      0.0000      0.3707      0.0000
 17      0.0000      0.3333      0.0110      0.5583      0.7043      0.0000      0.0000      0.0000      0.0000
 18      0.0000      0.0454      0.0000      0.2398      0.0000      0.0000      0.5810      0.0000      0.0000
 19      0.0000      0.0198      0.0000      0.0000      0.0000      0.0204      0.0000      0.0000      0.0000
 20      0.0000      0.0306      0.0000      0.0000      0.0000      0.0000      0.0482      0.0000      0.2518
 21      0.0000      0.0429      0.0000      0.0000      0.0000      0.2597      0.0000      0.0000      0.0000
 22      0.0000      0.0631      0.0000      0.0000      0.5716      0.0000      0.0000      0.0000      0.0000
 23      0.0000      0.0426      0.0000      0.0000      0.1377      0.0000      0.0000      0.0000      0.0000
 24      0.0000      0.0270      0.0000      0.1075      0.0000      0.3008      0.0000      0.2209      0.0000
 25      0.0000      0.0316      0.0095      0.0000      0.0000      0.0000      0.2025      0.1733      0.1326
 26      0.0000      0.1117      0.0000      0.2183      0.0000      0.0000      0.0000      0.0000      0.0000
 27      0.0000      0.0396      0.0120      0.1956      0.0000      0.0000      0.0000      0.0000      0.0000
 28      0.0000      0.1007      0.0000      0.2337      0.0000      0.0000      0.0000      0.5553      0.0000
 29      0.0000      0.1509      0.0617      0.0000      0.0000      0.0000      0.0000      0.0704      0.0000
 30      0.0000      0.2920      0.0000      0.0000      1.2938      0.1723      0.0000      0.0000      0.0000
 31      0.0000      0.1203      0.0000      0.0000      0.0000      0.0000      0.0000      0.0000      0.0000
 32      0.0000      0.1500      0.0000      0.0000      0.0000      1.0456      0.0000      0.0000      0.0000
 33      0.0000      0.1802      0.0000      0.0000      0.0000      0.0130      0.0000      0.0000      0.0389
 34      0.0000      0.2855      0.0000      0.1722      0.1131      0.0000      0.0000      0.0000      0.0000
 35      0.0000      0.0339      0.0000      0.0000      0.0000      0.0000      0.0000      0.0000      0.0000
 36      0.0000      0.0337      0.0000      0.2678      0.0000      0.0000      0.0000      0.0441      0.0000
 37      0.0000      0.0285      0.3495      0.0000      0.0000      0.0000      0.0000      0.0049      0.0000
 38      0.0000      0.0778      0.0000      0.0000      0.0000      0.0000      0.0000      0.0000      0.0077
 39      0.0000      0.0451      0.0000      0.0000      0.0000      0.3661      0.0000      0.2050      0.0000
 40      1.7075      0.0622      0.6172      0.0000      0.0000      0.0000      0.0000      0.0000      0.0000
 41      0.0000      0.0715      0.0000      0.0000      0.0000      0.3733      0.5520      0.0000      0.0000
 42      0.0000      0.0295      0.0000      0.0000      0.0213      0.0000      0.0000      0.2779      0.0000
 43      0.0000      0.0255      0.0000      0.0000      0.0000      0.0000      0.0000      0.0000      0.0000
 44      0.0000      0.0672      0.0000      0.0000      0.0000      0.0000      0.0000      0.0000      0.0000
 45      0.0000      0.0839      0.4132      0.0000      0.0000      0.1168      0.0000      0.0000      0.0000
 46      0.0000      0.0961      0.0000      0.0000      0.0000      0.0000      0.0000      0.0000      0.0000
