###################################################################
## OUTPUT of StarlightChains_v04.for    [Cid@UFSC - 01/Apr/2007] ##
###################################################################

## Some input info
PS15sv.txt                               [arq_obs]
Base.CB07.vall.4m                        [arq_base]
Masks.EmLines.NEW.gm                     [arq_masks]
StCv04.C11.config                        [arq_config]
   66                                    [N_base]
    0                                    [N_YAV_components = # of components with extra extinction!]
    0                                    [i_FitPowerLaw (1/0 = Yes/No)]
-9.99                                    [alpha_PowerLaw]
CCM                                      [red_law_option]
 1.458241                                [q_norm = A(l_norm)/A(V)]

## (Re)Sampling Parameters
 3741.00                                 [l_ini (A)]
 7218.00                                 [l_fin (A)]
    1.00                                 [dl    (A)]     (OBS: dl_cushion =    50.00 A)

## Normalization info
 4020.00                                 [l_norm (A) - for base]
 4010.00                                 [llow_norm (A) - window for f_obs]
 4060.00                                 [lupp_norm (A) - window for f_obs]
2.243286E-17                             [fobs_norm (in input units)]

## S/N
 3691.00                                 [llow_SN (A) - window for S/N]
 7268.00                                 [lupp_SN (A) - window for S/N]
   6.737                                 [S/N in S/N window]
   6.381                                 [S/N in norm. window]
   7.180                                 [S/N_err in S/N window]
   6.800                                 [S/N_err in norm. window]
  1.0000                                 [fscale_chi2]

## etc...
    -2007458                             [idum_orig]
  2293                                   [NOl_eff]
  2268                                   [Nl_eff]
    25    NSIGMA                         [Ntot_cliped & clip_method]
  1893150                                [Nglobal_steps]
   7                                     [N_chains]
  33                                     [NEX0s_base = N_base in EX0s-fits]
 0   0   1       28   2.0   1.551E+01    [Clip-Bug, RC-Crash & Burn-In warning-flags, n_censored_weights, wei_nsig_threshold & wei_limit]
    23     22.846     22.346      0.499  [idt_all, wdt_TotTime, wdt_UsrTime & wdt_SysTime (sec)]

## Synthesis Results - Best model ##

 5.92964E-01                             [chi2/Nl_eff]
     6.77585                             [adev (%)]

    95.88663                             [sum-of-x (%)]
 1.71645E-16                             [Flux_tot (units of input spectrum!)]
 1.83628E-12                             [Mini_tot (???)]
 9.30731E-13                             [Mcor_tot (???)]

  63.20                                  [v0_min  (km/s)]
 326.83                                  [vd_min  (km/s)]
 1.5464                                  [AV_min  (mag)]
 0.0000                                  [YAV_min (mag)]

# j     x_j(%)      Mini_j(%)     Mcor_j(%)     age_j(yr)     Z_j      (L/M)_j    YAV?  Mstars   component_j        a/Fe...       SSP_chi2r SSP_adev(%)   SSP_AV   SSP_x(%)
  1      3.1878     2.8406E-02    5.6043E-02    1.000000E+06  0.00400  1.094E-02    0   1.0000   age020_m42            0.0000     8.6750E-01     7.6699   3.4848    82.5695
  2      0.0000     0.0000E+00    0.0000E+00    3.160000E+06  0.00400  4.007E-02    0   0.9999   age045_m42            0.0000     8.3829E-01     7.8310   2.7192    90.0873
  3      0.0000     0.0000E+00    0.0000E+00    5.010000E+06  0.00400  2.539E-02    0   0.9488   age055_m42            0.0000     8.1122E-01     7.6222   3.0528    87.2705
  4      0.0000     0.0000E+00    0.0000E+00    6.610000E+06  0.00400  2.620E-02    0   0.9220   age061_m42            0.0000     8.1058E-01     7.7462   2.6393    90.6180
  5      6.0430     4.4561E-02    7.7912E-02    1.000000E+07  0.00400  1.322E-02    0   0.8862   age070_m42            0.0000     6.5694E-01     7.0549   2.3510    93.0036
  6      4.6970     5.8084E-02    9.8221E-02    1.445000E+07  0.00400  7.883E-03    0   0.8571   age078_m42            0.0000     6.6839E-01     7.0233   2.6895    90.1251
  7      7.2246     1.3412E-01    2.1630E-01    2.512000E+07  0.00400  5.251E-03    0   0.8174   age090_m42            0.0000     6.4451E-01     7.0509   2.2158    93.8052
  8      0.0000     0.0000E+00    0.0000E+00    4.000000E+07  0.00400  3.649E-03    0   0.7851   age104_m42            0.0000     6.6444E-01     7.1931   1.9837    94.7937
  9      0.0000     0.0000E+00    0.0000E+00    5.500000E+07  0.00400  3.098E-03    0   0.7629   age110_m42            0.0000     7.4683E-01     7.5710   2.1331    94.9522
 10      0.0000     0.0000E+00    0.0000E+00    1.015200E+08  0.00400  2.228E-03    0   0.7207   age116_m42            0.0000     8.2600E-01     7.8777   2.1514    95.2152
 11     14.8280     1.3225E+00    1.7346E+00    2.861200E+08  0.00400  1.093E-03    0   0.6648   age125_m42            0.0000     8.0646E-01     7.8494   1.5831    98.4074
 12      0.0000     0.0000E+00    0.0000E+00    5.088000E+08  0.00400  6.597E-04    0   0.6365   age130_m42            0.0000     9.5405E-01     8.3533   1.5727    99.1468
 13      0.0000     0.0000E+00    0.0000E+00    1.434000E+09  0.00400  2.132E-04    0   0.5798   age139_m42            0.0000     1.0473E+00     8.8014   0.6080   100.6456
 14      0.0000     0.0000E+00    0.0000E+00    4.250000E+09  0.00400  5.895E-05    0   0.5377   age158_m42            0.0000     1.0776E+00     8.9727   0.1980    95.2231
 15      3.0569     8.4899E+00    8.7302E+00    7.500000E+09  0.00400  3.510E-05    0   0.5212   age171_m42            0.0000     1.1678E+00     9.2735   0.0225    94.0739
 16      6.6624     3.2393E+01    3.2172E+01    1.300000E+10  0.00400  2.005E-05    0   0.5034   age193_m42            0.0000     1.2549E+00     9.5401  -0.1284    92.9964
 17      2.7984     1.7889E+01    1.7530E+01    1.800000E+10  0.00400  1.525E-05    0   0.4967   age213_m42            0.0000     1.2308E+00     9.4794  -0.1532    92.6520
 18      2.1434     1.6878E-02    3.3299E-02    1.000000E+06  0.00800  1.238E-02    0   1.0000   age020_m52            0.0000     8.6806E-01     7.6776   3.4811    82.7277
 19      3.0006     9.5156E-03    1.8710E-02    3.160000E+06  0.00800  3.074E-02    0   0.9966   age045_m52            0.0000     8.6381E-01     7.7050   3.3984    83.6908
 20      1.7322     6.3291E-03    1.1791E-02    5.010000E+06  0.00800  2.668E-02    0   0.9443   age055_m52            0.0000     8.1144E-01     7.5991   3.1379    86.3400
 21      0.0000     0.0000E+00    0.0000E+00    6.610000E+06  0.00800  2.136E-02    0   0.9177   age061_m52            0.0000     6.6480E-01     6.9738   1.8654    93.2827
 22      3.5657     2.8609E-02    4.9823E-02    1.000000E+07  0.00800  1.215E-02    0   0.8827   age070_m52            0.0000     6.2993E-01     6.8892   2.5374    92.5842
 23      2.0141     2.2524E-02    3.8004E-02    1.445000E+07  0.00800  8.717E-03    0   0.8552   age078_m52            0.0000     6.6378E-01     7.0369   2.6497    91.5924
 24      0.0000     0.0000E+00    0.0000E+00    2.512000E+07  0.00800  5.592E-03    0   0.8162   age090_m52            0.0000     6.4737E-01     7.1038   2.2793    95.0043
 25      0.0000     0.0000E+00    0.0000E+00    4.000000E+07  0.00800  3.896E-03    0   0.7841   age104_m52            0.0000     6.8197E-01     7.3159   2.1870    95.9880
 26      0.0000     0.0000E+00    0.0000E+00    1.015200E+08  0.00800  2.148E-03    0   0.7226   age116_m52            0.0000     7.7107E-01     7.6676   2.1212    95.9417
 27      0.0000     0.0000E+00    0.0000E+00    2.861200E+08  0.00800  9.925E-04    0   0.6683   age125_m52            0.0000     9.6992E-01     8.3826   1.6357   100.1029
 28      0.0000     0.0000E+00    0.0000E+00    9.047900E+08  0.00800  3.141E-04    0   0.6138   age135_m52            0.0000     1.2054E+00     9.3689   0.8542   103.4247
 29      0.0000     0.0000E+00    0.0000E+00    1.434000E+09  0.00800  1.719E-04    0   0.5853   age139_m52            0.0000     1.1261E+00     9.1796   0.2924   100.4877
 30      0.0000     0.0000E+00    0.0000E+00    2.500000E+09  0.00800  7.872E-05    0   0.5600   age150_m52            0.0000     1.2910E+00     9.6905   0.0406    96.8052
 31      0.0000     0.0000E+00    0.0000E+00    4.250000E+09  0.00800  4.336E-05    0   0.5426   age158_m52            0.0000     1.2857E+00     9.6774   0.0273    95.7878
 32      0.0000     0.0000E+00    0.0000E+00    6.250000E+09  0.00800  3.159E-05    0   0.5319   age166_m52            0.0000     1.4696E+00    10.2067  -0.1618    95.2065
 33      1.3987     1.0019E+01    1.0027E+01    1.300000E+10  0.00800  1.361E-05    0   0.5073   age193_m52            0.0000     1.7537E+00    10.9702  -0.6106    93.7250
 34      2.9788     2.9374E+01    2.8918E+01    1.800000E+10  0.00800  9.886E-06    0   0.4990   age213_m52            0.0000     1.9971E+00    11.5945  -0.7035    92.6193
 35      3.7884     2.3919E-02    4.7191E-02    1.000000E+06  0.02000  1.544E-02    0   1.0000   age020_m62            0.0000     8.6877E-01     7.6785   3.4774    82.9034
 36      0.0000     0.0000E+00    0.0000E+00    3.160000E+06  0.02000  3.762E-02    0   0.9858   age045_m62            0.0000     8.6545E-01     7.7030   3.4139    83.7422
 37      5.5529     1.6423E-02    3.0271E-02    5.010000E+06  0.02000  3.296E-02    0   0.9342   age055_m62            0.0000     8.3064E-01     7.7736   3.0031    88.7474
 38      0.0000     0.0000E+00    0.0000E+00    8.710000E+06  0.02000  1.154E-02    0   0.8861   age067_m62            0.0000     7.1000E-01     7.2284   1.9979    95.1552
 39      0.0006     7.3546E-06    1.2293E-05    1.445000E+07  0.02000  7.663E-03    0   0.8472   age078_m62            0.0000     6.0452E-01     6.7967   2.1884    94.7362
 40      0.0000     0.0000E+00    0.0000E+00    2.512000E+07  0.02000  4.532E-03    0   0.8099   age090_m62            0.0000     6.0644E-01     6.8960   2.1751    94.8217
 41      0.0000     0.0000E+00    0.0000E+00    5.500000E+07  0.02000  2.733E-03    0   0.7595   age110_m62            0.0000     6.6756E-01     7.2103   2.1729    95.1278
 42      0.1283     9.1378E-03    1.2593E-02    1.609000E+08  0.02000  1.369E-03    0   0.6985   age120_m62            0.0000     8.5706E-01     7.9544   1.9970    98.4013
 43      0.0000     0.0000E+00    0.0000E+00    2.861200E+08  0.02000  9.013E-04    0   0.6714   age125_m62            0.0000     1.0503E+00     8.5861   1.7393   101.5330
 44      0.0000     0.0000E+00    0.0000E+00    5.088000E+08  0.02000  5.028E-04    0   0.6449   age130_m62            0.0000     1.3013E+00     9.4306   1.3753   103.5195
 45      0.0000     0.0000E+00    0.0000E+00    9.047900E+08  0.02000  2.428E-04    0   0.6179   age135_m62            0.0000     1.2761E+00     9.6410   0.8076   102.0121
 46      0.0000     0.0000E+00    0.0000E+00    1.434000E+09  0.02000  1.263E-04    0   0.5908   age139_m62            0.0000     1.2773E+00     9.7161   0.3768    99.8225
 47      0.0000     0.0000E+00    0.0000E+00    2.500000E+09  0.02000  5.985E-05    0   0.5673   age150_m62            0.0000     1.4610E+00    10.2555   0.0333    97.3624
 48      0.0000     0.0000E+00    0.0000E+00    4.250000E+09  0.02000  3.271E-05    0   0.5468   age158_m62            0.0000     1.7750E+00    11.0941  -0.2519    95.6028
 49      0.0000     0.0000E+00    0.0000E+00    1.000000E+10  0.02000  1.360E-05    0   0.5167   age181_m62            0.0000     2.2207E+00    12.2261  -0.5716    93.9977
 50      0.0000     0.0000E+00    0.0000E+00    1.800000E+10  0.02000  7.124E-06    0   0.5013   age213_m62            0.0000     2.5885E+00    13.1056  -0.7508    91.9861
 51      0.0000     0.0000E+00    0.0000E+00    1.000000E+06  0.05000  2.592E-02    0   0.9998   age020_m72            0.0000     8.7361E-01     7.6809   3.4715    82.8159
 52      7.7738     1.5641E-02    2.9554E-02    3.160000E+06  0.05000  4.845E-02    0   0.9577   age045_m72            0.0000     8.5538E-01     7.7827   3.2824    85.4687
 53      2.3259     7.3806E-03    1.3320E-02    5.010000E+06  0.05000  3.072E-02    0   0.9147   age055_m72            0.0000     6.5563E-01     6.9188   2.8005    90.0687
 54     10.6024     7.1035E-02    1.2441E-01    6.610000E+06  0.05000  1.455E-02    0   0.8877   age061_m72            0.0000     9.6111E-01     8.2915   2.0792    95.6587
 55      0.0000     0.0000E+00    0.0000E+00    1.000000E+07  0.05000  9.074E-03    0   0.8524   age070_m72            0.0000     6.9760E-01     7.1286   3.0060    89.4035
 56      0.0000     0.0000E+00    0.0000E+00    2.512000E+07  0.05000  4.250E-03    0   0.7902   age090_m72            0.0000     6.6452E-01     7.1771   2.6675    92.4798
 57      0.0247     7.7977E-04    1.1720E-03    4.000000E+07  0.05000  3.087E-03    0   0.7618   age104_m72            0.0000     6.7364E-01     7.3388   2.4273    94.6371
 58      0.3579     2.0526E-02    2.8737E-02    1.015200E+08  0.05000  1.700E-03    0   0.7096   age116_m72            0.0000     7.9344E-01     7.7688   2.1382    98.2029
 59      0.0000     0.0000E+00    0.0000E+00    2.861200E+08  0.05000  7.384E-04    0   0.6633   age125_m72            0.0000     1.1935E+00     9.1013   1.6105   102.7629
 60      0.0000     0.0000E+00    0.0000E+00    5.088000E+08  0.05000  3.819E-04    0   0.6372   age130_m72            0.0000     1.3158E+00     9.6870   1.1337   103.5221
 61      0.0000     0.0000E+00    0.0000E+00    9.047900E+08  0.05000  1.676E-04    0   0.6110   age135_m72            0.0000     1.4700E+00    10.4001   0.4714    99.9996
 62      0.0000     0.0000E+00    0.0000E+00    1.434000E+09  0.05000  8.837E-05    0   0.5874   age139_m72            0.0000     1.5451E+00    10.5985   0.0287    98.9937
 63      0.0000     0.0000E+00    0.0000E+00    2.500000E+09  0.05000  4.233E-05    0   0.5598   age150_m72            0.0000     1.8948E+00    11.4553  -0.2471    96.1828
 64      0.0000     0.0000E+00    0.0000E+00    6.250000E+09  0.05000  1.435E-05    0   0.5249   age166_m72            0.0000     2.3438E+00    12.5839  -0.6613    93.3024
 65      0.0000     0.0000E+00    0.0000E+00    1.300000E+10  0.05000  6.513E-06    0   0.5036   age193_m72            0.0000     2.8024E+00    13.6876  -0.8998    92.4401
 66      0.0000     0.0000E+00    0.0000E+00    1.800000E+10  0.05000  4.527E-06    0   0.4945   age213_m72            0.0000     3.0890E+00    14.3312  -1.0000    89.8715


## Synthesis Results - Average & Chains ##

# j      x_j: min, <> & last-chain-values for 1 ...  7 chains
  1      3.1878      1.1872      0.9175      1.4825      1.6659      3.0408      1.7487      0.9008      2.9068
  2      0.0000      0.6055      0.0000      0.0567      0.3768      0.7544      1.1600      0.0000      0.7341
  3      0.0000      1.9473      0.4179      0.9332      1.7856      2.7455      2.5875      3.1054      0.1217
  4      0.0000      1.6760      1.8463      1.9824      1.5538      0.8176      2.0525      0.4077      0.2205
  5      6.0430      3.8543      1.4488      4.1292      4.6269      3.5243      3.7097      5.3636      4.3454
  6      4.6970      1.4487      5.8654      0.5409      1.1467      0.1983      1.6398      2.8281      0.5242
  7      7.2246      1.5961      3.6974      5.2675      3.7915      2.5650      1.5086      3.1578      0.7943
  8      0.0000      1.3415      1.4960      1.4690      1.2543      1.8052      0.0000      0.0000      2.7847
  9      0.0000      1.2257      5.7804      0.3224      2.9218      2.8561      1.1095      0.0000      0.6911
 10      0.0000      1.0385      0.6445      3.4691      1.3990      0.0000      1.0242      0.0000      1.9923
 11     14.8280      4.1988      5.5694      6.7362      6.5266      6.2490      1.5445      7.3717      6.5116
 12      0.0000      0.9755      0.0000      0.0000      1.6613      0.0000      3.0784      2.8408      0.0000
 13      0.0000      0.4030      0.0000      0.0000      0.0000      0.2962      0.0000      0.4980      0.0000
 14      0.0000      2.0069      1.6132      1.4237      2.2242      3.1777      1.1909      2.1764      1.9120
 15      3.0569      4.3460      3.0726      5.0786      5.2399      4.4855      4.3462      4.4984      5.7658
 16      6.6624      5.4227      8.3505      5.0759      6.3112      4.8485      6.5949      4.8585      5.0589
 17      2.7984      2.0127      2.2663      1.6380      3.3320      4.2717      1.4492      2.5124      2.1509
 18      2.1434      1.1030      0.0000      0.9255      1.2182      3.4607      0.5152      2.4930      1.1825
 19      3.0006      0.4289      0.1855      0.8473      1.4164      0.8792      0.0000      0.3385      1.2871
 20      1.7322      0.7080      0.0000      0.7389      1.4101      1.3880      0.0000      0.0000      1.6442
 21      0.0000      1.0701      0.0000      0.0000      0.9524      2.6328      0.9867      0.0000      0.0000
 22      3.5657      1.5199      4.4940      0.4894      0.0000      0.0000      2.0713      3.1745      1.5305
 23      2.0141      1.2087      1.0156      0.0000      0.8662      0.0000      1.5500      3.2039      1.0837
 24      0.0000      1.7310      0.1860      0.0000      0.8677      2.8838      0.0000      0.3919      1.2698
 25      0.0000      0.8198      0.0000      0.0000      1.0238      0.0000      0.0000      1.2553      0.0000
 26      0.0000      0.6258      0.0000      0.0000      0.0000      0.0000      0.7119      0.0000      0.3554
 27      0.0000      0.6800      0.5061      0.0000      0.2526      0.3771      0.0000      0.0000      0.0000
 28      0.0000      0.2272      0.0000      0.0000      0.0000      0.6920      0.0000      0.0000      0.0000
 29      0.0000      0.2639      0.0000      0.2684      0.0000      0.0000      0.2918      0.0000      0.1555
 30      0.0000      0.6609      0.1873      0.0000      0.0000      0.0000      0.0000      0.7648      0.0000
 31      0.0000      1.9539      1.0024      1.9948      0.0000      2.2452      1.3170      2.1275      1.9979
 32      0.0000      0.8949      0.0000      0.9536      0.9973      0.0000      0.6749      1.3638      0.0000
 33      1.3987      2.4283      2.5105      2.0681      2.2828      2.4660      2.9174      1.8004      2.8689
 34      2.9788      3.4313      4.6775      4.2922      3.7807      3.3195      4.1108      3.1597      2.7874
 35      3.7884      0.8186      0.0000      0.4335      0.0892      1.0355      1.2900      0.0000      1.0987
 36      0.0000      1.2382      1.8842      0.4203      4.3609      1.0300      1.1644      0.8708      0.1341
 37      5.5529      1.1228      0.3741      3.9048      0.0000      2.7034      1.9804      0.7038      1.0950
 38      0.0000      8.1406      7.7088      7.3211      9.7557      0.0000      8.7055      6.1900      9.1395
 39      0.0006      1.7540      0.9894      0.0000      1.8321      1.1687      2.5055      3.5464      2.0979
 40      0.0000      1.3544      1.7143      0.9590      1.5363      1.7688      0.0000      1.0587      0.0000
 41      0.0000      0.8126      1.8497      0.0000      0.0000      1.1281      3.6176      0.0000      0.5145
 42      0.1283      0.9206      0.0000      0.0000      0.0000      0.0000      3.7160      1.7005      6.0428
 43      0.0000      0.6721      0.0000      0.0000      0.2666      0.5091      0.0000      0.0000      0.0000
 44      0.0000      0.3427      0.0000      0.0000      0.0000      0.1310      0.0000      0.0000      0.0000
 45      0.0000      0.2165      0.0000      0.0000      0.0000      0.0000      0.0000      0.0000      0.0000
 46      0.0000      0.1682      0.0000      0.0120      0.0000      0.0000      0.0000      0.0000      0.0000
