###################################################################
## OUTPUT of StarlightChains_v04.for    [Cid@UFSC - 01/Apr/2007] ##
###################################################################

## Some input info
PSNJ14002117.txt                         [arq_obs]
Base.CB07.vall.4m                        [arq_base]
Masks.EmLines.NEW.gm                     [arq_masks]
StCv04.C11.config                        [arq_config]
   66                                    [N_base]
    0                                    [N_YAV_components = # of components with extra extinction!]
    0                                    [i_FitPowerLaw (1/0 = Yes/No)]
-9.99                                    [alpha_PowerLaw]
CCM                                      [red_law_option]
 1.458241                                [q_norm = A(l_norm)/A(V)]

## (Re)Sampling Parameters
 3741.00                                 [l_ini (A)]
 7218.00                                 [l_fin (A)]
    1.00                                 [dl    (A)]     (OBS: dl_cushion =    50.00 A)

## Normalization info
 4020.00                                 [l_norm (A) - for base]
 4010.00                                 [llow_norm (A) - window for f_obs]
 4060.00                                 [lupp_norm (A) - window for f_obs]
9.953909E-17                             [fobs_norm (in input units)]

## S/N
 3691.00                                 [llow_SN (A) - window for S/N]
 7268.00                                 [lupp_SN (A) - window for S/N]
   6.551                                 [S/N in S/N window]
   6.252                                 [S/N in norm. window]
  20.384                                 [S/N_err in S/N window]
  19.453                                 [S/N_err in norm. window]
  1.0000                                 [fscale_chi2]

## etc...
    -2007459                             [idum_orig]
  2384                                   [NOl_eff]
  2383                                   [Nl_eff]
     1    NSIGMA                         [Ntot_cliped & clip_method]
  1113420                                [Nglobal_steps]
   7                                     [N_chains]
  17                                     [NEX0s_base = N_base in EX0s-fits]
 0   0   1        1   2.0   3.178E+01    [Clip-Bug, RC-Crash & Burn-In warning-flags, n_censored_weights, wei_nsig_threshold & wei_limit]
    14     14.018     13.520      0.498  [idt_all, wdt_TotTime, wdt_UsrTime & wdt_SysTime (sec)]

## Synthesis Results - Best model ##

 4.70087E-01                             [chi2/Nl_eff]
     2.56691                             [adev (%)]

   106.49160                             [sum-of-x (%)]
 7.72903E-17                             [Flux_tot (units of input spectrum!)]
 1.85927E-12                             [Mini_tot (???)]
 1.01381E-12                             [Mcor_tot (???)]

  20.12                                  [v0_min  (km/s)]
 175.51                                  [vd_min  (km/s)]
-0.2352                                  [AV_min  (mag)]
 0.0000                                  [YAV_min (mag)]

# j     x_j(%)      Mini_j(%)     Mcor_j(%)     age_j(yr)     Z_j      (L/M)_j    YAV?  Mstars   component_j        a/Fe...       SSP_chi2r SSP_adev(%)   SSP_AV   SSP_x(%)
  1      3.5844     1.2790E-02    2.3456E-02    1.000000E+06  0.00400  1.094E-02    0   1.0000   age020_m42            0.0000     3.2695E+00     7.9230   3.1988    92.9352
  2      0.0000     0.0000E+00    0.0000E+00    3.160000E+06  0.00400  4.007E-02    0   0.9999   age045_m42            0.0000     2.8822E+00     7.1621   2.4848    98.8521
  3      0.0000     0.0000E+00    0.0000E+00    5.010000E+06  0.00400  2.539E-02    0   0.9488   age055_m42            0.0000     3.0345E+00     7.4795   2.7982    96.6870
  4      0.0000     0.0000E+00    0.0000E+00    6.610000E+06  0.00400  2.620E-02    0   0.9220   age061_m42            0.0000     2.8948E+00     7.2251   2.4058    99.3206
  5      0.0000     0.0000E+00    0.0000E+00    1.000000E+07  0.00400  1.322E-02    0   0.8862   age070_m42            0.0000     3.3831E+00     8.4007   2.0888   103.1126
  6      0.0000     0.0000E+00    0.0000E+00    1.445000E+07  0.00400  7.883E-03    0   0.8571   age078_m42            0.0000     3.4525E+00     8.4490   2.4191   100.3367
  7      0.0000     0.0000E+00    0.0000E+00    2.512000E+07  0.00400  5.251E-03    0   0.8174   age090_m42            0.0000     3.5309E+00     8.6447   1.9527   103.9847
  8      0.0000     0.0000E+00    0.0000E+00    4.000000E+07  0.00400  3.649E-03    0   0.7851   age104_m42            0.0000     3.3140E+00     8.3440   1.7280   104.7298
  9      0.0000     0.0000E+00    0.0000E+00    5.500000E+07  0.00400  3.098E-03    0   0.7629   age110_m42            0.0000     3.0542E+00     7.7528   1.9002   103.8474
 10      0.0000     0.0000E+00    0.0000E+00    1.015200E+08  0.00400  2.228E-03    0   0.7207   age116_m42            0.0000     2.9067E+00     7.4293   1.9326   103.4751
 11      0.0000     0.0000E+00    0.0000E+00    2.861200E+08  0.00400  1.093E-03    0   0.6648   age125_m42            0.0000     3.1262E+00     7.9301   1.3556   107.1592
 12      0.0000     0.0000E+00    0.0000E+00    5.088000E+08  0.00400  6.597E-04    0   0.6365   age130_m42            0.0000     2.6439E+00     7.2192   1.3621   107.2349
 13      0.0000     0.0000E+00    0.0000E+00    1.434000E+09  0.00400  2.132E-04    0   0.5798   age139_m42            0.0000     1.5793E+00     5.5803   0.3943   109.1829
 14      0.0000     0.0000E+00    0.0000E+00    4.250000E+09  0.00400  5.895E-05    0   0.5377   age158_m42            0.0000     8.7006E-01     3.8531  -0.0293   104.1804
 15      3.4318     3.8166E+00    3.6481E+00    7.500000E+09  0.00400  3.510E-05    0   0.5212   age171_m42            0.0000     7.0570E-01     3.3422  -0.2065   103.0485
 16      0.0000     0.0000E+00    0.0000E+00    1.300000E+10  0.00400  2.005E-05    0   0.5034   age193_m42            0.0000     6.4016E-01     3.1698  -0.3613   102.0897
 17      0.6439     1.6483E+00    1.5015E+00    1.800000E+10  0.00400  1.525E-05    0   0.4967   age213_m42            0.0000     6.5625E-01     3.2354  -0.3874   101.7649
 18      0.0000     0.0000E+00    0.0000E+00    1.000000E+06  0.00800  1.238E-02    0   1.0000   age020_m52            0.0000     3.2601E+00     7.9176   3.1965    93.0582
 19      0.0000     0.0000E+00    0.0000E+00    3.160000E+06  0.00800  3.074E-02    0   0.9966   age045_m52            0.0000     3.1913E+00     7.7933   3.1208    93.8306
 20      0.0000     0.0000E+00    0.0000E+00    5.010000E+06  0.00800  2.668E-02    0   0.9443   age055_m52            0.0000     3.0376E+00     7.5604   2.8772    95.9593
 21      0.0000     0.0000E+00    0.0000E+00    6.610000E+06  0.00800  2.136E-02    0   0.9177   age061_m52            0.0000     2.7043E+00     7.7590   1.5845   104.4851
 22      0.0000     0.0000E+00    0.0000E+00    1.000000E+07  0.00800  1.215E-02    0   0.8827   age070_m52            0.0000     3.6658E+00     8.9171   2.2601   103.3066
 23      0.0000     0.0000E+00    0.0000E+00    1.445000E+07  0.00800  8.717E-03    0   0.8552   age078_m52            0.0000     3.3779E+00     8.3803   2.3829   101.8005
 24      0.0000     0.0000E+00    0.0000E+00    2.512000E+07  0.00800  5.592E-03    0   0.8162   age090_m52            0.0000     3.5157E+00     8.6713   2.0162   105.2738
 25      0.0000     0.0000E+00    0.0000E+00    4.000000E+07  0.00800  3.896E-03    0   0.7841   age104_m52            0.0000     3.3139E+00     8.3063   1.9380   105.6642
 26      0.0000     0.0000E+00    0.0000E+00    1.015200E+08  0.00800  2.148E-03    0   0.7226   age116_m52            0.0000     2.9227E+00     7.5978   1.8928   104.7011
 27      0.0000     0.0000E+00    0.0000E+00    2.861200E+08  0.00800  9.925E-04    0   0.6683   age125_m52            0.0000     2.5098E+00     7.1193   1.4265   108.2620
 28      0.0000     0.0000E+00    0.0000E+00    9.047900E+08  0.00800  3.141E-04    0   0.6138   age135_m52            0.0000     1.5146E+00     5.4674   0.6521   111.6355
 29      0.0000     0.0000E+00    0.0000E+00    1.434000E+09  0.00800  1.719E-04    0   0.5853   age139_m52            0.0000     1.1107E+00     4.4883   0.0720   109.4178
 30      0.0000     0.0000E+00    0.0000E+00    2.500000E+09  0.00800  7.872E-05    0   0.5600   age150_m52            0.0000     6.2057E-01     3.0445  -0.1766   105.5138
 31      0.0000     0.0000E+00    0.0000E+00    4.250000E+09  0.00800  4.336E-05    0   0.5426   age158_m52            0.0000     6.2924E-01     3.0310  -0.1917   104.5078
 32      0.0000     0.0000E+00    0.0000E+00    6.250000E+09  0.00800  3.159E-05    0   0.5319   age166_m52            0.0000     5.4774E-01     2.8204  -0.3790   103.8611
 33      0.0000     0.0000E+00    0.0000E+00    1.300000E+10  0.00800  1.361E-05    0   0.5073   age193_m52            0.0000     5.5701E-01     3.0792  -0.8285   102.3528
 34      0.0000     0.0000E+00    0.0000E+00    1.800000E+10  0.00800  9.886E-06    0   0.4990   age213_m52            0.0000     7.0164E-01     3.6797  -0.9182   101.0729
 35      0.0000     0.0000E+00    0.0000E+00    1.000000E+06  0.02000  1.544E-02    0   1.0000   age020_m62            0.0000     3.2738E+00     7.9465   3.1915    93.3155
 36      3.9328     4.0808E-03    7.3778E-03    3.160000E+06  0.02000  3.762E-02    0   0.9858   age045_m62            0.0000     3.2470E+00     7.9109   3.1332    94.0166
 37      0.0000     0.0000E+00    0.0000E+00    5.010000E+06  0.02000  3.296E-02    0   0.9342   age055_m62            0.0000     2.8891E+00     7.1777   2.7621    97.7069
 38      0.0000     0.0000E+00    0.0000E+00    8.710000E+06  0.02000  1.154E-02    0   0.8861   age067_m62            0.0000     6.2202E+00    12.4743   1.6458   109.6198
 39      0.0000     0.0000E+00    0.0000E+00    1.445000E+07  0.02000  7.663E-03    0   0.8472   age078_m62            0.0000     4.1623E+00     9.8881   1.8869   106.7511
 40      0.0000     0.0000E+00    0.0000E+00    2.512000E+07  0.02000  4.532E-03    0   0.8099   age090_m62            0.0000     4.4094E+00    10.1255   1.8782   106.5513
 41      0.0000     0.0000E+00    0.0000E+00    5.500000E+07  0.02000  2.733E-03    0   0.7595   age110_m62            0.0000     3.2382E+00     8.2388   1.9180   105.0290
 42      0.0000     0.0000E+00    0.0000E+00    1.609000E+08  0.02000  1.369E-03    0   0.6985   age120_m62            0.0000     2.8408E+00     7.5000   1.7796   106.8260
 43      0.0000     0.0000E+00    0.0000E+00    2.861200E+08  0.02000  9.013E-04    0   0.6714   age125_m62            0.0000     2.5654E+00     7.2084   1.5374   109.4821
 44      0.0012     9.6971E-05    1.1469E-04    5.088000E+08  0.02000  5.028E-04    0   0.6449   age130_m62            0.0000     1.9105E+00     6.2249   1.1857   111.1421
 45      0.0006     9.2114E-05    1.0438E-04    9.047900E+08  0.02000  2.428E-04    0   0.6179   age135_m62            0.0000     1.0690E+00     4.4265   0.6106   110.0373
 46      0.0001     4.2325E-05    4.5859E-05    1.434000E+09  0.02000  1.263E-04    0   0.5908   age139_m62            0.0000     7.2436E-01     3.4025   0.1693   108.2958
 47      0.0009     5.5720E-04    5.7971E-04    2.500000E+09  0.02000  5.985E-05    0   0.5673   age150_m62            0.0000     5.3169E-01     2.7955  -0.1781   105.9684
 48     16.9183     2.0190E+01    2.0247E+01    4.250000E+09  0.02000  3.271E-05    0   0.5468   age158_m62            0.0000     5.3661E-01     3.0183  -0.4611   104.0758
 49      4.2393     1.2168E+01    1.1531E+01    1.000000E+10  0.02000  1.360E-05    0   0.5167   age181_m62            0.0000     8.6714E-01     4.2342  -0.7802   102.3931
 50      0.0000     0.0000E+00    0.0000E+00    1.800000E+10  0.02000  7.124E-06    0   0.5013   age213_m62            0.0000     1.2699E+00     5.2580  -0.9632   100.4516
 51      0.0000     0.0000E+00    0.0000E+00    1.000000E+06  0.05000  2.592E-02    0   0.9998   age020_m72            0.0000     3.3341E+00     8.0623   3.1811    93.4142
 52      0.0000     0.0000E+00    0.0000E+00    3.160000E+06  0.05000  4.845E-02    0   0.9577   age045_m72            0.0000     3.0952E+00     7.5502   3.0214    95.0491
 53      0.0000     0.0000E+00    0.0000E+00    5.010000E+06  0.05000  3.072E-02    0   0.9147   age055_m72            0.0000     3.7730E+00     9.1455   2.5063   101.2702
 54      0.0012     3.3369E-06    5.4324E-06    6.610000E+06  0.05000  1.455E-02    0   0.8877   age061_m72            0.0000     9.0891E+00    15.2093   1.6986   111.2482
 55      0.0000     0.0000E+00    0.0000E+00    1.000000E+07  0.05000  9.074E-03    0   0.8524   age070_m72            0.0000     4.2236E+00     9.6670   2.7155   100.3129
 56      0.0000     0.0000E+00    0.0000E+00    2.512000E+07  0.05000  4.250E-03    0   0.7902   age090_m72            0.0000     4.0174E+00     9.2875   2.3976   102.6756
 57      0.0000     0.0000E+00    0.0000E+00    4.000000E+07  0.05000  3.087E-03    0   0.7618   age104_m72            0.0000     4.1881E+00     9.4943   2.1633   104.6878
 58      0.0000     0.0000E+00    0.0000E+00    1.015200E+08  0.05000  1.700E-03    0   0.7096   age116_m72            0.0000     3.2272E+00     8.0805   1.9143   106.8203
 59      0.0010     5.3530E-05    6.5116E-05    2.861200E+08  0.05000  7.384E-04    0   0.6633   age125_m72            0.0000     2.2067E+00     6.7137   1.4183   110.3433
 60      0.0000     0.0000E+00    0.0000E+00    5.088000E+08  0.05000  3.819E-04    0   0.6372   age130_m72            0.0000     1.3223E+00     5.0316   0.9446   111.1975
 61     27.2996     6.3584E+00    7.1249E+00    9.047900E+08  0.05000  1.676E-04    0   0.6110   age135_m72            0.0000     6.5003E-01     3.1728   0.2744   108.0670
 62      0.0001     6.3977E-05    6.8919E-05    1.434000E+09  0.05000  8.837E-05    0   0.5874   age139_m72            0.0000     5.2385E-01     2.9240  -0.1753   107.3645
 63     40.8572     3.7678E+01    3.8682E+01    2.500000E+09  0.05000  4.233E-05    0   0.5598   age150_m72            0.0000     5.9705E-01     3.3048  -0.4542   104.6402
 64      4.6791     1.2729E+01    1.2253E+01    6.250000E+09  0.05000  1.435E-05    0   0.5249   age166_m72            0.0000     9.8974E-01     4.5280  -0.8684   101.5974
 65      0.8999     5.3938E+00    4.9816E+00    1.300000E+10  0.05000  6.513E-06    0   0.5036   age193_m72            0.0000     1.7881E+00     6.3149  -1.0000    96.3272
 66      0.0000     0.0000E+00    0.0000E+00    1.800000E+10  0.05000  4.527E-06    0   0.4945   age213_m72            0.0000     2.9281E+00     8.0634  -1.0000    89.6857


## Synthesis Results - Average & Chains ##

# j      x_j: min, <> & last-chain-values for 1 ...  7 chains
  1      3.5844      0.2018      0.0000      0.9429      0.0000      0.0000      0.0000      0.5101      1.0532
  2      0.0000      0.1419      0.0000      0.0000      0.2576      0.0001      0.3067      0.0000      0.0000
  3      0.0000      0.2321      0.6113      0.2031      1.1860      0.5191      1.1877      0.0000      0.2502
  4      0.0000      0.1001      1.5447      0.0000      0.0000      0.0000      0.1674      0.0000      0.0000
  5      0.0000      0.0954      0.2921      0.0000      0.0000      0.0000      0.0894      0.0000      0.7079
  6      0.0000      0.0558      0.0000      0.0000      0.0000      0.0000      0.4808      0.0000      0.0000
  7      0.0000      0.0889      0.2357      0.0000      0.5770      0.0000      0.0000      0.0000      0.0000
  8      0.0000      0.0845      0.0000      0.0000      0.0000      0.0000      0.0423      0.0000      0.3341
  9      0.0000      0.1385      0.0892      0.0000      0.0000      0.0000      0.0000      0.0256      0.6396
 10      0.0000      0.0918      0.0000      0.0000      0.4885      0.0000      0.0000      0.0768      0.0000
 11      0.0000      0.0749      0.0000      0.0000      0.0000      0.0000      0.0000      0.0000      0.0000
 12      0.0000      0.1219      0.0000      0.0000      0.0000      0.0000      0.0000      0.0000      0.1265
 13      0.0000      0.3833      0.0000      0.0962      0.0000      1.5993      0.0000      0.0000      0.2312
 14      0.0000      0.7777      0.0739      0.0000      0.9046      0.5609      0.0000      0.0000      0.8390
 15      3.4318      0.7219      2.4846      0.8934      0.2915      1.8039      0.0000      0.3296      0.6081
 16      0.0000      0.5122      0.0578      0.1751      0.0000      0.0000      0.0000      0.6487      0.0000
 17      0.6439      0.6038      2.6535      1.0310      0.0000      0.0340      1.0947      0.3392      0.0000
 18      0.0000      0.0727      0.0000      0.0000      0.0000      0.3966      0.0000      0.0000      0.0000
 19      0.0000      0.1405      0.0000      0.0000      0.0000      0.0000      0.1083      0.0069      0.0000
 20      0.0000      0.2149      0.0000      0.1298      0.0000      0.7699      0.6092      1.4144      0.4266
 21      0.0000      0.2547      0.6375      0.0000      0.0000      0.0145      0.4718      0.0000      0.0000
 22      0.0000      0.0640      0.0000      0.0000      0.0000      0.0000      0.0000      0.0000      0.0000
 23      0.0000      0.0564      0.0000      0.0000      0.0653      0.0000      0.0000      0.0000      0.0000
 24      0.0000      0.1049      0.0000      0.0000      0.4180      0.0000      0.0000      0.0000      0.0000
 25      0.0000      0.1740      0.0000      0.0000      0.0000      0.0000      0.0000      0.0000      0.0620
 26      0.0000      0.0537      0.0000      0.0000      0.0000      0.0000      0.0000      0.0000      0.2733
 27      0.0000      0.0893      0.0079      0.0000      0.0000      0.0000      0.0000      0.0000      0.0000
 28      0.0000      0.1602      0.0006      0.1002      0.3154      0.0000      0.0000      0.1513      0.0000
 29      0.0000      0.2748      0.0000      0.0000      0.0000      0.0000      0.0000      0.0000      0.0000
 30      0.0000      0.7105      0.0000      0.0000      1.3744      0.0000      1.1694      0.7519      0.1063
 31      0.0000      0.4724      0.0000      0.0000      0.3793      0.0000      0.0000      0.0396      0.0000
 32      0.0000      0.3719      0.0000      0.0000      0.5451      0.0000      0.0000      0.0000      0.0000
 33      0.0000      0.0470      0.1352      0.0049      0.0000      0.0000      0.0000      0.0000      0.5330
 34      0.0000      0.0984      0.0000      0.0000      0.0000      0.0000      0.2758      0.4941      0.0000
 35      0.0000      0.2452      0.2766      0.0000      0.0000      0.0000      0.0096      0.0000      0.1031
 36      3.9328      0.2007      0.0000      1.2446      0.0000      0.0000      0.0000      0.0204      0.3167
 37      0.0000      0.0878      0.0000      0.0000      0.0197      0.0000      0.0000      0.2465      0.0000
 38      0.0000      0.1416      0.0000      0.2566      0.0000      0.3569      0.1598      0.0000      0.0000
 39      0.0000      0.1605      0.1137      0.3693      0.1401      0.0000      0.0000      1.0624      0.0000
 40      0.0000      0.1117      0.0000      0.0000      0.0000      0.7025      0.3223      0.0000      0.0000
 41      0.0000      0.1066      0.0000      0.0158      0.0000      0.4786      0.0000      0.0000      0.0280
 42      0.0000      0.0718      0.0000      0.0000      0.0000      0.0720      0.0000      0.0389      0.0000
 43      0.0000      0.1630      0.0000      0.0000      0.0000      0.0000      0.3286      0.0000      0.0000
 44      0.0012      0.0813      0.2692      0.5774      0.0000      0.1181      0.0000      0.0000      0.0000
 45      0.0006      0.2839      1.2822      1.6454      0.0000      0.0000      0.0000      0.2479      0.9691
 46      0.0001      0.7369      0.4852      0.5134      0.0000      0.0329      0.0000      0.4291      0.0000
