###################################################################
## OUTPUT of StarlightChains_v04.for    [Cid@UFSC - 01/Apr/2007] ##
###################################################################

## Some input info
PSNJ15024996.txt                         [arq_obs]
Base.CB07.vall.4m                        [arq_base]
Masks.EmLines.NEW.gm                     [arq_masks]
StCv04.C11.config                        [arq_config]
   66                                    [N_base]
    0                                    [N_YAV_components = # of components with extra extinction!]
    0                                    [i_FitPowerLaw (1/0 = Yes/No)]
-9.99                                    [alpha_PowerLaw]
CCM                                      [red_law_option]
 1.458241                                [q_norm = A(l_norm)/A(V)]

## (Re)Sampling Parameters
 3741.00                                 [l_ini (A)]
 7218.00                                 [l_fin (A)]
    1.00                                 [dl    (A)]     (OBS: dl_cushion =    50.00 A)

## Normalization info
 4020.00                                 [l_norm (A) - for base]
 4010.00                                 [llow_norm (A) - window for f_obs]
 4060.00                                 [lupp_norm (A) - window for f_obs]
2.882126E-17                             [fobs_norm (in input units)]

## S/N
 3691.00                                 [llow_SN (A) - window for S/N]
 7268.00                                 [lupp_SN (A) - window for S/N]
   6.632                                 [S/N in S/N window]
   7.892                                 [S/N in norm. window]
   8.493                                 [S/N_err in S/N window]
  10.106                                 [S/N_err in norm. window]
  1.0000                                 [fscale_chi2]

## etc...
    -2007460                             [idum_orig]
  2359                                   [NOl_eff]
  2359                                   [Nl_eff]
     0    NSIGMA                         [Ntot_cliped & clip_method]
   794710                                [Nglobal_steps]
   7                                     [N_chains]
  13                                     [NEX0s_base = N_base in EX0s-fits]
 0   0   1        0   2.0   2.266E+01    [Clip-Bug, RC-Crash & Burn-In warning-flags, n_censored_weights, wei_nsig_threshold & wei_limit]
    12     11.619     11.116      0.503  [idt_all, wdt_TotTime, wdt_UsrTime & wdt_SysTime (sec)]

## Synthesis Results - Best model ##

 3.27997E-01                             [chi2/Nl_eff]
     4.99991                             [adev (%)]

   109.19526                             [sum-of-x (%)]
 5.72871E-17                             [Flux_tot (units of input spectrum!)]
 1.15256E-13                             [Mini_tot (???)]
 7.28813E-14                             [Mcor_tot (???)]

-120.97                                  [v0_min  (km/s)]
 168.11                                  [vd_min  (km/s)]
 0.4460                                  [AV_min  (mag)]
 0.0000                                  [YAV_min (mag)]

# j     x_j(%)      Mini_j(%)     Mcor_j(%)     age_j(yr)     Z_j      (L/M)_j    YAV?  Mstars   component_j        a/Fe...       SSP_chi2r SSP_adev(%)   SSP_AV   SSP_x(%)
  1      0.0000     0.0000E+00    0.0000E+00    1.000000E+06  0.00400  1.094E-02    0   1.0000   age020_m42            0.0000     4.1961E-01     6.7558   2.5447    93.3622
  2      6.4140     7.2861E-02    1.1521E-01    3.160000E+06  0.00400  4.007E-02    0   0.9999   age045_m42            0.0000     3.6978E-01     5.7304   1.8239    99.5828
  3      0.0000     0.0000E+00    0.0000E+00    5.010000E+06  0.00400  2.539E-02    0   0.9488   age055_m42            0.0000     3.8050E-01     6.1184   2.1368    97.4514
  4      0.0000     0.0000E+00    0.0000E+00    6.610000E+06  0.00400  2.620E-02    0   0.9220   age061_m42            0.0000     3.6464E-01     5.6826   1.7407   100.2656
  5      0.0000     0.0000E+00    0.0000E+00    1.000000E+07  0.00400  1.322E-02    0   0.8862   age070_m42            0.0000     4.0931E-01     6.4717   1.3917   105.6795
  6      0.0000     0.0000E+00    0.0000E+00    1.445000E+07  0.00400  7.883E-03    0   0.8571   age078_m42            0.0000     4.0861E-01     6.5959   1.7257   102.6645
  7      0.0000     0.0000E+00    0.0000E+00    2.512000E+07  0.00400  5.251E-03    0   0.8174   age090_m42            0.0000     4.2728E-01     6.6425   1.2497   106.8825
  8      0.0000     0.0000E+00    0.0000E+00    4.000000E+07  0.00400  3.649E-03    0   0.7851   age104_m42            0.0000     4.1434E-01     6.3893   1.0299   107.3826
  9      0.0000     0.0000E+00    0.0000E+00    5.500000E+07  0.00400  3.098E-03    0   0.7629   age110_m42            0.0000     3.8207E-01     5.8362   1.2136   105.8916
 10      0.0000     0.0000E+00    0.0000E+00    1.015200E+08  0.00400  2.228E-03    0   0.7207   age116_m42            0.0000     3.6706E-01     5.5492   1.2537   105.1303
 11      0.0000     0.0000E+00    0.0000E+00    2.861200E+08  0.00400  1.093E-03    0   0.6648   age125_m42            0.0000     4.3512E-01     5.9135   0.6634   109.4592
 12      0.0000     0.0000E+00    0.0000E+00    5.088000E+08  0.00400  6.597E-04    0   0.6365   age130_m42            0.0000     3.8868E-01     5.5701   0.6865   108.6746
 13      0.0000     0.0000E+00    0.0000E+00    1.434000E+09  0.00400  2.132E-04    0   0.5798   age139_m42            0.0000     3.6688E-01     5.2599  -0.2598   109.4862
 14      0.0000     0.0000E+00    0.0000E+00    4.250000E+09  0.00400  5.895E-05    0   0.5377   age158_m42            0.0000     3.4809E-01     5.3227  -0.6479   102.6837
 15      0.0000     0.0000E+00    0.0000E+00    7.500000E+09  0.00400  3.510E-05    0   0.5212   age171_m42            0.0000     3.7342E-01     5.6800  -0.8120   100.9061
 16      0.0000     0.0000E+00    0.0000E+00    1.300000E+10  0.00400  2.005E-05    0   0.5034   age193_m42            0.0000     4.0868E-01     6.0895  -0.9560    99.4188
 17      0.0000     0.0000E+00    0.0000E+00    1.800000E+10  0.00400  1.525E-05    0   0.4967   age213_m42            0.0000     4.0437E-01     6.0232  -0.9837    99.1901
 18      0.0000     0.0000E+00    0.0000E+00    1.000000E+06  0.00800  1.238E-02    0   1.0000   age020_m52            0.0000     4.2004E-01     6.7631   2.5410    93.5409
 19      0.0000     0.0000E+00    0.0000E+00    3.160000E+06  0.00800  3.074E-02    0   0.9966   age045_m52            0.0000     4.1193E-01     6.6518   2.4670    94.2510
 20      0.0000     0.0000E+00    0.0000E+00    5.010000E+06  0.00800  2.668E-02    0   0.9443   age055_m52            0.0000     3.8506E-01     6.2769   2.2158    96.7215
 21     32.1805     6.8577E-01    9.9524E-01    6.610000E+06  0.00800  2.136E-02    0   0.9177   age061_m52            0.0000     3.7756E-01     6.2834   0.9034   106.2335
 22      0.0000     0.0000E+00    0.0000E+00    1.000000E+07  0.00800  1.215E-02    0   0.8827   age070_m52            0.0000     4.4785E-01     6.9445   1.5529   106.3805
 23      0.0000     0.0000E+00    0.0000E+00    1.445000E+07  0.00800  8.717E-03    0   0.8552   age078_m52            0.0000     4.0565E-01     6.5365   1.6887   104.2074
 24      0.0000     0.0000E+00    0.0000E+00    2.512000E+07  0.00800  5.592E-03    0   0.8162   age090_m52            0.0000     4.4026E-01     6.6969   1.3104   108.3458
 25      0.0000     0.0000E+00    0.0000E+00    4.000000E+07  0.00800  3.896E-03    0   0.7841   age104_m52            0.0000     4.2775E-01     6.3659   1.2379   108.4286
 26      0.0000     0.0000E+00    0.0000E+00    1.015200E+08  0.00800  2.148E-03    0   0.7226   age116_m52            0.0000     3.8500E-01     5.7373   1.2071   106.6815
 27      0.0000     0.0000E+00    0.0000E+00    2.861200E+08  0.00800  9.925E-04    0   0.6683   age125_m52            0.0000     3.8707E-01     5.5734   0.7492   109.7731
 28      0.0000     0.0000E+00    0.0000E+00    9.047900E+08  0.00800  3.141E-04    0   0.6138   age135_m52            0.0000     3.8471E-01     5.4577   0.0050   111.4938
 29      0.0000     0.0000E+00    0.0000E+00    1.434000E+09  0.00800  1.719E-04    0   0.5853   age139_m52            0.0000     4.0580E-01     5.5041  -0.5657   108.7472
 30      0.0000     0.0000E+00    0.0000E+00    2.500000E+09  0.00800  7.872E-05    0   0.5600   age150_m52            0.0000     3.9972E-01     5.8501  -0.7797   103.1628
 31      0.0000     0.0000E+00    0.0000E+00    4.250000E+09  0.00800  4.336E-05    0   0.5426   age158_m52            0.0000     3.9968E-01     5.9330  -0.7914   102.0150
 32      0.0000     0.0000E+00    0.0000E+00    6.250000E+09  0.00800  3.159E-05    0   0.5319   age166_m52            0.0000     4.4708E-01     6.4546  -0.9617   100.5444
 33      0.0000     0.0000E+00    0.0000E+00    1.300000E+10  0.00800  1.361E-05    0   0.5073   age193_m52            0.0000     9.3100E-01    10.1650  -1.0000    82.1185
 34      0.0000     0.0000E+00    0.0000E+00    1.800000E+10  0.00800  9.886E-06    0   0.4990   age213_m52            0.0000     1.1425E+00    11.4847  -1.0000    77.7357
 35      0.0000     0.0000E+00    0.0000E+00    1.000000E+06  0.02000  1.544E-02    0   1.0000   age020_m62            0.0000     4.2164E-01     6.7883   2.5374    93.7432
 36      0.0000     0.0000E+00    0.0000E+00    3.160000E+06  0.02000  3.762E-02    0   0.9858   age045_m62            0.0000     4.1841E-01     6.7305   2.4789    94.4543
 37      0.0000     0.0000E+00    0.0000E+00    5.010000E+06  0.02000  3.296E-02    0   0.9342   age055_m62            0.0000     3.6972E-01     5.8613   2.1048    98.2847
 38      0.0000     0.0000E+00    0.0000E+00    8.710000E+06  0.02000  1.154E-02    0   0.8861   age067_m62            0.0000     8.6681E-01    10.4018   0.8819   115.9925
 39      0.0000     0.0000E+00    0.0000E+00    1.445000E+07  0.02000  7.663E-03    0   0.8472   age078_m62            0.0000     5.5389E-01     7.8282   1.1625   110.7786
 40      0.0000     0.0000E+00    0.0000E+00    2.512000E+07  0.02000  4.532E-03    0   0.8099   age090_m62            0.0000     5.9757E-01     8.0424   1.1478   110.8802
 41      0.0000     0.0000E+00    0.0000E+00    5.500000E+07  0.02000  2.733E-03    0   0.7595   age110_m62            0.0000     4.2049E-01     6.3571   1.2201   107.6526
 42      0.0000     0.0000E+00    0.0000E+00    1.609000E+08  0.02000  1.369E-03    0   0.6985   age120_m62            0.0000     3.8596E-01     5.6610   1.0956   108.7419
 43      0.0000     0.0000E+00    0.0000E+00    2.861200E+08  0.02000  9.013E-04    0   0.6714   age125_m62            0.0000     3.7658E-01     5.6402   0.8636   110.8962
 44      0.0000     0.0000E+00    0.0000E+00    5.088000E+08  0.02000  5.028E-04    0   0.6449   age130_m62            0.0000     3.5800E-01     5.5115   0.5375   111.1589
 45      0.0000     0.0000E+00    0.0000E+00    9.047900E+08  0.02000  2.428E-04    0   0.6179   age135_m62            0.0000     3.5475E-01     5.3845  -0.0158   108.8483
 46      0.0000     0.0000E+00    0.0000E+00    1.434000E+09  0.02000  1.263E-04    0   0.5908   age139_m62            0.0000     3.7764E-01     5.6441  -0.4423   106.3384
 47      0.0000     0.0000E+00    0.0000E+00    2.500000E+09  0.02000  5.985E-05    0   0.5673   age150_m62            0.0000     4.3284E-01     6.3302  -0.7620   102.6653
 48      0.0000     0.0000E+00    0.0000E+00    4.250000E+09  0.02000  3.271E-05    0   0.5468   age158_m62            0.0000     5.3136E-01     7.2520  -1.0000    98.7495
 49      0.0000     0.0000E+00    0.0000E+00    1.000000E+10  0.02000  1.360E-05    0   0.5167   age181_m62            0.0000     9.2669E-01    10.3160  -1.0000    83.9899
 50      0.0000     0.0000E+00    0.0000E+00    1.800000E+10  0.02000  7.124E-06    0   0.5013   age213_m62            0.0000     1.3487E+00    12.7130  -1.0000    75.6143
 51      0.0000     0.0000E+00    0.0000E+00    1.000000E+06  0.05000  2.592E-02    0   0.9998   age020_m72            0.0000     4.3034E-01     6.9248   2.5255    93.9082
 52      0.0000     0.0000E+00    0.0000E+00    3.160000E+06  0.05000  4.845E-02    0   0.9577   age045_m72            0.0000     4.0302E-01     6.3991   2.3688    95.4129
 53      0.0000     0.0000E+00    0.0000E+00    5.010000E+06  0.05000  3.072E-02    0   0.9147   age055_m72            0.0000     5.0476E-01     7.2997   1.8005   104.0850
 54      0.0000     0.0000E+00    0.0000E+00    6.610000E+06  0.05000  1.455E-02    0   0.8877   age061_m72            0.0000     1.5453E+00    13.1389   0.8926   119.7136
 55      0.0000     0.0000E+00    0.0000E+00    1.000000E+07  0.05000  9.074E-03    0   0.8524   age070_m72            0.0000     6.5327E-01     7.8063   1.9947   103.5632
 56      0.0000     0.0000E+00    0.0000E+00    2.512000E+07  0.05000  4.250E-03    0   0.7902   age090_m72            0.0000     5.7358E-01     7.3048   1.6805   106.0132
 57      0.0000     0.0000E+00    0.0000E+00    4.000000E+07  0.05000  3.087E-03    0   0.7618   age104_m72            0.0000     6.1150E-01     7.4333   1.4397   108.4445
 58      0.0000     0.0000E+00    0.0000E+00    1.015200E+08  0.05000  1.700E-03    0   0.7096   age116_m72            0.0000     4.3239E-01     6.0153   1.2173   109.4002
 59      0.0000     0.0000E+00    0.0000E+00    2.861200E+08  0.05000  7.384E-04    0   0.6633   age125_m72            0.0000     3.6897E-01     5.5907   0.7571   111.0767
 60     60.6977     7.2345E+01    7.2901E+01    5.088000E+08  0.05000  3.819E-04    0   0.6372   age130_m72            0.0000     3.4497E-01     5.3437   0.3136   110.3236
 61      9.9031     2.6896E+01    2.5988E+01    9.047900E+08  0.05000  1.676E-04    0   0.6110   age135_m72            0.0000     4.0674E-01     6.0637  -0.3123   104.9235
 62      0.0000     0.0000E+00    0.0000E+00    1.434000E+09  0.05000  8.837E-05    0   0.5874   age139_m72            0.0000     4.6562E-01     6.5554  -0.7565   103.8852
 63      0.0000     0.0000E+00    0.0000E+00    2.500000E+09  0.05000  4.233E-05    0   0.5598   age150_m72            0.0000     5.7275E-01     7.5586  -1.0000    99.5601
 64      0.0000     0.0000E+00    0.0000E+00    6.250000E+09  0.05000  1.435E-05    0   0.5249   age166_m72            0.0000     1.1173E+00    11.3852  -1.0000    79.9844
 65      0.0000     0.0000E+00    0.0000E+00    1.300000E+10  0.05000  6.513E-06    0   0.5036   age193_m72            0.0000     1.7905E+00    14.7143  -1.0000    70.8298
 66      0.0000     0.0000E+00    0.0000E+00    1.800000E+10  0.05000  4.527E-06    0   0.4945   age213_m72            0.0000     2.2638E+00    16.6584  -1.0000    65.4977


## Synthesis Results - Average & Chains ##

# j      x_j: min, <> & last-chain-values for 1 ...  7 chains
  1      0.0000      0.2347      0.0000      0.0000      0.0000      0.0000      0.0000      1.2542      0.0000
  2      6.4140      1.3168      1.0180      0.5659      2.1054      1.6487      0.0000      7.4431      0.6183
  3      0.0000      0.2969      0.0000      0.0000      0.0000      0.0000      1.2606      0.0000      0.0000
  4      0.0000      1.2216      4.5491      2.8545      0.0000      0.0000      1.1602      4.6359      0.0000
  5      0.0000      0.7593      0.2746      6.1380      0.0000      0.2406      0.0000      0.9236      0.7528
  6      0.0000      0.5776      0.0000      0.1592      0.0000      0.0000      0.5110      0.0000      0.0000
  7      0.0000      0.6020      0.2689      0.0000      0.0000      2.3296      0.0000      0.1398      0.9137
  8      0.0000      1.1511      1.0084      0.6592      2.2941      0.0000      0.0000      0.4506      0.0000
  9      0.0000      1.0374      2.3183      0.0000      2.0303      1.0139      0.0000      2.9533      1.1169
 10      0.0000      1.6410      1.3159      0.0000      1.5789      0.0000      4.2320      0.0000      0.0000
 11      0.0000      1.0465      0.7959      0.0000      0.0000      0.2972      0.0000      1.2079      0.0000
 12      0.0000      3.4631      2.3016      0.0000      5.4500      3.1736      2.1545      0.0000      8.1330
 13      0.0000      0.3151      0.1296      1.8233      0.0000      0.0000      0.2197      0.0000      0.0000
 14      0.0000      0.2109      0.0000      0.0000      0.1162      0.0000      0.5241      0.8027      0.0000
 15      0.0000      0.0782      0.0000      0.0000      0.0000      0.0000      0.4027      0.0104      0.0000
 16      0.0000      0.0539      0.0000      0.0000      0.0000      0.0000      0.0000      0.0000      0.0000
 17      0.0000      0.0662      0.0000      0.0000      0.0000      0.0000      0.0000      0.6264      0.0000
 18      0.0000      0.2107      0.0000      0.0000      0.0000      0.0000      0.0000      1.1998      0.0000
 19      0.0000      0.2736      0.0864      0.6442      0.5818      0.3156      2.4550      0.0000      0.0000
 20      0.0000      0.3109      0.0000      0.2933      0.0000      0.0140      0.0000      0.0000      2.1307
 21     32.1805     11.1546     14.3611     10.6883     12.2661     17.5249     14.4366     11.1247     13.2401
 22      0.0000      0.2786      0.8192      0.0000      1.3613      0.0000      0.0000      0.0000      0.0000
 23      0.0000      0.2360      0.0000      0.0000      0.0000      0.0000      0.3951      0.0000      0.0000
 24      0.0000      0.5552      0.0000      0.0000      0.0855      1.9158      0.0000      0.0000      0.0000
 25      0.0000      0.6176      0.0000      0.0000      4.1118      0.0000      0.0000      0.0000      0.0000
 26      0.0000      0.6893      0.0000      0.0000      0.0000      0.0000      0.0000      0.0000      3.2661
 27      0.0000      1.3359      0.0000      0.0000      0.0000      0.0000      0.0000      0.0000      0.0000
 28      0.0000      0.6079      2.2853      0.0000      0.0000      0.0000      0.0000      0.0000      0.0000
 29      0.0000      0.0854      0.0000      0.0000      0.0000      0.0000      0.0000      0.0000      0.0000
 30      0.0000      0.0568      0.0000      0.0000      0.0000      0.0000      0.0000      0.0000      0.0000
 31      0.0000      0.0627      0.0000      0.0000      0.0000      0.0000      0.4866      0.0000      0.0000
 32      0.0000      0.0411      0.0000      0.0000      0.0000      0.0000      0.0000      0.0000      0.0000
 33      0.0000      0.0614      0.0000      0.0000      0.0000      0.0000      0.0000      0.0000      0.0000
 34      0.0000      0.0098      0.0000      0.0000      0.0000      0.0000      0.0000      0.0000      0.0000
 35      0.0000      0.1536      0.0000      0.0000      0.0000      0.0000      2.1784      0.3033      0.0000
 36      0.0000      0.5430      0.0000      1.3024      0.0000      0.9280      0.0000      0.0000      0.0000
 37      0.0000      0.2297      0.0000      0.0000      0.0000      0.0000      2.1901      0.0000      1.3283
 38      0.0000      0.2096      0.0000      0.0000      0.0000      0.4185      0.0000      0.0093      0.0000
 39      0.0000      0.3209      0.1047      0.0000      0.0000      0.0000      0.0000      0.0000      0.0000
 40      0.0000      0.2874      0.0000      0.2314      0.0000      0.0000      0.0000      0.1367      0.0000
 41      0.0000      0.5497      0.0000      0.0000      0.0000      0.0000      0.0000      0.0000      0.0000
 42      0.0000      0.7389      2.7753      0.3640      0.0000      0.7017      0.0000      0.0000      1.0143
 43      0.0000      1.0282      0.0000      0.9508      0.0000      0.3986      0.0000      0.0000      0.0000
 44      0.0000     10.3623      8.0920     13.1661     12.3885      7.4524     11.1767      3.9949      6.3606
 45      0.0000      6.1569      1.1695      8.8386      3.9766      5.5452      4.8262      4.9660      4.4498
 46      0.0000      0.6739      1.3917      0.0000      0.0000      0.1082      0.0000      1.6247      0.0000
