###################################################################
## OUTPUT of StarlightChains_v04.for    [Cid@UFSC - 01/Apr/2007] ##
###################################################################

## Some input info
PTF09cjq.txt                             [arq_obs]
Base.CB07.vall.4m                        [arq_base]
Masks.EmLines.NEW.gm                     [arq_masks]
StCv04.C11.config                        [arq_config]
   66                                    [N_base]
    0                                    [N_YAV_components = # of components with extra extinction!]
    0                                    [i_FitPowerLaw (1/0 = Yes/No)]
-9.99                                    [alpha_PowerLaw]
CCM                                      [red_law_option]
 1.458241                                [q_norm = A(l_norm)/A(V)]

## (Re)Sampling Parameters
 3741.00                                 [l_ini (A)]
 7218.00                                 [l_fin (A)]
    1.00                                 [dl    (A)]     (OBS: dl_cushion =    50.00 A)

## Normalization info
 4020.00                                 [l_norm (A) - for base]
 4010.00                                 [llow_norm (A) - window for f_obs]
 4060.00                                 [lupp_norm (A) - window for f_obs]
1.145514E-16                             [fobs_norm (in input units)]

## S/N
 3691.00                                 [llow_SN (A) - window for S/N]
 7268.00                                 [lupp_SN (A) - window for S/N]
   6.812                                 [S/N in S/N window]
   6.641                                 [S/N in norm. window]
  21.164                                 [S/N_err in S/N window]
  20.634                                 [S/N_err in norm. window]
  1.0000                                 [fscale_chi2]

## etc...
    -2007461                             [idum_orig]
  2385                                   [NOl_eff]
  2364                                   [Nl_eff]
    21    NSIGMA                         [Ntot_cliped & clip_method]
  1527470                                [Nglobal_steps]
   7                                     [N_chains]
  23                                     [NEX0s_base = N_base in EX0s-fits]
 0   0   1        3   2.0   3.399E+01    [Clip-Bug, RC-Crash & Burn-In warning-flags, n_censored_weights, wei_nsig_threshold & wei_limit]
    14     13.447     12.948      0.498  [idt_all, wdt_TotTime, wdt_UsrTime & wdt_SysTime (sec)]

## Synthesis Results - Best model ##

 7.29966E-01                             [chi2/Nl_eff]
     3.80444                             [adev (%)]

   105.99830                             [sum-of-x (%)]
 2.14294E-16                             [Flux_tot (units of input spectrum!)]
 3.32727E-12                             [Mini_tot (???)]
 1.76816E-12                             [Mcor_tot (???)]

  75.46                                  [v0_min  (km/s)]
 142.89                                  [vd_min  (km/s)]
 0.4230                                  [AV_min  (mag)]
 0.0000                                  [YAV_min (mag)]

# j     x_j(%)      Mini_j(%)     Mcor_j(%)     age_j(yr)     Z_j      (L/M)_j    YAV?  Mstars   component_j        a/Fe...       SSP_chi2r SSP_adev(%)   SSP_AV   SSP_x(%)
  1      0.0000     0.0000E+00    0.0000E+00    1.000000E+06  0.00400  1.094E-02    0   1.0000   age020_m42            0.0000     2.9369E+00     7.5511   3.2395    89.8347
  2      0.0000     0.0000E+00    0.0000E+00    3.160000E+06  0.00400  4.007E-02    0   0.9999   age045_m42            0.0000     2.1783E+00     6.2225   2.5388    94.9577
  3      0.0000     0.0000E+00    0.0000E+00    5.010000E+06  0.00400  2.539E-02    0   0.9488   age055_m42            0.0000     2.4342E+00     6.6870   2.8462    93.1536
  4      0.0000     0.0000E+00    0.0000E+00    6.610000E+06  0.00400  2.620E-02    0   0.9220   age061_m42            0.0000     2.0512E+00     6.0024   2.4642    95.2485
  5      0.0125     5.7517E-05    9.5917E-05    1.000000E+07  0.00400  1.322E-02    0   0.8862   age070_m42            0.0000     1.8528E+00     6.1002   2.1596    98.3938
  6      0.0000     0.0000E+00    0.0000E+00    1.445000E+07  0.00400  7.883E-03    0   0.8571   age078_m42            0.0000     2.0941E+00     6.4717   2.4834    96.0264
  7      0.0000     0.0000E+00    0.0000E+00    2.512000E+07  0.00400  5.251E-03    0   0.8174   age090_m42            0.0000     1.8372E+00     6.0879   2.0267    99.0753
  8      0.0000     0.0000E+00    0.0000E+00    4.000000E+07  0.00400  3.649E-03    0   0.7851   age104_m42            0.0000     1.6717E+00     5.7827   1.8033    99.7196
  9      0.3703     7.2623E-03    1.0426E-02    5.500000E+07  0.00400  3.098E-03    0   0.7629   age110_m42            0.0000     1.6438E+00     5.5017   1.9733    98.9674
 10      0.0000     0.0000E+00    0.0000E+00    1.015200E+08  0.00400  2.228E-03    0   0.7207   age116_m42            0.0000     1.6318E+00     5.2960   2.0038    98.6785
 11      0.0000     0.0000E+00    0.0000E+00    2.861200E+08  0.00400  1.093E-03    0   0.6648   age125_m42            0.0000     1.5622E+00     5.3432   1.4383   101.7420
 12      0.0000     0.0000E+00    0.0000E+00    5.088000E+08  0.00400  6.597E-04    0   0.6365   age130_m42            0.0000     1.4050E+00     4.9123   1.4397   102.0059
 13     26.0480     7.4235E+00    8.0994E+00    1.434000E+09  0.00400  2.132E-04    0   0.5798   age139_m42            0.0000     8.3340E-01     3.9201   0.4660   104.0902
 14      0.0000     0.0000E+00    0.0000E+00    4.250000E+09  0.00400  5.895E-05    0   0.5377   age158_m42            0.0000     1.0824E+00     4.5862   0.0254   100.1255
 15      0.0000     0.0000E+00    0.0000E+00    7.500000E+09  0.00400  3.510E-05    0   0.5212   age171_m42            0.0000     1.2916E+00     5.0231  -0.1557    99.2558
 16      0.0000     0.0000E+00    0.0000E+00    1.300000E+10  0.00400  2.005E-05    0   0.5034   age193_m42            0.0000     1.5765E+00     5.5044  -0.3138    98.5264
 17      0.0000     0.0000E+00    0.0000E+00    1.800000E+10  0.00400  1.525E-05    0   0.4967   age213_m42            0.0000     1.5512E+00     5.4769  -0.3404    98.2144
 18      0.0000     0.0000E+00    0.0000E+00    1.000000E+06  0.00800  1.238E-02    0   1.0000   age020_m52            0.0000     2.9358E+00     7.5560   3.2358    90.0089
 19      0.0000     0.0000E+00    0.0000E+00    3.160000E+06  0.00800  3.074E-02    0   0.9966   age045_m52            0.0000     2.8707E+00     7.4020   3.1599    90.7559
 20      0.0000     0.0000E+00    0.0000E+00    5.010000E+06  0.00800  2.668E-02    0   0.9443   age055_m52            0.0000     2.4770E+00     6.8064   2.9238    92.5111
 21      0.0000     0.0000E+00    0.0000E+00    6.610000E+06  0.00800  2.136E-02    0   0.9177   age061_m52            0.0000     1.5180E+00     5.7682   1.6481   100.0355
 22      0.0000     0.0000E+00    0.0000E+00    1.000000E+07  0.00800  1.215E-02    0   0.8827   age070_m52            0.0000     1.9924E+00     6.4581   2.3318    98.5630
 23      0.6333     4.4146E-03    7.1043E-03    1.445000E+07  0.00800  8.717E-03    0   0.8552   age078_m52            0.0000     1.9640E+00     6.2705   2.4501    97.3018
 24      4.7087     5.1163E-02    7.8581E-02    2.512000E+07  0.00800  5.592E-03    0   0.8162   age090_m52            0.0000     1.7635E+00     6.0020   2.0924   100.2039
 25      1.6071     2.5064E-02    3.6982E-02    4.000000E+07  0.00800  3.896E-03    0   0.7841   age104_m52            0.0000     1.6470E+00     5.7197   2.0162   100.4968
 26      1.7183     4.8606E-02    6.6093E-02    1.015200E+08  0.00800  2.148E-03    0   0.7226   age116_m52            0.0000     1.5268E+00     5.2829   1.9668    99.7371
 27      0.0000     0.0000E+00    0.0000E+00    2.861200E+08  0.00800  9.925E-04    0   0.6683   age125_m52            0.0000     1.2581E+00     4.7095   1.5046   102.9520
 28      0.0000     0.0000E+00    0.0000E+00    9.047900E+08  0.00800  3.141E-04    0   0.6138   age135_m52            0.0000     1.0309E+00     4.3390   0.7240   106.4484
 29      0.0000     0.0000E+00    0.0000E+00    1.434000E+09  0.00800  1.719E-04    0   0.5853   age139_m52            0.0000     1.0056E+00     4.4248   0.1362   104.7383
 30      0.0000     0.0000E+00    0.0000E+00    2.500000E+09  0.00800  7.872E-05    0   0.5600   age150_m52            0.0000     1.2824E+00     4.9985  -0.1264   101.6670
 31      0.0000     0.0000E+00    0.0000E+00    4.250000E+09  0.00800  4.336E-05    0   0.5426   age158_m52            0.0000     1.3976E+00     5.1986  -0.1430   100.7713
 32      0.0000     0.0000E+00    0.0000E+00    6.250000E+09  0.00800  3.159E-05    0   0.5319   age166_m52            0.0000     1.7546E+00     5.7212  -0.3361   100.4396
 33      0.0000     0.0000E+00    0.0000E+00    1.300000E+10  0.00800  1.361E-05    0   0.5073   age193_m52            0.0000     2.3622E+00     6.4388  -0.7945    99.4163
 34      2.2181     1.3633E+01    1.2801E+01    1.800000E+10  0.00800  9.886E-06    0   0.4990   age213_m52            0.0000     2.9300E+00     7.0546  -0.8909    98.4938
 35      0.0000     0.0000E+00    0.0000E+00    1.000000E+06  0.02000  1.544E-02    0   1.0000   age020_m62            0.0000     2.9642E+00     7.5978   3.2299    90.2953
 36      0.0000     0.0000E+00    0.0000E+00    3.160000E+06  0.02000  3.762E-02    0   0.9858   age045_m62            0.0000     2.9716E+00     7.5363   3.1705    91.0340
 37      0.0007     1.2204E-06    2.1454E-06    5.010000E+06  0.02000  3.296E-02    0   0.9342   age055_m62            0.0000     2.2968E+00     6.3753   2.8123    94.0430
 38      3.4146     1.7979E-02    2.9978E-02    8.710000E+06  0.02000  1.154E-02    0   0.8861   age067_m62            0.0000     3.3001E+00     8.8803   1.7353   103.8597
 39      0.0000     0.0000E+00    0.0000E+00    1.445000E+07  0.02000  7.663E-03    0   0.8472   age078_m62            0.0000     2.1330E+00     6.9533   1.9682   101.4691
 40      0.0000     0.0000E+00    0.0000E+00    2.512000E+07  0.02000  4.532E-03    0   0.8099   age090_m62            0.0000     2.2459E+00     7.0562   1.9623   101.1506
 41      2.0401     4.5356E-02    6.4823E-02    5.500000E+07  0.02000  2.733E-03    0   0.7595   age110_m62            0.0000     1.6222E+00     5.6768   1.9947    99.9648
 42      4.1584     1.8456E-01    2.4259E-01    1.609000E+08  0.02000  1.369E-03    0   0.6985   age120_m62            0.0000     1.4258E+00     4.9996   1.8558   101.6705
 43     10.4475     7.0432E-01    8.8985E-01    2.861200E+08  0.02000  9.013E-04    0   0.6714   age125_m62            0.0000     1.2750E+00     4.5799   1.6156   104.0898
 44      0.0000     0.0000E+00    0.0000E+00    5.088000E+08  0.02000  5.028E-04    0   0.6449   age130_m62            0.0000     1.2082E+00     4.3880   1.2579   105.9432
 45      0.0000     0.0000E+00    0.0000E+00    9.047900E+08  0.02000  2.428E-04    0   0.6179   age135_m62            0.0000     1.0319E+00     4.3085   0.6730   105.3789
 46      0.0000     0.0000E+00    0.0000E+00    1.434000E+09  0.02000  1.263E-04    0   0.5908   age139_m62            0.0000     1.1457E+00     4.6654   0.2247   104.0811
 47      0.0000     0.0000E+00    0.0000E+00    2.500000E+09  0.02000  5.985E-05    0   0.5673   age150_m62            0.0000     1.6554E+00     5.5200  -0.1350   102.4483
 48      0.0000     0.0000E+00    0.0000E+00    4.250000E+09  0.02000  3.271E-05    0   0.5468   age158_m62            0.0000     2.3341E+00     6.3731  -0.4288   101.1428
 49      0.0000     0.0000E+00    0.0000E+00    1.000000E+10  0.02000  1.360E-05    0   0.5167   age181_m62            0.0000     3.4148E+00     7.4580  -0.7585   100.0310
 50      0.0000     0.0000E+00    0.0000E+00    1.800000E+10  0.02000  7.124E-06    0   0.5013   age213_m62            0.0000     4.3981E+00     8.3261  -0.9517    98.6225
 51      0.0000     0.0000E+00    0.0000E+00    1.000000E+06  0.05000  2.592E-02    0   0.9998   age020_m72            0.0000     3.0407E+00     7.7298   3.2180    90.4424
 52      0.0000     0.0000E+00    0.0000E+00    3.160000E+06  0.05000  4.845E-02    0   0.9577   age045_m72            0.0000     2.7612E+00     7.0805   3.0623    91.8620
 53      0.0000     0.0000E+00    0.0000E+00    5.010000E+06  0.05000  3.072E-02    0   0.9147   age055_m72            0.0000     2.4232E+00     7.2597   2.5735    96.8901
 54      0.0000     0.0000E+00    0.0000E+00    6.610000E+06  0.05000  1.455E-02    0   0.8877   age061_m72            0.0000     5.8414E+00    11.5280   1.8005   104.9964
 55      0.0000     0.0000E+00    0.0000E+00    1.000000E+07  0.05000  9.074E-03    0   0.8524   age070_m72            0.0000     3.0282E+00     8.0632   2.7827    96.0178
 56      0.0000     0.0000E+00    0.0000E+00    2.512000E+07  0.05000  4.250E-03    0   0.7902   age090_m72            0.0000     2.4313E+00     7.0660   2.4752    97.7685
 57      0.0000     0.0000E+00    0.0000E+00    4.000000E+07  0.05000  3.087E-03    0   0.7618   age104_m72            0.0000     2.3924E+00     6.9394   2.2455    99.4600
 58      1.4505     5.1843E-02    6.9227E-02    1.015200E+08  0.05000  1.700E-03    0   0.7096   age116_m72            0.0000     1.5895E+00     5.3580   1.9956   101.4462
 59     11.3932     9.3752E-01    1.1702E+00    2.861200E+08  0.05000  7.384E-04    0   0.6633   age125_m72            0.0000     1.1739E+00     4.3240   1.4945   105.0169
 60      5.6305     8.9582E-01    1.0741E+00    5.088000E+08  0.05000  3.819E-04    0   0.6372   age130_m72            0.0000     1.0014E+00     4.0749   1.0095   106.3550
 61      1.1911     4.3182E-01    4.9649E-01    9.047900E+08  0.05000  1.676E-04    0   0.6110   age135_m72            0.0000     1.4533E+00     5.0150   0.3199   104.3442
 62     15.4830     1.0646E+01    1.1767E+01    1.434000E+09  0.05000  8.837E-05    0   0.5874   age139_m72            0.0000     1.7425E+00     5.5720  -0.1324   103.8054
 63      3.8257     5.4915E+00    5.7848E+00    2.500000E+09  0.05000  4.233E-05    0   0.5598   age150_m72            0.0000     2.6121E+00     6.6712  -0.4244   101.8089
 64      6.0049     2.5426E+01    2.5114E+01    6.250000E+09  0.05000  1.435E-05    0   0.5249   age166_m72            0.0000     3.7363E+00     7.7728  -0.8517    99.4758
 65      3.6418     3.3975E+01    3.2196E+01    1.300000E+10  0.05000  6.513E-06    0   0.5036   age193_m72            0.0000     5.3197E+00     8.8119  -1.0000    95.1445
 66      0.0000     0.0000E+00    0.0000E+00    1.800000E+10  0.05000  4.527E-06    0   0.4945   age213_m72            0.0000     7.1069E+00     9.7639  -1.0000    88.6990


## Synthesis Results - Average & Chains ##

# j      x_j: min, <> & last-chain-values for 1 ...  7 chains
  1      0.0000      0.0841      0.0000      0.0000      0.8644      0.0000      0.0000      0.0516      0.2087
  2      0.0000      0.1109      0.2126      0.0000      0.0000      0.0000      0.0000      0.0000      0.0000
  3      0.0000      0.0744      0.0000      0.0106      0.0000      0.0000      0.0000      0.0000      0.0000
  4      0.0000      0.1896      0.0000      0.0000      0.0000      0.4606      0.0343      0.0000      0.0000
  5      0.0125      0.3484      0.1731      0.0000      0.0000      1.0259      0.0000      1.1710      1.1130
  6      0.0000      0.4759      0.0000      1.3783      0.5251      0.1295      0.0000      0.7750      0.0000
  7      0.0000      0.3421      0.9789      2.2163      0.3503      0.0000      0.3388      0.2691      0.4353
  8      0.0000      1.2887      1.7545      0.6881      1.4283      0.9337      0.0000      1.6294      0.0000
  9      0.3703      0.8545      0.5170      0.5180      0.7591      1.9097      0.7836      0.1614      0.5309
 10      0.0000      0.5177      1.0998      0.8383      0.0000      0.3464      0.5746      0.3451      0.0000
 11      0.0000      0.2846      1.4198      0.0000      0.0000      0.0193      0.0768      0.1642      0.0822
 12      0.0000      0.2145      0.0000      0.0000      0.0000      0.0000      0.0126      0.0000      0.0000
 13     26.0480     36.0068     34.1825     36.4187     32.2468     34.5886     36.3342     33.8570     36.4910
 14      0.0000      0.2400      0.0000      0.0000      0.2914      0.0000      0.0000      0.1705      0.0000
 15      0.0000      0.1470      0.0000      0.0000      0.0000      0.4168      0.0000      0.0000      0.0000
 16      0.0000      0.0704      0.0000      0.0000      0.0000      0.0000      0.0512      0.0000      0.0000
 17      0.0000      0.0604      0.0000      0.0000      0.0000      0.0000      0.2064      0.0000      0.0000
 18      0.0000      0.0963      0.0000      0.0000      0.0000      0.4196      0.0000      0.5530      0.0000
 19      0.0000      0.1784      0.0000      0.4662      0.0116      0.0000      0.0000      0.0000      0.0000
 20      0.0000      0.1774      0.5037      0.0000      0.2200      0.0222      0.3851      0.0000      0.0000
 21      0.0000      0.2778      0.5042      0.0000      0.1137      0.0000      0.7266      0.0000      0.0000
 22      0.0000      0.2913      0.0000      0.0000      0.3282      0.3402      0.8633      0.0000      0.0000
 23      0.6333      0.9628      0.5135      1.0548      1.5400      0.0000      0.7679      1.3011      1.0432
 24      4.7087      2.1441      2.3872      2.7428      2.2650      2.4884      2.1447      2.8991      2.0435
 25      1.6071      0.7988      1.3530      0.1613      0.9257      1.1935      0.0000      1.0760      1.1319
 26      1.7183      0.9381      1.2125      1.1716      1.0042      1.5843      0.1336      0.8045      0.5927
 27      0.0000      0.3657      0.1955      0.1564      2.1598      0.0000      0.0000      0.4423      0.0000
 28      0.0000      0.3941      0.3255      0.0000      0.0000      0.1238      0.0000      0.0000      0.5101
 29      0.0000      0.2187      0.0000      0.0000      0.0000      0.0000      0.0000      0.0000      0.0000
 30      0.0000      0.0790      0.0000      0.0000      0.0000      0.0000      0.0000      0.0000      0.0000
 31      0.0000      0.0895      0.0000      0.0000      0.0000      0.0000      0.0613      0.2818      0.0000
 32      0.0000      0.0543      0.0000      0.0000      0.0000      0.0000      0.0000      0.0000      0.0546
 33      0.0000      0.0540      0.0000      0.0000      0.0000      0.0000      0.0000      0.0000      0.0000
 34      2.2181      1.9898      1.6791      1.9262      2.5733      2.0719      1.3646      1.9233      2.2017
 35      0.0000      0.1183      0.2168      0.3846      0.7867      0.0000      0.2124      0.0000      0.0000
 36      0.0000      0.0984      0.0000      0.0000      0.0000      0.5171      0.0694      0.0000      0.5564
 37      0.0007      0.1152      0.0000      0.2187      0.4690      0.0000      0.0000      0.0000      0.6163
 38      3.4146      2.4539      2.3484      1.9244      1.5003      2.7664      2.8522      2.6191      3.1503
 39      0.0000      0.2636      0.0000      0.0000      0.2272      0.6933      0.6597      0.0000      0.0000
 40      0.0000      0.4552      0.0000      0.0000      0.7642      1.0726      0.0649      0.4294      0.5003
 41      2.0401      1.5183      1.8507      1.0855      1.5143      2.0927      3.3889      1.9689      2.5043
 42      4.1584      2.8680      3.1198      2.3262      3.2655      3.2063      1.5605      3.1108      3.6075
 43     10.4475      4.1886      4.9062      5.3416      5.3406      4.2271      6.3315      4.2752      6.0116
 44      0.0000      0.8314      0.2537      1.6307      1.6119      0.8974      0.5830      0.0000      0.0000
 45      0.0000      0.5568      0.0473      0.0000      0.2591      0.0000      0.0000      0.0000      0.0000
 46      0.0000      0.4278      0.0000      0.0000      0.0000      0.0000      0.0000      0.0000      0.0000
