###################################################################
## OUTPUT of StarlightChains_v04.for    [Cid@UFSC - 01/Apr/2007] ##
###################################################################

## Some input info
PTF13ayw.txt                             [arq_obs]
Base.CB07.vall.4m                        [arq_base]
Masks.EmLines.NEW.gm                     [arq_masks]
StCv04.C11.config                        [arq_config]
   66                                    [N_base]
    0                                    [N_YAV_components = # of components with extra extinction!]
    0                                    [i_FitPowerLaw (1/0 = Yes/No)]
-9.99                                    [alpha_PowerLaw]
CCM                                      [red_law_option]
 1.458241                                [q_norm = A(l_norm)/A(V)]

## (Re)Sampling Parameters
 3741.00                                 [l_ini (A)]
 7218.00                                 [l_fin (A)]
    1.00                                 [dl    (A)]     (OBS: dl_cushion =    50.00 A)

## Normalization info
 4020.00                                 [l_norm (A) - for base]
 4010.00                                 [llow_norm (A) - window for f_obs]
 4060.00                                 [lupp_norm (A) - window for f_obs]
5.746048E-18                             [fobs_norm (in input units)]

## S/N
 3691.00                                 [llow_SN (A) - window for S/N]
 7268.00                                 [lupp_SN (A) - window for S/N]
   3.999                                 [S/N in S/N window]
   2.638                                 [S/N in norm. window]
   8.855                                 [S/N_err in S/N window]
   5.842                                 [S/N_err in norm. window]
  1.0000                                 [fscale_chi2]

## etc...
    -2007466                             [idum_orig]
  2203                                   [NOl_eff]
  2139                                   [Nl_eff]
    64    NSIGMA                         [Ntot_cliped & clip_method]
   475090                                [Nglobal_steps]
   7                                     [N_chains]
   7                                     [NEX0s_base = N_base in EX0s-fits]
 0   0   1       50   2.0   1.556E+01    [Clip-Bug, RC-Crash & Burn-In warning-flags, n_censored_weights, wei_nsig_threshold & wei_limit]
    10      9.712      9.215      0.496  [idt_all, wdt_TotTime, wdt_UsrTime & wdt_SysTime (sec)]

## Synthesis Results - Best model ##

 9.93106E-01                             [chi2/Nl_eff]
     9.89026                             [adev (%)]

   117.11504                             [sum-of-x (%)]
 7.81026E-18                             [Flux_tot (units of input spectrum!)]
 6.49579E-13                             [Mini_tot (???)]
 3.22691E-13                             [Mcor_tot (???)]

-185.06                                  [v0_min  (km/s)]
 304.59                                  [vd_min  (km/s)]
 0.1109                                  [AV_min  (mag)]
 0.0000                                  [YAV_min (mag)]

# j     x_j(%)      Mini_j(%)     Mcor_j(%)     age_j(yr)     Z_j      (L/M)_j    YAV?  Mstars   component_j        a/Fe...       SSP_chi2r SSP_adev(%)   SSP_AV   SSP_x(%)
  1      0.0000     0.0000E+00    0.0000E+00    1.000000E+06  0.00400  1.094E-02    0   1.0000   age020_m42            0.0000     1.8656E+00    11.5293   4.0000    98.2645
  2      0.0000     0.0000E+00    0.0000E+00    3.160000E+06  0.00400  4.007E-02    0   0.9999   age045_m42            0.0000     1.7974E+00    11.7810   3.3733   101.2960
  3      0.0000     0.0000E+00    0.0000E+00    5.010000E+06  0.00400  2.539E-02    0   0.9488   age055_m42            0.0000     1.8227E+00    11.7946   3.7154    97.7046
  4      0.0000     0.0000E+00    0.0000E+00    6.610000E+06  0.00400  2.620E-02    0   0.9220   age061_m42            0.0000     1.8575E+00    11.9105   3.3038   101.3907
  5      0.0000     0.0000E+00    0.0000E+00    1.000000E+07  0.00400  1.322E-02    0   0.8862   age070_m42            0.0000     2.1322E+00    12.6897   3.0386   102.9310
  6      0.0000     0.0000E+00    0.0000E+00    1.445000E+07  0.00400  7.883E-03    0   0.8571   age078_m42            0.0000     2.0868E+00    12.5408   3.3747    99.8553
  7      0.0000     0.0000E+00    0.0000E+00    2.512000E+07  0.00400  5.251E-03    0   0.8174   age090_m42            0.0000     2.2057E+00    12.9070   2.9060   103.6565
  8      0.0000     0.0000E+00    0.0000E+00    4.000000E+07  0.00400  3.649E-03    0   0.7851   age104_m42            0.0000     2.1488E+00    12.7832   2.6652   105.1922
  9      0.0000     0.0000E+00    0.0000E+00    5.500000E+07  0.00400  3.098E-03    0   0.7629   age110_m42            0.0000     2.0544E+00    12.4856   2.8115   105.5755
 10      0.0000     0.0000E+00    0.0000E+00    1.015200E+08  0.00400  2.228E-03    0   0.7207   age116_m42            0.0000     2.0249E+00    12.3501   2.8270   106.0051
 11      0.0000     0.0000E+00    0.0000E+00    2.861200E+08  0.00400  1.093E-03    0   0.6648   age125_m42            0.0000     2.0735E+00    12.5956   2.2505   110.0317
 12      0.0000     0.0000E+00    0.0000E+00    5.088000E+08  0.00400  6.597E-04    0   0.6365   age130_m42            0.0000     1.9569E+00    12.2155   2.2181   112.0218
 13      0.0000     0.0000E+00    0.0000E+00    1.434000E+09  0.00400  2.132E-04    0   0.5798   age139_m42            0.0000     1.6247E+00    11.5408   1.1789   117.7121
 14      0.0000     0.0000E+00    0.0000E+00    4.250000E+09  0.00400  5.895E-05    0   0.5377   age158_m42            0.0000     1.1646E+00    10.3575   0.6966   115.2589
 15      0.0000     0.0000E+00    0.0000E+00    7.500000E+09  0.00400  3.510E-05    0   0.5212   age171_m42            0.0000     1.0655E+00    10.0618   0.4900   115.5742
 16     24.9931     1.2798E+01    1.2968E+01    1.300000E+10  0.00400  2.005E-05    0   0.5034   age193_m42            0.0000     1.0017E+00     9.8427   0.3119   115.7466
 17     76.3249     5.1383E+01    5.1376E+01    1.800000E+10  0.00400  1.525E-05    0   0.4967   age213_m42            0.0000     1.0058E+00     9.8561   0.2920   115.0239
 18      0.0000     0.0000E+00    0.0000E+00    1.000000E+06  0.00800  1.238E-02    0   1.0000   age020_m52            0.0000     1.8593E+00    11.5166   4.0000    98.3022
 19      0.0000     0.0000E+00    0.0000E+00    3.160000E+06  0.00800  3.074E-02    0   0.9966   age045_m52            0.0000     1.8042E+00    11.5781   4.0000    96.1107
 20      0.0000     0.0000E+00    0.0000E+00    5.010000E+06  0.00800  2.668E-02    0   0.9443   age055_m52            0.0000     1.8252E+00    11.7832   3.8004    96.6545
 21      0.0000     0.0000E+00    0.0000E+00    6.610000E+06  0.00800  2.136E-02    0   0.9177   age061_m52            0.0000     1.8877E+00    12.0832   2.5086   105.4329
 22      0.0000     0.0000E+00    0.0000E+00    1.000000E+07  0.00800  1.215E-02    0   0.8827   age070_m52            0.0000     2.1992E+00    12.8856   3.2262   102.3887
 23      0.0000     0.0000E+00    0.0000E+00    1.445000E+07  0.00800  8.717E-03    0   0.8552   age078_m52            0.0000     2.0957E+00    12.5759   3.3349   101.4816
 24      0.0000     0.0000E+00    0.0000E+00    2.512000E+07  0.00800  5.592E-03    0   0.8162   age090_m52            0.0000     2.2152E+00    12.9538   2.9677   105.0686
 25      0.0000     0.0000E+00    0.0000E+00    4.000000E+07  0.00800  3.896E-03    0   0.7841   age104_m52            0.0000     2.1425E+00    12.7794   2.8685   106.5597
 26      0.0000     0.0000E+00    0.0000E+00    1.015200E+08  0.00800  2.148E-03    0   0.7226   age116_m52            0.0000     2.0188E+00    12.4293   2.7909   107.1319
 27      0.0000     0.0000E+00    0.0000E+00    2.861200E+08  0.00800  9.925E-04    0   0.6683   age125_m52            0.0000     1.9723E+00    12.2265   2.2793   113.1978
 28      0.0000     0.0000E+00    0.0000E+00    9.047900E+08  0.00800  3.141E-04    0   0.6138   age135_m52            0.0000     1.4973E+00    11.4026   1.3853   123.4555
 29      0.0000     0.0000E+00    0.0000E+00    1.434000E+09  0.00800  1.719E-04    0   0.5853   age139_m52            0.0000     1.3117E+00    10.8375   0.8034   120.9862
 30      0.0000     0.0000E+00    0.0000E+00    2.500000E+09  0.00800  7.872E-05    0   0.5600   age150_m52            0.0000     1.1081E+00    10.2700   0.5007   119.4089
 31      0.0000     0.0000E+00    0.0000E+00    4.250000E+09  0.00800  4.336E-05    0   0.5426   age158_m52            0.0000     1.0712E+00    10.1655   0.4790   118.6595
 32      0.0000     0.0000E+00    0.0000E+00    6.250000E+09  0.00800  3.159E-05    0   0.5319   age166_m52            0.0000     1.0371E+00    10.1101   0.2509   120.1376
 33      0.0000     0.0000E+00    0.0000E+00    1.300000E+10  0.00800  1.361E-05    0   0.5073   age193_m52            0.0000     1.0598E+00    10.2398  -0.2520   121.2389
 34      0.0043     4.4463E-03    4.4663E-03    1.800000E+10  0.00800  9.886E-06    0   0.4990   age213_m52            0.0000     1.1190E+00    10.4388  -0.3800   121.8043
 35      0.0000     0.0000E+00    0.0000E+00    1.000000E+06  0.02000  1.544E-02    0   1.0000   age020_m62            0.0000     1.8575E+00    11.5091   4.0000    98.3526
 36      0.0000     0.0000E+00    0.0000E+00    3.160000E+06  0.02000  3.762E-02    0   0.9858   age045_m62            0.0000     1.8078E+00    11.5119   4.0000    96.7726
 37      0.0000     0.0000E+00    0.0000E+00    5.010000E+06  0.02000  3.296E-02    0   0.9342   age055_m62            0.0000     1.8091E+00    11.7202   3.6700    99.1720
 38      0.0000     0.0000E+00    0.0000E+00    8.710000E+06  0.02000  1.154E-02    0   0.8861   age067_m62            0.0000     3.0635E+00    15.2283   2.7096   103.9462
 39      0.0000     0.0000E+00    0.0000E+00    1.445000E+07  0.02000  7.663E-03    0   0.8472   age078_m62            0.0000     2.3579E+00    13.4121   2.8750   104.8738
 40      0.0000     0.0000E+00    0.0000E+00    2.512000E+07  0.02000  4.532E-03    0   0.8099   age090_m62            0.0000     2.4617E+00    13.6817   2.8722   104.4369
 41      0.0000     0.0000E+00    0.0000E+00    5.500000E+07  0.02000  2.733E-03    0   0.7595   age110_m62            0.0000     2.1496E+00    12.7457   2.8566   105.4653
 42      0.0000     0.0000E+00    0.0000E+00    1.609000E+08  0.02000  1.369E-03    0   0.6985   age120_m62            0.0000     2.1062E+00    12.5270   2.6726   109.5789
 43      0.0000     0.0000E+00    0.0000E+00    2.861200E+08  0.02000  9.013E-04    0   0.6714   age125_m62            0.0000     2.0948E+00    12.4540   2.3948   114.1719
 44      0.0000     0.0000E+00    0.0000E+00    5.088000E+08  0.02000  5.028E-04    0   0.6449   age130_m62            0.0000     1.7731E+00    11.8549   1.9541   120.7827
 45      0.0000     0.0000E+00    0.0000E+00    9.047900E+08  0.02000  2.428E-04    0   0.6179   age135_m62            0.0000     1.3352E+00    10.9767   1.3118   123.3136
 46      0.0000     0.0000E+00    0.0000E+00    1.434000E+09  0.02000  1.263E-04    0   0.5908   age139_m62            0.0000     1.1659E+00    10.5134   0.8472   122.5919
 47      0.0000     0.0000E+00    0.0000E+00    2.500000E+09  0.02000  5.985E-05    0   0.5673   age150_m62            0.0000     1.0638E+00    10.2209   0.4548   122.3541
 48      0.0000     0.0000E+00    0.0000E+00    4.250000E+09  0.02000  3.271E-05    0   0.5468   age158_m62            0.0000     1.0639E+00    10.2613   0.1130   123.3406
 49      0.0000     0.0000E+00    0.0000E+00    1.000000E+10  0.02000  1.360E-05    0   0.5167   age181_m62            0.0000     1.1996E+00    10.7731  -0.2753   125.2339
 50      0.0000     0.0000E+00    0.0000E+00    1.800000E+10  0.02000  7.124E-06    0   0.5013   age213_m62            0.0000     1.3589E+00    11.2710  -0.5032   125.3500
 51      0.0000     0.0000E+00    0.0000E+00    1.000000E+06  0.05000  2.592E-02    0   0.9998   age020_m72            0.0000     1.8647E+00    11.5440   4.0000    97.9891
 52      0.0000     0.0000E+00    0.0000E+00    3.160000E+06  0.05000  4.845E-02    0   0.9577   age045_m72            0.0000     1.7860E+00    11.6520   3.9438    95.7141
 53      0.0000     0.0000E+00    0.0000E+00    5.010000E+06  0.05000  3.072E-02    0   0.9147   age055_m72            0.0000     2.0878E+00    12.5879   3.4774   100.2128
 54      0.0000     0.0000E+00    0.0000E+00    6.610000E+06  0.05000  1.455E-02    0   0.8877   age061_m72            0.0000     3.6566E+00    16.6369   2.7982   104.2084
 55      0.0000     0.0000E+00    0.0000E+00    1.000000E+07  0.05000  9.074E-03    0   0.8524   age070_m72            0.0000     2.1335E+00    12.7157   3.6784    99.6510
 56      0.0000     0.0000E+00    0.0000E+00    2.512000E+07  0.05000  4.250E-03    0   0.7902   age090_m72            0.0000     2.1956E+00    12.9208   3.3555   102.3746
 57      0.0000     0.0000E+00    0.0000E+00    4.000000E+07  0.05000  3.087E-03    0   0.7618   age104_m72            0.0000     2.3015E+00    13.2251   3.1237   104.3261
 58      0.0000     0.0000E+00    0.0000E+00    1.015200E+08  0.05000  1.700E-03    0   0.7096   age116_m72            0.0000     2.1932E+00    12.8091   2.8279   108.6071
 59      0.0000     0.0000E+00    0.0000E+00    2.861200E+08  0.05000  7.384E-04    0   0.6633   age125_m72            0.0000     1.9606E+00    12.1888   2.2313   117.5335
 60      0.0000     0.0000E+00    0.0000E+00    5.088000E+08  0.05000  3.819E-04    0   0.6372   age130_m72            0.0000     1.5473E+00    11.4356   1.6704   123.1863
 61      0.0000     0.0000E+00    0.0000E+00    9.047900E+08  0.05000  1.676E-04    0   0.6110   age135_m72            0.0000     1.1781E+00    10.6301   0.9140   124.4018
 62      0.0000     0.0000E+00    0.0000E+00    1.434000E+09  0.05000  8.837E-05    0   0.5874   age139_m72            0.0000     1.0727E+00    10.3646   0.4367   125.1581
 63      0.0000     0.0000E+00    0.0000E+00    2.500000E+09  0.05000  4.233E-05    0   0.5598   age150_m72            0.0000     1.0916E+00    10.3992   0.1000   125.1174
 64      0.0000     0.0000E+00    0.0000E+00    6.250000E+09  0.05000  1.435E-05    0   0.5249   age166_m72            0.0000     1.2400E+00    10.9511  -0.3789   125.0331
 65      0.0000     0.0000E+00    0.0000E+00    1.300000E+10  0.05000  6.513E-06    0   0.5036   age193_m72            0.0000     1.4582E+00    11.5298  -0.6738   127.1583
 66     15.7928     3.5815E+01    3.5652E+01    1.800000E+10  0.05000  4.527E-06    0   0.4945   age213_m72            0.0000     1.6067E+00    11.9265  -0.8414   127.3303


## Synthesis Results - Average & Chains ##

# j      x_j: min, <> & last-chain-values for 1 ...  7 chains
  1      0.0000      0.0184      0.0000      0.0000      0.0000      0.0000      0.0000      0.0000      0.0000
  2      0.0000      0.0228      0.0000      0.0000      0.0000      0.0000      0.0000      0.0000      0.0000
  3      0.0000      0.0384      0.0000      0.0000      0.0000      0.0000      0.0000      0.0000      0.5930
  4      0.0000      0.0080      0.0000      0.0000      0.0000      0.0000      0.0000      0.0000      0.0000
  5      0.0000      0.0161      0.0000      0.0000      0.0000      0.0000      0.0000      0.0000      0.1525
  6      0.0000      0.0068      0.0000      0.0000      0.0000      0.0000      0.0000      0.0268      0.0000
  7      0.0000      0.0165      0.0000      0.0000      0.0000      0.0000      0.0000      0.0000      0.0000
  8      0.0000      0.0123      0.0000      0.0000      0.0000      0.0000      0.0000      0.0000      0.0000
  9      0.0000      0.0330      0.0000      0.0000      0.0313      0.3028      0.0000      0.0000      0.0000
 10      0.0000      0.0109      0.0000      0.0000      0.0000      0.0000      0.0000      0.0000      0.0000
 11      0.0000      0.0249      0.0000      0.0000      0.0000      0.0000      0.0000      0.0000      0.0000
 12      0.0000      0.0385      0.0000      0.0000      0.0000      0.0000      0.0000      0.0000      0.0000
 13      0.0000      0.0292      0.0000      0.0000      0.0000      0.0000      0.0000      0.0000      0.0000
 14      0.0000      0.3926      0.0000      0.0000      0.0000      0.0000      0.0000      0.0000      0.0000
 15      0.0000      1.2809      0.0000      0.0000      1.3257      0.1370      0.0000      0.0000      0.0000
 16     24.9931     39.1004     50.9271     42.0127     40.8226     80.5626     23.1827     50.7682     42.4717
 17     76.3249     43.6629     40.2907     52.9351     52.8177     16.7374     61.5376     40.1620     44.5876
 18      0.0000      0.0284      0.0000      0.0000      0.0000      0.0000      0.6895      0.2451      0.0000
 19      0.0000      0.0421      0.0000      0.0000      0.0000      0.0000      0.0000      0.0000      0.0000
 20      0.0000      0.0883      0.5610      0.0000      0.0000      0.0000      0.0000      0.1021      0.0000
 21      0.0000      0.0332      0.0000      0.0000      0.0000      0.0000      0.0000      0.0000      0.0000
 22      0.0000      0.0099      0.0000      0.0000      0.0000      0.0000      0.0000      0.0000      0.0000
 23      0.0000      0.0138      0.0000      0.0000      0.0000      0.0347      0.1763      0.0000      0.0000
 24      0.0000      0.0181      0.0000      0.0000      0.0000      0.0000      0.0000      0.0000      0.0000
 25      0.0000      0.0098      0.0000      0.0000      0.0000      0.0000      0.0000      0.0000      0.0000
 26      0.0000      0.0351      0.0000      0.0000      0.0000      0.0000      0.0000      0.0000      0.0000
 27      0.0000      0.0076      0.0000      0.0000      0.0000      0.0000      0.0000      0.0000      0.0000
 28      0.0000      0.0465      0.0000      0.0000      0.0000      0.0000      0.0000      0.0000      0.0000
 29      0.0000      0.0749      0.0000      0.0000      0.1312      0.0000      0.0000      0.0000      0.0000
 30      0.0000      0.1798      0.0000      0.0000      0.0000      0.0000      0.0000      0.0000      0.6827
 31      0.0000      0.8203      0.0000      0.0000      0.0000      0.3214      0.0000      0.0000      0.0000
 32      0.0000      0.7125      0.0000      0.0962      0.0000      0.0000      0.0000      0.0000      0.0000
 33      0.0000      3.3617      0.0000      1.3396      0.0000      3.7367      0.0000      0.0000      0.0000
 34      0.0043      6.5604      8.9091      7.7256      6.5216      9.2460     10.0071      6.7621      5.7478
 35      0.0000      0.0484      0.0591      0.0000      0.0000      0.0000      0.0000      0.0000      0.0000
 36      0.0000      0.1116      0.0000      0.0000      0.0000      0.0000      0.0000      0.0000      0.0000
 37      0.0000      0.0159      0.0000      0.0000      0.0000      0.0000      0.0000      0.0000      0.0000
 38      0.0000      0.0208      0.0000      0.0000      0.0000      0.0000      0.0000      0.0000      0.0000
 39      0.0000      0.0301      0.0000      0.0000      0.0000      0.0000      0.0000      0.0000      0.0000
 40      0.0000      0.0298      0.0000      0.0000      0.0000      0.0000      0.0000      0.0000      0.0000
 41      0.0000      0.0071      0.0000      0.0000      0.0000      0.0000      0.0000      0.0000      0.0000
 42      0.0000      0.0179      0.0000      0.0000      0.0000      0.0000      0.0000      0.0000      0.2269
 43      0.0000      0.0234      0.0000      0.0000      0.0000      0.0000      0.0000      0.0000      0.0000
 44      0.0000      0.0465      0.0000      0.0000      0.0000      0.0676      0.0000      0.0000      0.0000
 45      0.0000      0.0673      0.0000      0.0000      0.0000      0.0000      0.0000      0.0000      0.0000
 46      0.0000      0.0984      0.0000      0.0000      0.0000      0.0000      0.0000      0.0000      0.0000
