###################################################################
## OUTPUT of StarlightChains_v04.for    [Cid@UFSC - 01/Apr/2007] ##
###################################################################

## Some input info
PTF12ikt.txt                             [arq_obs]
Base.CB07.vall.4m                        [arq_base]
Masks.EmLines.NEW.gm                     [arq_masks]
StCv04.C11.config                        [arq_config]
   66                                    [N_base]
    0                                    [N_YAV_components = # of components with extra extinction!]
    0                                    [i_FitPowerLaw (1/0 = Yes/No)]
-9.99                                    [alpha_PowerLaw]
CCM                                      [red_law_option]
 1.458241                                [q_norm = A(l_norm)/A(V)]

## (Re)Sampling Parameters
 3741.00                                 [l_ini (A)]
 7218.00                                 [l_fin (A)]
    1.00                                 [dl    (A)]     (OBS: dl_cushion =    50.00 A)

## Normalization info
 4020.00                                 [l_norm (A) - for base]
 4010.00                                 [llow_norm (A) - window for f_obs]
 4060.00                                 [lupp_norm (A) - window for f_obs]
2.221915E-18                             [fobs_norm (in input units)]

## S/N
 3691.00                                 [llow_SN (A) - window for S/N]
 7268.00                                 [lupp_SN (A) - window for S/N]
   4.229                                 [S/N in S/N window]
   5.044                                 [S/N in norm. window]
   0.000                                 [S/N_err in S/N window]
   0.000                                 [S/N_err in norm. window]
  1.0000                                 [fscale_chi2]

## etc...
    -2007465                             [idum_orig]
  2076                                   [NOl_eff]
  2074                                   [Nl_eff]
     2    NSIGMA                         [Ntot_cliped & clip_method]
   959280                                [Nglobal_steps]
   7                                     [N_chains]
  19                                     [NEX0s_base = N_base in EX0s-fits]
 0   0   1        2   2.0   2.037E+01    [Clip-Bug, RC-Crash & Burn-In warning-flags, n_censored_weights, wei_nsig_threshold & wei_limit]
    14     14.624     14.129      0.495  [idt_all, wdt_TotTime, wdt_UsrTime & wdt_SysTime (sec)]

## Synthesis Results - Best model ##

 5.79873E-01                             [chi2/Nl_eff]
    19.63560                             [adev (%)]

   106.95724                             [sum-of-x (%)]
 1.05843E-18                             [Flux_tot (units of input spectrum!)]
 2.24282E-14                             [Mini_tot (???)]
 1.17372E-14                             [Mcor_tot (???)]

  68.37                                  [v0_min  (km/s)]
 136.38                                  [vd_min  (km/s)]
-0.6022                                  [AV_min  (mag)]
 0.0000                                  [YAV_min (mag)]

# j     x_j(%)      Mini_j(%)     Mcor_j(%)     age_j(yr)     Z_j      (L/M)_j    YAV?  Mstars   component_j        a/Fe...       SSP_chi2r SSP_adev(%)   SSP_AV   SSP_x(%)
  1      2.7618     1.1139E-02    2.1284E-02    1.000000E+06  0.00400  1.094E-02    0   1.0000   age020_m42            0.0000     6.7442E-01    22.4933   2.5182    93.7647
  2      0.0000     0.0000E+00    0.0000E+00    3.160000E+06  0.00400  4.007E-02    0   0.9999   age045_m42            0.0000     6.5241E-01    21.5835   1.7937   100.3333
  3      0.0000     0.0000E+00    0.0000E+00    5.010000E+06  0.00400  2.539E-02    0   0.9488   age055_m42            0.0000     6.6246E-01    22.0777   2.1130    97.8651
  4      0.0000     0.0000E+00    0.0000E+00    6.610000E+06  0.00400  2.620E-02    0   0.9220   age061_m42            0.0000     6.5103E-01    21.6835   1.7192   100.6924
  5      0.0000     0.0000E+00    0.0000E+00    1.000000E+07  0.00400  1.322E-02    0   0.8862   age070_m42            0.0000     6.4698E-01    22.3499   1.3968   105.1263
  6      0.0000     0.0000E+00    0.0000E+00    1.445000E+07  0.00400  7.883E-03    0   0.8571   age078_m42            0.0000     6.5541E-01    22.5356   1.7330   101.9660
  7      0.0000     0.0000E+00    0.0000E+00    2.512000E+07  0.00400  5.251E-03    0   0.8174   age090_m42            0.0000     6.5039E-01    22.4668   1.2593   106.1494
  8      0.0000     0.0000E+00    0.0000E+00    4.000000E+07  0.00400  3.649E-03    0   0.7851   age104_m42            0.0000     6.4291E-01    22.1929   1.0346   106.8867
  9      0.0000     0.0000E+00    0.0000E+00    5.500000E+07  0.00400  3.098E-03    0   0.7629   age110_m42            0.0000     6.4138E-01    21.7458   1.2077   105.8344
 10      0.0000     0.0000E+00    0.0000E+00    1.015200E+08  0.00400  2.228E-03    0   0.7207   age116_m42            0.0000     6.4112E-01    21.4660   1.2410   105.3490
 11      0.0000     0.0000E+00    0.0000E+00    2.861200E+08  0.00400  1.093E-03    0   0.6648   age125_m42            0.0000     6.3031E-01    21.3586   0.6682   109.1741
 12      0.0000     0.0000E+00    0.0000E+00    5.088000E+08  0.00400  6.597E-04    0   0.6365   age130_m42            0.0000     6.2213E-01    20.8190   0.6750   109.0529
 13      0.0000     0.0000E+00    0.0000E+00    1.434000E+09  0.00400  2.132E-04    0   0.5798   age139_m42            0.0000     5.9620E-01    19.9492  -0.2872   110.5256
 14      0.0000     0.0000E+00    0.0000E+00    4.250000E+09  0.00400  5.895E-05    0   0.5377   age158_m42            0.0000     5.8266E-01    19.4326  -0.6862   103.9663
 15      0.2283     2.8702E-01    2.8586E-01    7.500000E+09  0.00400  3.510E-05    0   0.5212   age171_m42            0.0000     5.8327E-01    19.2525  -0.8529   102.2758
 16     15.4065     3.3904E+01    3.2613E+01    1.300000E+10  0.00400  2.005E-05    0   0.5034   age193_m42            0.0000     5.8586E-01    19.1344  -0.9973   100.8119
 17      7.2594     2.1003E+01    1.9935E+01    1.800000E+10  0.00400  1.525E-05    0   0.4967   age213_m42            0.0000     5.8595E-01    19.1373  -1.0000    99.5403
 18      2.1942     7.8201E-03    1.4943E-02    1.000000E+06  0.00800  1.238E-02    0   1.0000   age020_m52            0.0000     6.7394E-01    22.5037   2.5145    93.9444
 19      0.0000     0.0000E+00    0.0000E+00    3.160000E+06  0.00800  3.074E-02    0   0.9966   age045_m52            0.0000     6.7308E-01    22.4676   2.4383    94.7466
 20      0.0000     0.0000E+00    0.0000E+00    5.010000E+06  0.00800  2.668E-02    0   0.9443   age055_m52            0.0000     6.6236E-01    22.2327   2.1929    97.0760
 21      0.9269     1.9147E-03    3.3576E-03    6.610000E+06  0.00800  2.136E-02    0   0.9177   age061_m52            0.0000     6.2203E-01    21.9729   0.8980   106.0919
 22      0.0000     0.0000E+00    0.0000E+00    1.000000E+07  0.00800  1.215E-02    0   0.8827   age070_m52            0.0000     6.5157E-01    22.7055   1.5704   105.3256
 23      0.0000     0.0000E+00    0.0000E+00    1.445000E+07  0.00800  8.717E-03    0   0.8552   age078_m52            0.0000     6.5019E-01    22.4625   1.6946   103.5704
 24      0.0000     0.0000E+00    0.0000E+00    2.512000E+07  0.00800  5.592E-03    0   0.8162   age090_m52            0.0000     6.4778E-01    22.4531   1.3246   107.4426
 25      0.0000     0.0000E+00    0.0000E+00    4.000000E+07  0.00800  3.896E-03    0   0.7841   age104_m52            0.0000     6.4131E-01    22.0878   1.2483   107.7077
 26      0.0000     0.0000E+00    0.0000E+00    1.015200E+08  0.00800  2.148E-03    0   0.7226   age116_m52            0.0000     6.3479E-01    21.5646   1.2049   106.4846
 27      0.0000     0.0000E+00    0.0000E+00    2.861200E+08  0.00800  9.925E-04    0   0.6683   age125_m52            0.0000     6.2143E-01    20.7868   0.7408   110.0113
 28      0.3183     4.4719E-02    5.2451E-02    9.047900E+08  0.00800  3.141E-04    0   0.6138   age135_m52            0.0000     5.9587E-01    19.5023  -0.0208   112.5212
 29     21.7895     5.5928E+00    6.2551E+00    1.434000E+09  0.00800  1.719E-04    0   0.5853   age139_m52            0.0000     5.8418E-01    19.4143  -0.5848   109.4326
 30      0.0000     0.0000E+00    0.0000E+00    2.500000E+09  0.00800  7.872E-05    0   0.5600   age150_m52            0.0000     5.8600E-01    19.0548  -0.8170   104.4192
 31     10.4560     1.0640E+01    1.1032E+01    4.250000E+09  0.00800  4.336E-05    0   0.5426   age158_m52            0.0000     5.8447E-01    19.0797  -0.8294   103.2590
 32     16.6205     2.3214E+01    2.3594E+01    6.250000E+09  0.00800  3.159E-05    0   0.5319   age166_m52            0.0000     5.9137E-01    18.8735  -1.0000   101.7556
 33      0.0000     0.0000E+00    0.0000E+00    1.300000E+10  0.00800  1.361E-05    0   0.5073   age193_m52            0.0000     7.2171E-01    19.6247  -1.0000    82.6838
 34      0.0000     0.0000E+00    0.0000E+00    1.800000E+10  0.00800  9.886E-06    0   0.4990   age213_m52            0.0000     7.7501E-01    20.1805  -1.0000    78.3979
 35      0.0000     0.0000E+00    0.0000E+00    1.000000E+06  0.02000  1.544E-02    0   1.0000   age020_m62            0.0000     6.7407E-01    22.5324   2.5100    94.1865
 36      0.0000     0.0000E+00    0.0000E+00    3.160000E+06  0.02000  3.762E-02    0   0.9858   age045_m62            0.0000     6.7452E-01    22.5460   2.4515    94.9321
 37      0.0000     0.0000E+00    0.0000E+00    5.010000E+06  0.02000  3.296E-02    0   0.9342   age055_m62            0.0000     6.5839E-01    21.8751   2.0783    98.8422
 38      0.0000     0.0000E+00    0.0000E+00    8.710000E+06  0.02000  1.154E-02    0   0.8861   age067_m62            0.0000     7.1718E-01    25.1139   0.9496   112.8549
 39      0.0000     0.0000E+00    0.0000E+00    1.445000E+07  0.02000  7.663E-03    0   0.8472   age078_m62            0.0000     6.5350E-01    23.1535   1.1981   109.0716
 40      0.0000     0.0000E+00    0.0000E+00    2.512000E+07  0.02000  4.532E-03    0   0.8099   age090_m62            0.0000     6.6141E-01    23.2576   1.1921   108.8199
 41      0.0000     0.0000E+00    0.0000E+00    5.500000E+07  0.02000  2.733E-03    0   0.7595   age110_m62            0.0000     6.3889E-01    22.1547   1.2314   106.8886
 42      0.0000     0.0000E+00    0.0000E+00    1.609000E+08  0.02000  1.369E-03    0   0.6985   age120_m62            0.0000     6.3364E-01    21.3501   1.0908   108.7135
 43      0.0000     0.0000E+00    0.0000E+00    2.861200E+08  0.02000  9.013E-04    0   0.6714   age125_m62            0.0000     6.2844E-01    20.8260   0.8463   111.4637
 44      0.0000     0.0000E+00    0.0000E+00    5.088000E+08  0.02000  5.028E-04    0   0.6449   age130_m62            0.0000     6.1404E-01    19.8465   0.4991   112.7076
 45      0.0000     0.0000E+00    0.0000E+00    9.047900E+08  0.02000  2.428E-04    0   0.6179   age135_m62            0.0000     5.9151E-01    19.1943  -0.0528   110.2082
 46      0.0085     2.9826E-03    3.3672E-03    1.434000E+09  0.02000  1.263E-04    0   0.5908   age139_m62            0.0000     5.8716E-01    19.0718  -0.4786   107.5723
 47      0.0000     0.0000E+00    0.0000E+00    2.500000E+09  0.02000  5.985E-05    0   0.5673   age150_m62            0.0000     5.9407E-01    18.9080  -0.8077   104.1682
 48      0.0000     0.0000E+00    0.0000E+00    4.250000E+09  0.02000  3.271E-05    0   0.5468   age158_m62            0.0000     6.1661E-01    18.7610  -1.0000    98.2989
 49      0.0000     0.0000E+00    0.0000E+00    1.000000E+10  0.02000  1.360E-05    0   0.5167   age181_m62            0.0000     7.2061E-01    19.6623  -1.0000    84.2620
 50      0.0000     0.0000E+00    0.0000E+00    1.800000E+10  0.02000  7.124E-06    0   0.5013   age213_m62            0.0000     8.2691E-01    20.7961  -1.0000    76.1793
 51      4.3664     7.4327E-03    1.4200E-02    1.000000E+06  0.05000  2.592E-02    0   0.9998   age020_m72            0.0000     6.7631E-01    22.6654   2.4990    94.3117
 52      0.0000     0.0000E+00    0.0000E+00    3.160000E+06  0.05000  4.845E-02    0   0.9577   age045_m72            0.0000     6.7067E-01    22.2827   2.3400    95.9678
 53      0.0000     0.0000E+00    0.0000E+00    5.010000E+06  0.05000  3.072E-02    0   0.9147   age055_m72            0.0000     6.5085E-01    22.7784   1.8321   102.5753
 54      4.6303     1.4041E-02    2.3818E-02    6.610000E+06  0.05000  1.455E-02    0   0.8877   age061_m72            0.0000     7.8332E-01    26.2685   1.0205   114.4364
 55      0.0000     0.0000E+00    0.0000E+00    1.000000E+07  0.05000  9.074E-03    0   0.8524   age070_m72            0.0000     6.5877E-01    22.7025   2.0532   101.2302
 56      0.0000     0.0000E+00    0.0000E+00    2.512000E+07  0.05000  4.250E-03    0   0.7902   age090_m72            0.0000     6.5560E-01    22.5418   1.7252   104.0861
 57      0.0000     0.0000E+00    0.0000E+00    4.000000E+07  0.05000  3.087E-03    0   0.7618   age104_m72            0.0000     6.5878E-01    22.5721   1.4858   106.4761
 58      0.0000     0.0000E+00    0.0000E+00    1.015200E+08  0.05000  1.700E-03    0   0.7096   age116_m72            0.0000     6.4014E-01    21.6729   1.2260   108.8463
 59      0.0000     0.0000E+00    0.0000E+00    2.861200E+08  0.05000  7.384E-04    0   0.6633   age125_m72            0.0000     6.2010E-01    20.2864   0.7345   111.8569
 60      0.0000     0.0000E+00    0.0000E+00    5.088000E+08  0.05000  3.819E-04    0   0.6372   age130_m72            0.0000     6.0257E-01    19.4592   0.2726   111.8251
 61     19.9619     5.2551E+00    6.1356E+00    9.047900E+08  0.05000  1.676E-04    0   0.6110   age135_m72            0.0000     5.9697E-01    18.9361  -0.3662   106.7502
 62      0.0285     1.4219E-02    1.5960E-02    1.434000E+09  0.05000  8.837E-05    0   0.5874   age139_m72            0.0000     5.9954E-01    18.9151  -0.8018   105.3897
 63      0.0000     0.0000E+00    0.0000E+00    2.500000E+09  0.05000  4.233E-05    0   0.5598   age150_m72            0.0000     6.2572E-01    18.7986  -1.0000    99.0536
 64      0.0000     0.0000E+00    0.0000E+00    6.250000E+09  0.05000  1.435E-05    0   0.5249   age166_m72            0.0000     7.7051E-01    20.0968  -1.0000    80.4054
 65      0.0000     0.0000E+00    0.0000E+00    1.300000E+10  0.05000  6.513E-06    0   0.5036   age193_m72            0.0000     9.3771E-01    21.8555  -1.0000    71.6125
 66      0.0000     0.0000E+00    0.0000E+00    1.800000E+10  0.05000  4.527E-06    0   0.4945   age213_m72            0.0000     1.0520E+00    23.0003  -1.0000    66.4426


## Synthesis Results - Average & Chains ##

# j      x_j: min, <> & last-chain-values for 1 ...  7 chains
  1      2.7618      0.2650      0.0000      0.0000      1.5891      1.5671      1.9219      0.0000      0.0000
  2      0.0000      0.6068      1.3649      0.0000      0.0000      0.0000      0.0000      0.0000      0.0000
  3      0.0000      0.3382      0.8458      0.6601      0.0000      0.0000      2.9584      0.0000      0.0000
  4      0.0000      0.7907      0.0000      4.4978      0.0000      4.8132      0.1584      0.0000      2.7186
  5      0.0000      0.5628      0.0000      0.0000      0.0000      0.0000      0.0000      0.0000      0.0000
  6      0.0000      0.4113      0.0000      0.0000      0.0000      0.0000      0.0000      2.6610      0.0000
  7      0.0000      0.4331      0.0000      0.0000      0.0000      0.7797      0.0000      0.0000      0.6722
  8      0.0000      0.5018      0.0000      3.5986      1.4832      0.6103      0.0000      0.0000      1.1640
  9      0.0000      0.3554      0.0000      0.0000      0.0000      0.0000      0.8211      0.0000      0.0000
 10      0.0000      0.3969      0.0000      0.0000      0.0000      0.0000      0.0000      0.0000      0.0000
 11      0.0000      0.8715      0.0000      0.0000      0.0000      0.0000      0.0000      0.0000      0.0000
 12      0.0000      1.3811      0.0000      0.0000      0.0000      0.0000      0.0000      0.0000      0.0000
 13      0.0000      6.3980      0.0000      0.0000      2.9443      0.0000      0.0000      1.2043      1.2004
 14      0.0000      2.5754      5.0176      1.5330      3.5953     10.8821      8.7068      3.1904      0.0000
 15      0.2283      0.8738      1.5069      0.0000      0.0000      0.0000     12.8342      0.0000      0.0000
 16     15.4065      1.1307      3.3364      3.0570      0.7415      2.1739      2.6891      3.1111      0.4238
 17      7.2594      0.3505      0.0000      0.9155      0.0000      1.6744      8.1984      0.0000      0.0000
 18      2.1942      0.3353      0.0000      0.0000      0.0000      0.0000      2.1008      0.0000      1.4373
 19      0.0000      0.1363      0.0000      0.0000      0.0000      0.0000      0.0000      0.0000      0.1264
 20      0.0000      0.2462      0.0000      0.0000      0.0000      0.7652      0.0000      0.0000      0.0000
 21      0.9269      2.2429      3.1230      0.0000      0.0000      2.9934      1.9151      5.2012      1.1806
 22      0.0000      1.2021      0.0000      0.0000      0.0000      0.0000      0.0000      1.5821      0.0000
 23      0.0000      0.6261      0.0000      0.0000      0.0000      6.5728      0.0000      0.0000      0.0000
 24      0.0000      0.4629      1.8359      0.0000      0.0000      4.4055      0.0000      0.0000      0.0000
 25      0.0000      0.3994      0.0000      0.0000      0.0000      0.0000      0.0000      1.4380      0.0000
 26      0.0000      0.5650      0.0000      0.0000      0.3341      0.0000      0.0000      0.0000      1.4021
 27      0.0000      1.5374      4.4717      0.0000      0.0000      2.0219      0.0000      0.0000      0.0000
 28      0.3183      8.9644      6.3796      5.4118      0.0000      0.0000      4.5515      8.3676     12.6904
 29     21.7895      4.3161      1.1810      5.6944      3.5323      4.8197     23.2348      5.4039     10.2451
 30      0.0000      1.7913      0.0000      2.6716      0.8913      0.0000      0.0000      0.1743      2.3384
 31     10.4560      1.9488      3.2357      0.0000      5.8956      9.0840      6.5298      0.5079      0.0000
 32     16.6205      0.6845      1.6870      0.0000      2.1450      1.0845      1.0284      0.5874      0.0000
 33      0.0000      0.2028      0.0000      0.0000      0.0000      0.0000      0.0000      0.0000      0.0000
 34      0.0000      0.1169      0.0000      0.0000      0.0000      0.0000      0.0000      0.5343      0.0000
 35      0.0000      0.3992      0.0000      0.0000      1.2664      0.9875      0.0000      0.8758      0.0000
 36      0.0000      0.5007      0.0000      1.7325      0.0000      0.0000      0.0000      0.0000      1.7488
 37      0.0000      0.2464      2.4743      0.0000      0.0000      0.0000      0.0000      0.0000      0.0000
 38      0.0000      0.6167      0.0000      0.5126      0.0000      0.0000      0.0000      0.0000      0.0000
 39      0.0000      0.4927      0.0000      0.0000      1.0143      0.0000      0.3567      0.0000      0.0000
 40      0.0000      0.5489      0.0000      2.8730      3.8056      0.5682      0.0000      1.2912      0.0000
 41      0.0000      0.6299      0.0000      0.0000      0.0000      0.0000      0.0000      0.0000      0.3286
 42      0.0000      0.6484      0.0000      0.0000      0.0000      0.0000      0.0000      0.0000      0.1464
 43      0.0000      0.6514      0.0000      0.0000      0.6296      0.0000      0.0000      0.0000      0.0000
 44      0.0000      1.0642      0.0584      0.0000      0.0000      0.0000      0.0000      0.0125      0.0000
 45      0.0000     16.7538     21.7124     29.2589     19.5082     17.9669      0.0000     18.3833     18.1060
 46      0.0085     10.7999     10.9835      2.5299     21.4256      0.0000      1.9292     12.3730     23.9363
