###################################################################
## OUTPUT of StarlightChains_v04.for    [Cid@UFSC - 01/Apr/2007] ##
###################################################################

## Some input info
PTF10hcw.txt                             [arq_obs]
Base.CB07.vall.4m                        [arq_base]
Masks.EmLines.NEW.gm                     [arq_masks]
StCv04.C11.config                        [arq_config]
   66                                    [N_base]
    0                                    [N_YAV_components = # of components with extra extinction!]
    0                                    [i_FitPowerLaw (1/0 = Yes/No)]
-9.99                                    [alpha_PowerLaw]
CCM                                      [red_law_option]
 1.458241                                [q_norm = A(l_norm)/A(V)]

## (Re)Sampling Parameters
 3741.00                                 [l_ini (A)]
 7218.00                                 [l_fin (A)]
    1.00                                 [dl    (A)]     (OBS: dl_cushion =    50.00 A)

## Normalization info
 4020.00                                 [l_norm (A) - for base]
 4010.00                                 [llow_norm (A) - window for f_obs]
 4060.00                                 [lupp_norm (A) - window for f_obs]
2.198666E-16                             [fobs_norm (in input units)]

## S/N
 3691.00                                 [llow_SN (A) - window for S/N]
 7268.00                                 [lupp_SN (A) - window for S/N]
   6.699                                 [S/N in S/N window]
   5.742                                 [S/N in norm. window]
  18.548                                 [S/N_err in S/N window]
  15.898                                 [S/N_err in norm. window]
  1.0000                                 [fscale_chi2]

## etc...
    -2007462                             [idum_orig]
  2384                                   [NOl_eff]
  2384                                   [Nl_eff]
     0    NSIGMA                         [Ntot_cliped & clip_method]
  1642830                                [Nglobal_steps]
   7                                     [N_chains]
  27                                     [NEX0s_base = N_base in EX0s-fits]
 0   0   1        0   2.0   2.405E+01    [Clip-Bug, RC-Crash & Burn-In warning-flags, n_censored_weights, wei_nsig_threshold & wei_limit]
    14     13.894     13.396      0.498  [idt_all, wdt_TotTime, wdt_UsrTime & wdt_SysTime (sec)]

## Synthesis Results - Best model ##

 3.34568E-01                             [chi2/Nl_eff]
     2.53961                             [adev (%)]

   110.69257                             [sum-of-x (%)]
 2.87257E-16                             [Flux_tot (units of input spectrum!)]
 8.08549E-12                             [Mini_tot (???)]
 4.25272E-12                             [Mcor_tot (???)]

-391.75                                  [v0_min  (km/s)]
 197.06                                  [vd_min  (km/s)]
 0.1234                                  [AV_min  (mag)]
 0.0000                                  [YAV_min (mag)]

# j     x_j(%)      Mini_j(%)     Mcor_j(%)     age_j(yr)     Z_j      (L/M)_j    YAV?  Mstars   component_j        a/Fe...       SSP_chi2r SSP_adev(%)   SSP_AV   SSP_x(%)
  1      2.5988     7.6244E-03    1.4496E-02    1.000000E+06  0.00400  1.094E-02    0   1.0000   age020_m42            0.0000     2.0154E+00     6.5275   3.3806    97.2500
  2      0.0000     0.0000E+00    0.0000E+00    3.160000E+06  0.00400  4.007E-02    0   0.9999   age045_m42            0.0000     1.7442E+00     5.7751   2.6844   102.1703
  3      0.0000     0.0000E+00    0.0000E+00    5.010000E+06  0.00400  2.539E-02    0   0.9488   age055_m42            0.0000     1.8411E+00     6.0210   2.9907   100.4465
  4      0.0000     0.0000E+00    0.0000E+00    6.610000E+06  0.00400  2.620E-02    0   0.9220   age061_m42            0.0000     1.7429E+00     5.7912   2.6091   102.4260
  5      0.0000     0.0000E+00    0.0000E+00    1.000000E+07  0.00400  1.322E-02    0   0.8862   age070_m42            0.0000     1.9980E+00     6.5007   2.2985   105.5153
  6      0.0000     0.0000E+00    0.0000E+00    1.445000E+07  0.00400  7.883E-03    0   0.8571   age078_m42            0.0000     2.0409E+00     6.5790   2.6223   103.1710
  7      0.1355     8.2804E-04    1.2868E-03    2.512000E+07  0.00400  5.251E-03    0   0.8174   age090_m42            0.0000     2.0775E+00     6.6989   2.1664   106.0659
  8      0.3691     3.2464E-03    4.8457E-03    4.000000E+07  0.00400  3.649E-03    0   0.7851   age104_m42            0.0000     1.9400E+00     6.4533   1.9445   106.6441
  9      1.5764     1.6332E-02    2.3688E-02    5.500000E+07  0.00400  3.098E-03    0   0.7629   age110_m42            0.0000     1.8234E+00     6.1279   2.1167   105.9235
 10      0.0000     0.0000E+00    0.0000E+00    1.015200E+08  0.00400  2.228E-03    0   0.7207   age116_m42            0.0000     1.7633E+00     5.9888   2.1500   105.5893
 11      0.0000     0.0000E+00    0.0000E+00    2.861200E+08  0.00400  1.093E-03    0   0.6648   age125_m42            0.0000     1.8794E+00     6.4242   1.5741   108.8518
 12      0.0000     0.0000E+00    0.0000E+00    5.088000E+08  0.00400  6.597E-04    0   0.6365   age130_m42            0.0000     1.6016E+00     5.9243   1.5817   109.0308
 13      0.0000     0.0000E+00    0.0000E+00    1.434000E+09  0.00400  2.132E-04    0   0.5798   age139_m42            0.0000     8.8641E-01     4.4407   0.6221   110.4006
 14      0.0000     0.0000E+00    0.0000E+00    4.250000E+09  0.00400  5.895E-05    0   0.5377   age158_m42            0.0000     4.8066E-01     3.0234   0.1849   106.4145
 15      0.1199     1.0963E-01    1.0864E-01    7.500000E+09  0.00400  3.510E-05    0   0.5212   age171_m42            0.0000     4.3169E-01     2.8791   0.0043   105.4941
 16      4.9709     7.9573E+00    7.6159E+00    1.300000E+10  0.00400  2.005E-05    0   0.5034   age193_m42            0.0000     4.4435E-01     2.9898  -0.1549   104.7921
 17      0.0000     0.0000E+00    0.0000E+00    1.800000E+10  0.00400  1.525E-05    0   0.4967   age213_m42            0.0000     4.4626E-01     2.9724  -0.1801   104.3814
 18      0.0000     0.0000E+00    0.0000E+00    1.000000E+06  0.00800  1.238E-02    0   1.0000   age020_m52            0.0000     2.0115E+00     6.5256   3.3769    97.4414
 19      1.2008     1.2538E-03    2.3756E-03    3.160000E+06  0.00800  3.074E-02    0   0.9966   age045_m52            0.0000     1.9769E+00     6.4340   3.3038    98.1253
 20      0.0000     0.0000E+00    0.0000E+00    5.010000E+06  0.00800  2.668E-02    0   0.9443   age055_m52            0.0000     1.8523E+00     6.0896   3.0663    99.8686
 21      1.2511     1.8799E-03    3.2800E-03    6.610000E+06  0.00800  2.136E-02    0   0.9177   age061_m52            0.0000     1.5199E+00     5.8525   1.7923   107.0332
 22      0.0000     0.0000E+00    0.0000E+00    1.000000E+07  0.00800  1.215E-02    0   0.8827   age070_m52            0.0000     2.1460E+00     6.9016   2.4656   105.8064
 23      0.0000     0.0000E+00    0.0000E+00    1.445000E+07  0.00800  8.717E-03    0   0.8552   age078_m52            0.0000     1.9860E+00     6.4828   2.5876   104.5331
 24      0.0000     0.0000E+00    0.0000E+00    2.512000E+07  0.00800  5.592E-03    0   0.8162   age090_m52            0.0000     2.0518E+00     6.6920   2.2299   107.2685
 25      0.0000     0.0000E+00    0.0000E+00    4.000000E+07  0.00800  3.896E-03    0   0.7841   age104_m52            0.0000     1.9385E+00     6.4607   2.1537   107.5789
 26      0.0000     0.0000E+00    0.0000E+00    1.015200E+08  0.00800  2.148E-03    0   0.7226   age116_m52            0.0000     1.7226E+00     6.0204   2.1080   106.7960
 27      0.0000     0.0000E+00    0.0000E+00    2.861200E+08  0.00800  9.925E-04    0   0.6683   age125_m52            0.0000     1.5238E+00     5.8141   1.6458   110.0107
 28      0.0000     0.0000E+00    0.0000E+00    9.047900E+08  0.00800  3.141E-04    0   0.6138   age135_m52            0.0000     8.8660E-01     4.4474   0.8751   113.1471
 29      0.0000     0.0000E+00    0.0000E+00    1.434000E+09  0.00800  1.719E-04    0   0.5853   age139_m52            0.0000     5.9696E-01     3.4734   0.2862   111.3805
 30      0.1083     4.4160E-02    4.7018E-02    2.500000E+09  0.00800  7.872E-05    0   0.5600   age150_m52            0.0000     3.8644E-01     2.7927   0.0335   107.9875
 31      0.0000     0.0000E+00    0.0000E+00    4.250000E+09  0.00800  4.336E-05    0   0.5426   age158_m52            0.0000     4.1207E-01     2.8631   0.0170   107.0792
 32      0.0000     0.0000E+00    0.0000E+00    6.250000E+09  0.00800  3.159E-05    0   0.5319   age166_m52            0.0000     4.6420E-01     3.1854  -0.1724   106.6051
 33      0.0000     0.0000E+00    0.0000E+00    1.300000E+10  0.00800  1.361E-05    0   0.5073   age193_m52            0.0000     6.5060E-01     3.9091  -0.6226   105.1381
 34      0.0000     0.0000E+00    0.0000E+00    1.800000E+10  0.00800  9.886E-06    0   0.4990   age213_m52            0.0000     8.7240E-01     4.6167  -0.7151   104.0634
 35      1.0384     2.1585E-03    4.1039E-03    1.000000E+06  0.02000  1.544E-02    0   1.0000   age020_m62            0.0000     2.0228E+00     6.5580   3.3710    97.7589
 36      0.0000     0.0000E+00    0.0000E+00    3.160000E+06  0.02000  3.762E-02    0   0.9858   age045_m62            0.0000     2.0079E+00     6.5287   3.3126    98.5179
 37      0.0000     0.0000E+00    0.0000E+00    5.010000E+06  0.02000  3.296E-02    0   0.9342   age055_m62            0.0000     1.7643E+00     5.8011   2.9571   101.3820
 38      3.8537     1.0718E-02    1.8057E-02    8.710000E+06  0.02000  1.154E-02    0   0.8861   age067_m62            0.0000     3.6276E+00    10.0669   1.8558   110.9378
 39      0.8123     3.4021E-03    5.4800E-03    1.445000E+07  0.02000  7.663E-03    0   0.8472   age078_m62            0.0000     2.4246E+00     7.7290   2.0947   108.7761
 40      1.4271     1.0107E-02    1.5563E-02    2.512000E+07  0.02000  4.532E-03    0   0.8099   age090_m62            0.0000     2.6031E+00     7.9588   2.0865   108.4296
 41      0.7327     8.6045E-03    1.2425E-02    5.500000E+07  0.02000  2.733E-03    0   0.7595   age110_m62            0.0000     1.8828E+00     6.3695   2.1322   107.0481
 42      0.0000     0.0000E+00    0.0000E+00    1.609000E+08  0.02000  1.369E-03    0   0.6985   age120_m62            0.0000     1.7174E+00     6.0545   1.9984   108.7130
 43      0.0000     0.0000E+00    0.0000E+00    2.861200E+08  0.02000  9.013E-04    0   0.6714   age125_m62            0.0000     1.5904E+00     5.9333   1.7635   110.9868
 44      0.0000     0.0000E+00    0.0000E+00    5.088000E+08  0.02000  5.028E-04    0   0.6449   age130_m62            0.0000     1.1998E+00     5.2312   1.4132   112.6968
 45      0.0000     0.0000E+00    0.0000E+00    9.047900E+08  0.02000  2.428E-04    0   0.6179   age135_m62            0.0000     6.3757E-01     3.6804   0.8299   112.0233
 46      0.0006     1.4219E-04    1.5971E-04    1.434000E+09  0.02000  1.263E-04    0   0.5908   age139_m62            0.0000     4.4152E-01     3.0317   0.3831   110.6054
 47      0.0275     1.4745E-02    1.5904E-02    2.500000E+09  0.02000  5.985E-05    0   0.5673   age150_m62            0.0000     4.3869E-01     3.0738   0.0293   108.7633
 48      7.2606     7.1242E+00    7.4064E+00    4.250000E+09  0.02000  3.271E-05    0   0.5468   age158_m62            0.0000     6.4151E-01     3.9203  -0.2545   106.9891
 49      0.0000     0.0000E+00    0.0000E+00    1.000000E+10  0.02000  1.360E-05    0   0.5167   age181_m62            0.0000     1.1056E+00     5.2380  -0.5762   105.4402
 50      0.0000     0.0000E+00    0.0000E+00    1.800000E+10  0.02000  7.124E-06    0   0.5013   age213_m62            0.0000     1.5589E+00     6.2739  -0.7647   103.7867
 51      0.0000     0.0000E+00    0.0000E+00    1.000000E+06  0.05000  2.592E-02    0   0.9998   age020_m72            0.0000     2.0706E+00     6.6611   3.3600    97.9006
 52      0.0000     0.0000E+00    0.0000E+00    3.160000E+06  0.05000  4.845E-02    0   0.9577   age045_m72            0.0000     1.9110E+00     6.2085   3.2070    99.2633
 53      0.0000     0.0000E+00    0.0000E+00    5.010000E+06  0.05000  3.072E-02    0   0.9147   age055_m72            0.0000     2.2591E+00     7.1811   2.6926   104.6985
 54      1.2040     2.6559E-03    4.4825E-03    6.610000E+06  0.05000  1.455E-02    0   0.8877   age061_m72            0.0000     6.2851E+00    12.7588   1.8782   113.2327
 55      0.3042     1.0758E-03    1.7435E-03    1.000000E+07  0.05000  9.074E-03    0   0.8524   age070_m72            0.0000     2.8846E+00     7.7910   2.8795   104.4664
 56      5.6551     4.2707E-02    6.4161E-02    2.512000E+07  0.05000  4.250E-03    0   0.7902   age090_m72            0.0000     2.5239E+00     7.3471   2.5867   105.6875
 57      0.9025     9.3835E-03    1.3591E-02    4.000000E+07  0.05000  3.087E-03    0   0.7618   age104_m72            0.0000     2.6450E+00     7.5090   2.3592   107.2269
 58      0.0000     0.0000E+00    0.0000E+00    1.015200E+08  0.05000  1.700E-03    0   0.7096   age116_m72            0.0000     1.9492E+00     6.4944   2.1300   108.7115
 59      0.7499     3.2597E-02    4.1108E-02    2.861200E+08  0.05000  7.384E-04    0   0.6633   age125_m72            0.0000     1.3510E+00     5.5093   1.6461   111.8144
 60      0.0000     0.0000E+00    0.0000E+00    5.088000E+08  0.05000  3.819E-04    0   0.6372   age130_m72            0.0000     8.0859E-01     4.2584   1.1707   112.9206
 61     21.8411     4.1826E+00    4.8588E+00    9.047900E+08  0.05000  1.676E-04    0   0.6110   age135_m72            0.0000     5.0494E-01     3.3181   0.4869   110.7509
 62      7.7615     2.8189E+00    3.1482E+00    1.434000E+09  0.05000  8.837E-05    0   0.5874   age139_m72            0.0000     4.7181E-01     3.2431   0.0331   110.1025
 63     37.2354     2.8233E+01    3.0049E+01    2.500000E+09  0.05000  4.233E-05    0   0.5598   age150_m72            0.0000     7.2694E-01     4.2338  -0.2489   107.6804
 64      0.8666     1.9382E+00    1.9343E+00    6.250000E+09  0.05000  1.435E-05    0   0.5249   age166_m72            0.0000     1.2429E+00     5.5596  -0.6668   104.7658
 65      0.0000     0.0000E+00    0.0000E+00    1.300000E+10  0.05000  6.513E-06    0   0.5036   age193_m72            0.0000     1.8897E+00     6.8918  -0.9196   104.6772
 66      6.6888     4.7423E+01    4.4585E+01    1.800000E+10  0.05000  4.527E-06    0   0.4945   age213_m72            0.0000     2.4117E+00     7.7600  -1.0000   101.0698


## Synthesis Results - Average & Chains ##

# j      x_j: min, <> & last-chain-values for 1 ...  7 chains
  1      2.5988      0.5093      0.0000      0.6727      0.0000      0.3947      0.6399      0.0000      0.0000
  2      0.0000      0.1453      0.0000      0.0714      0.0000      0.0000      0.1670      0.0000      0.6656
  3      0.0000      0.2266      1.7059      0.0000      0.4360      0.0000      0.0000      0.0000      0.0000
  4      0.0000      0.1572      0.0000      0.0000      0.8280      0.3533      0.0000      0.1774      0.0000
  5      0.0000      0.2167      0.0000      0.0000      0.0000      0.2971      0.0000      0.0000      0.1808
  6      0.0000      0.3848      0.0000      3.3478      0.0000      0.6336      0.0868      0.1653      0.0000
  7      0.1355      0.6139      0.0000      0.0000      0.9631      1.5195      1.4275      1.1526      0.1217
  8      0.3691      0.2606      0.0000      1.2194      0.2741      0.0000      1.6686      0.0000      0.0000
  9      1.5764      0.6280      0.9038      0.3021      0.0000      0.6273      0.7318      0.0000      0.0000
 10      0.0000      0.3914      0.0307      0.6145      0.1015      0.0000      0.0000      0.0000      0.5130
 11      0.0000      0.4393      0.0000      2.7991      1.1747      0.0180      0.0000      0.0000      0.3377
 12      0.0000      0.2022      0.0357      0.0000      0.0000      0.0000      0.0000      0.0802      0.0000
 13      0.0000      0.5007      0.8020      0.0000      0.0215      0.0000      0.0000      0.0000      0.4623
 14      0.0000      0.9899      0.3091      0.4209      0.0000      0.0000      0.0000      0.6103      0.1497
 15      0.1199      0.5995      0.0000      0.5446      1.8058      1.1119      0.7013      1.5264      0.0000
 16      4.9709      1.9634      3.4371      1.8804      1.3592      3.0547      1.6428      2.9242      2.6461
 17      0.0000      0.4602      1.9608      1.2998      0.0000      0.0000      0.0262      0.0000      0.0000
 18      0.0000      0.1228      0.0000      0.8002      1.3663      0.0287      0.0000      0.0000      0.6420
 19      1.2008      0.8816      0.7813      0.5758      0.2809      1.0377      0.8208      0.7124      2.1260
 20      0.0000      0.2098      0.5669      0.3147      0.0000      0.0000      0.0000      0.0217      0.7334
 21      1.2511      0.3968      0.0000      0.8110      0.0000      0.2313      1.4752      0.0000      3.5268
 22      0.0000      0.1956      0.0000      0.0000      1.6020      0.0000      0.0000      0.0000      0.1125
 23      0.0000      0.3157      0.0000      0.0000      0.0000      0.0000      0.0000      0.5234      0.0000
 24      0.0000      0.1744      0.1106      0.0000      0.5968      0.3202      0.0000      0.3828      0.3270
 25      0.0000      0.2876      0.2159      0.0000      0.0000      0.0000      0.0000      0.5794      0.0000
 26      0.0000      0.2955      0.0000      0.1511      1.3190      2.0599      0.0000      0.0000      0.0000
 27      0.0000      0.2861      1.2157      0.0000      0.0000      0.3712      0.2427      1.1283      1.2102
 28      0.0000      0.3436      0.0000      0.0000      0.0801      0.0000      0.0000      0.0000      0.0000
 29      0.0000      1.2592      0.0000      0.0000      1.2644      0.0000      0.0000      0.2806      0.9263
 30      0.1083      1.5968      0.0000      1.4302      0.1217      0.3646      1.3175      0.6279      0.9062
 31      0.0000      1.2128      0.0000      0.3998      0.0000      0.0000      0.0000      0.0000      0.5585
 32      0.0000      0.5114      0.0000      0.0000      1.8413      0.4240      0.0000      0.0000      0.0000
 33      0.0000      0.1098      0.0000      0.0000      0.0050      0.0590      0.0000      0.0000      0.4592
 34      0.0000      0.1163      0.0000      1.1648      0.0000      0.0000      0.3973      0.0000      0.0000
 35      1.0384      0.4552      1.1586      0.0687      0.3610      0.0000      0.6716      0.0000      0.0698
 36      0.0000      0.4185      0.0000      0.0197      0.0000      0.1251      0.1844      3.5761      2.4240
 37      0.0000      0.2606      0.7703      0.9858      0.0000      0.0000      0.0000      0.0000      0.0000
 38      3.8537      1.9828      1.9718      2.4676      1.8798      2.6611      2.7327      2.0395      1.8844
 39      0.8123      0.3672      1.6529      0.3194      0.0000      0.0000      0.9146      0.0000      0.0555
 40      1.4271      0.3018      0.0000      0.6044      0.0000      1.2516      1.1664      0.1859      0.0000
 41      0.7327      0.2575      0.9954      0.0000      1.0008      0.9791      0.4997      0.0000      0.0000
 42      0.0000      0.3914      1.2371      0.0000      0.0000      0.4620      0.0000      0.0000      0.7278
 43      0.0000      0.1775      0.0000      0.0000      0.0000      0.0000      0.0000      0.0000      0.0000
 44      0.0000      0.2490      0.0000      0.0000      0.2536      0.0000      0.0191      0.0184      0.0000
 45      0.0000      0.3588      0.0000      0.0000      0.8132      0.0000      0.0000      0.0000      0.0000
 46      0.0006      1.1546      0.0000      2.9942      0.0000      1.1839      0.7740      0.0702      0.0000
