###################################################################
## OUTPUT of StarlightChains_v04.for    [Cid@UFSC - 01/Apr/2007] ##
###################################################################

## Some input info
PTF11kju.txt                             [arq_obs]
Base.CB07.vall.4m                        [arq_base]
Masks.EmLines.NEW.gm                     [arq_masks]
StCv04.C11.config                        [arq_config]
   66                                    [N_base]
    0                                    [N_YAV_components = # of components with extra extinction!]
    0                                    [i_FitPowerLaw (1/0 = Yes/No)]
-9.99                                    [alpha_PowerLaw]
CCM                                      [red_law_option]
 1.458241                                [q_norm = A(l_norm)/A(V)]

## (Re)Sampling Parameters
 3741.00                                 [l_ini (A)]
 7218.00                                 [l_fin (A)]
    1.00                                 [dl    (A)]     (OBS: dl_cushion =    50.00 A)

## Normalization info
 4020.00                                 [l_norm (A) - for base]
 4010.00                                 [llow_norm (A) - window for f_obs]
 4060.00                                 [lupp_norm (A) - window for f_obs]
1.201502E-16                             [fobs_norm (in input units)]

## S/N
 3691.00                                 [llow_SN (A) - window for S/N]
 7268.00                                 [lupp_SN (A) - window for S/N]
  10.499                                 [S/N in S/N window]
   9.672                                 [S/N in norm. window]
  33.068                                 [S/N_err in S/N window]
  30.465                                 [S/N_err in norm. window]
  1.0000                                 [fscale_chi2]

## etc...
    -2007463                             [idum_orig]
  2327                                   [NOl_eff]
  2301                                   [Nl_eff]
    26    NSIGMA                         [Ntot_cliped & clip_method]
  1826370                                [Nglobal_steps]
   7                                     [N_chains]
  27                                     [NEX0s_base = N_base in EX0s-fits]
 0   0   1      105   2.0   6.186E+01    [Clip-Bug, RC-Crash & Burn-In warning-flags, n_censored_weights, wei_nsig_threshold & wei_limit]
    16     16.077     15.580      0.497  [idt_all, wdt_TotTime, wdt_UsrTime & wdt_SysTime (sec)]

## Synthesis Results - Best model ##

 7.41537E-01                             [chi2/Nl_eff]
     1.97771                             [adev (%)]

   109.69264                             [sum-of-x (%)]
 2.97277E-16                             [Flux_tot (units of input spectrum!)]
 5.49798E-12                             [Mini_tot (???)]
 2.86739E-12                             [Mcor_tot (???)]

 -19.29                                  [v0_min  (km/s)]
 356.60                                  [vd_min  (km/s)]
 0.6056                                  [AV_min  (mag)]
 0.0000                                  [YAV_min (mag)]

# j     x_j(%)      Mini_j(%)     Mcor_j(%)     age_j(yr)     Z_j      (L/M)_j    YAV?  Mstars   component_j        a/Fe...       SSP_chi2r SSP_adev(%)   SSP_AV   SSP_x(%)
  1      1.0713     4.8268E-03    9.2551E-03    1.000000E+06  0.00400  1.094E-02    0   1.0000   age020_m42            0.0000     4.9523E+00     4.7838   3.2231    95.1508
  2      0.0000     0.0000E+00    0.0000E+00    3.160000E+06  0.00400  4.007E-02    0   0.9999   age045_m42            0.0000     3.6212E+00     3.9624   2.5255   100.2107
  3      0.0000     0.0000E+00    0.0000E+00    5.010000E+06  0.00400  2.539E-02    0   0.9488   age055_m42            0.0000     3.8587E+00     4.0722   2.8338    98.3819
  4      0.0000     0.0000E+00    0.0000E+00    6.610000E+06  0.00400  2.620E-02    0   0.9220   age061_m42            0.0000     3.5794E+00     3.8796   2.4560   100.2882
  5      0.0000     0.0000E+00    0.0000E+00    1.000000E+07  0.00400  1.322E-02    0   0.8862   age070_m42            0.0000     3.1322E+00     3.4441   2.1870   101.8595
  6      0.0000     0.0000E+00    0.0000E+00    1.445000E+07  0.00400  7.883E-03    0   0.8571   age078_m42            0.0000     3.3902E+00     3.5488   2.5063    99.7063
  7      0.0000     0.0000E+00    0.0000E+00    2.512000E+07  0.00400  5.251E-03    0   0.8174   age090_m42            0.0000     3.1417E+00     3.4725   2.0614   102.1853
  8      0.0000     0.0000E+00    0.0000E+00    4.000000E+07  0.00400  3.649E-03    0   0.7851   age104_m42            0.0000     2.9556E+00     3.4279   1.8344   102.9784
  9      0.0000     0.0000E+00    0.0000E+00    5.500000E+07  0.00400  3.098E-03    0   0.7629   age110_m42            0.0000     3.5182E+00     3.6630   1.9888   102.9393
 10      0.0000     0.0000E+00    0.0000E+00    1.015200E+08  0.00400  2.228E-03    0   0.7207   age116_m42            0.0000     4.1595E+00     3.8800   2.0103   103.0588
 11      0.0000     0.0000E+00    0.0000E+00    2.861200E+08  0.00400  1.093E-03    0   0.6648   age125_m42            0.0000     4.2745E+00     4.0341   1.4598   105.4686
 12      0.0000     0.0000E+00    0.0000E+00    5.088000E+08  0.00400  6.597E-04    0   0.6365   age130_m42            0.0000     5.1833E+00     4.1361   1.4457   106.4904
 13      0.0000     0.0000E+00    0.0000E+00    1.434000E+09  0.00400  2.132E-04    0   0.5798   age139_m42            0.0000     4.1797E+00     3.4387   0.4618   109.0552
 14      2.9454     2.4629E+00    2.5392E+00    4.250000E+09  0.00400  5.895E-05    0   0.5377   age158_m42            0.0000     3.6249E+00     3.9009  -0.0099   106.4893
 15      0.0001     1.5797E-04    1.5786E-04    7.500000E+09  0.00400  3.510E-05    0   0.5212   age171_m42            0.0000     4.8559E+00     4.4579  -0.2043   106.2229
 16      0.0000     0.0000E+00    0.0000E+00    1.300000E+10  0.00400  2.005E-05    0   0.5034   age193_m42            0.0000     6.3526E+00     5.0166  -0.3743   106.0546
 17      0.0000     0.0000E+00    0.0000E+00    1.800000E+10  0.00400  1.525E-05    0   0.4967   age213_m42            0.0000     5.9939E+00     4.8917  -0.3973   105.5460
 18      7.1396     2.8427E-02    5.4507E-02    1.000000E+06  0.00800  1.238E-02    0   1.0000   age020_m52            0.0000     4.9608E+00     4.7942   3.2195    95.3420
 19      2.9374     4.7102E-03    9.0007E-03    3.160000E+06  0.00800  3.074E-02    0   0.9966   age045_m52            0.0000     4.7760E+00     4.7021   3.1427    96.1589
 20      1.1875     2.1940E-03    3.9724E-03    5.010000E+06  0.00800  2.668E-02    0   0.9443   age055_m52            0.0000     3.9560E+00     4.1345   2.9120    97.7045
 21      0.0000     0.0000E+00    0.0000E+00    6.610000E+06  0.00800  2.136E-02    0   0.9177   age061_m52            0.0000     1.9117E+00     2.8575   1.6704   103.7917
 22      0.0000     0.0000E+00    0.0000E+00    1.000000E+07  0.00800  1.215E-02    0   0.8827   age070_m52            0.0000     3.2034E+00     3.4611   2.3679   101.6446
 23      0.0002     8.7003E-07    1.4267E-06    1.445000E+07  0.00800  8.717E-03    0   0.8552   age078_m52            0.0000     3.1574E+00     3.4124   2.4730   100.9821
 24      0.0005     4.3057E-06    6.7383E-06    2.512000E+07  0.00800  5.592E-03    0   0.8162   age090_m52            0.0000     3.0193E+00     3.4215   2.1294   103.2196
 25      0.0000     0.0000E+00    0.0000E+00    4.000000E+07  0.00800  3.896E-03    0   0.7841   age104_m52            0.0000     3.0131E+00     3.4821   2.0459   103.8356
 26      0.0000     0.0000E+00    0.0000E+00    1.015200E+08  0.00800  2.148E-03    0   0.7226   age116_m52            0.0000     3.3415E+00     3.5997   1.9815   103.7415
 27      0.0000     0.0000E+00    0.0000E+00    2.861200E+08  0.00800  9.925E-04    0   0.6683   age125_m52            0.0000     5.1667E+00     4.0293   1.5106   107.4098
 28      0.0012     1.9014E-04    2.2378E-04    9.047900E+08  0.00800  3.141E-04    0   0.6138   age135_m52            0.0000     6.0738E+00     4.2225   0.7066   112.1071
 29      0.0000     0.0000E+00    0.0000E+00    1.434000E+09  0.00800  1.719E-04    0   0.5853   age139_m52            0.0000     4.0721E+00     3.8058   0.1122   110.7455
 30      0.0000     0.0000E+00    0.0000E+00    2.500000E+09  0.00800  7.872E-05    0   0.5600   age150_m52            0.0000     5.4721E+00     4.6848  -0.1814   109.0477
 31      0.0000     0.0000E+00    0.0000E+00    4.250000E+09  0.00800  4.336E-05    0   0.5426   age158_m52            0.0000     5.8181E+00     4.7986  -0.2003   108.2085
 32      0.0000     0.0000E+00    0.0000E+00    6.250000E+09  0.00800  3.159E-05    0   0.5319   age166_m52            0.0000     8.2235E+00     5.6406  -0.4106   108.7048
 33      0.0000     0.0000E+00    0.0000E+00    1.300000E+10  0.00800  1.361E-05    0   0.5073   age193_m52            0.0000     1.2062E+01     6.7193  -0.8912   108.6811
 34      0.0000     0.0000E+00    0.0000E+00    1.800000E+10  0.00800  9.886E-06    0   0.4990   age213_m52            0.0000     1.5336E+01     7.5819  -1.0000   108.3994
 35      3.9002     1.2451E-02    2.3874E-02    1.000000E+06  0.02000  1.544E-02    0   1.0000   age020_m62            0.0000     5.0374E+00     4.8336   3.2154    95.5936
 36      3.7289     4.8859E-03    9.2353E-03    3.160000E+06  0.02000  3.762E-02    0   0.9858   age045_m62            0.0000     5.0453E+00     4.8371   3.1515    96.5661
 37      0.0000     0.0000E+00    0.0000E+00    5.010000E+06  0.02000  3.296E-02    0   0.9342   age055_m62            0.0000     3.8503E+00     4.0810   2.7959    99.4864
 38     16.9170     7.2260E-02    1.2277E-01    8.710000E+06  0.02000  1.154E-02    0   0.8861   age067_m62            0.0000     6.5309E+00     5.5457   1.8367   103.8172
 39      0.5010     3.2227E-03    5.2351E-03    1.445000E+07  0.02000  7.663E-03    0   0.8472   age078_m62            0.0000     3.3055E+00     3.7016   2.0235   103.6669
 40      0.0000     0.0000E+00    0.0000E+00    2.512000E+07  0.02000  4.532E-03    0   0.8099   age090_m62            0.0000     3.6561E+00     3.8761   2.0221   103.1141
 41      0.0000     0.0000E+00    0.0000E+00    5.500000E+07  0.02000  2.733E-03    0   0.7595   age110_m62            0.0000     2.8581E+00     3.3381   2.0235   103.3552
 42      0.0000     0.0000E+00    0.0000E+00    1.609000E+08  0.02000  1.369E-03    0   0.6985   age120_m62            0.0000     4.4963E+00     3.8654   1.8691   105.7888
 43      0.0000     0.0000E+00    0.0000E+00    2.861200E+08  0.02000  9.013E-04    0   0.6714   age125_m62            0.0000     6.3357E+00     4.2084   1.6215   108.5716
 44      0.0000     0.0000E+00    0.0000E+00    5.088000E+08  0.02000  5.028E-04    0   0.6449   age130_m62            0.0000     7.9847E+00     4.6084   1.2410   111.5829
 45      0.0000     0.0000E+00    0.0000E+00    9.047900E+08  0.02000  2.428E-04    0   0.6179   age135_m62            0.0000     5.8965E+00     4.3887   0.6368   111.9400
 46      0.0000     0.0000E+00    0.0000E+00    1.434000E+09  0.02000  1.263E-04    0   0.5908   age139_m62            0.0000     5.5153E+00     4.4708   0.1763   111.1902
 47      0.0000     0.0000E+00    0.0000E+00    2.500000E+09  0.02000  5.985E-05    0   0.5673   age150_m62            0.0000     7.6960E+00     5.4980  -0.2087   110.7714
 48      1.6110     2.4277E+00    2.5453E+00    4.250000E+09  0.02000  3.271E-05    0   0.5468   age158_m62            0.0000     1.1585E+01     6.7646  -0.5293   110.7175
 49      2.6943     9.7653E+00    9.6748E+00    1.000000E+10  0.02000  1.360E-05    0   0.5167   age181_m62            0.0000     1.7870E+01     8.2651  -0.8897   111.0062
 50      0.0000     0.0000E+00    0.0000E+00    1.800000E+10  0.02000  7.124E-06    0   0.5013   age213_m62            0.0000     2.3916E+01     9.1831  -1.0000   107.1197
 51      3.8418     7.3061E-03    1.4006E-02    1.000000E+06  0.05000  2.592E-02    0   0.9998   age020_m72            0.0000     5.2472E+00     4.9266   3.2041    95.7262
 52      2.8635     2.9133E-03    5.3498E-03    3.160000E+06  0.05000  4.845E-02    0   0.9577   age045_m72            0.0000     4.5305E+00     4.5137   3.0415    97.4964
 53      1.4278     2.2910E-03    4.0181E-03    5.010000E+06  0.05000  3.072E-02    0   0.9147   age055_m72            0.0000     3.6112E+00     3.8776   2.5995   100.5060
 54      2.3202     7.8603E-03    1.3379E-02    6.610000E+06  0.05000  1.455E-02    0   0.8877   age061_m72            0.0000     1.1740E+01     7.8413   1.9202   104.0593
 55      0.0000     0.0000E+00    0.0000E+00    1.000000E+07  0.05000  9.074E-03    0   0.8524   age070_m72            0.0000     4.4949E+00     4.4524   2.8005    99.9612
 56      0.0000     0.0000E+00    0.0000E+00    2.512000E+07  0.05000  4.250E-03    0   0.7902   age090_m72            0.0000     3.8164E+00     4.0570   2.5026   101.2392
 57      0.0000     0.0000E+00    0.0000E+00    4.000000E+07  0.05000  3.087E-03    0   0.7618   age104_m72            0.0000     4.0568E+00     4.2134   2.2830   102.4769
 58      0.0000     0.0000E+00    0.0000E+00    1.015200E+08  0.05000  1.700E-03    0   0.7096   age116_m72            0.0000     4.3436E+00     3.9187   2.0185   105.1029
 59      0.0000     0.0000E+00    0.0000E+00    2.861200E+08  0.05000  7.384E-04    0   0.6633   age125_m72            0.0000     7.1050E+00     4.2928   1.4894   110.0366
 60      7.6901     9.9258E-01    1.2127E+00    5.088000E+08  0.05000  3.819E-04    0   0.6372   age130_m72            0.0000     6.5614E+00     4.4065   0.9793   112.6622
 61     26.0848     7.6717E+00    8.9878E+00    9.047900E+08  0.05000  1.676E-04    0   0.6110   age135_m72            0.0000     7.3113E+00     5.3871   0.2517   112.5011
 62     10.7539     5.9985E+00    6.7560E+00    1.434000E+09  0.05000  8.837E-05    0   0.5874   age139_m72            0.0000     8.6442E+00     5.6911  -0.2089   112.3497
 63      0.0039     4.5289E-03    4.8611E-03    2.500000E+09  0.05000  4.233E-05    0   0.5598   age150_m72            0.0000     1.3103E+01     7.1796  -0.5333   111.8511
 64      4.3588     1.4973E+01    1.5069E+01    6.250000E+09  0.05000  1.435E-05    0   0.5249   age166_m72            0.0000     1.9030E+01     8.6533  -0.9911   110.8037
 65      2.0018     1.5151E+01    1.4630E+01    1.300000E+10  0.05000  6.513E-06    0   0.5036   age193_m72            0.0000     3.1396E+01    10.2775  -1.0000   103.0031
 66      3.7103     4.0400E+01    3.8306E+01    1.800000E+10  0.05000  4.527E-06    0   0.4945   age213_m72            0.0000     4.3829E+01    12.1709  -1.0000    97.3639


## Synthesis Results - Average & Chains ##

# j      x_j: min, <> & last-chain-values for 1 ...  7 chains
  1      1.0713      1.3897      1.8224      1.0229      1.1598      1.7494      1.3231      1.1118      1.4421
  2      0.0000      0.1520      0.0276      0.0000      0.0000      0.0000      0.0000      0.5634      0.0252
  3      0.0000      0.4705      0.0000      0.0000      0.0000      0.4711      0.0000      0.0000      0.0000
  4      0.0000      0.1891      0.0000      0.1770      0.0000      0.0000      0.0000      0.8469      0.1238
  5      0.0000      0.1169      0.0000      0.0000      0.0000      0.0000      0.0000      0.5203      0.0000
  6      0.0000      0.1467      0.0000      0.0000      0.6353      0.0000      0.0000      0.0000      0.0000
  7      0.0000      0.1405      0.0063      0.0000      0.0000      0.6917      0.0000      0.0000      0.0000
  8      0.0000      0.2026      0.0000      0.7743      0.0000      0.0000      0.0000      0.2664      0.9357
  9      0.0000      0.1497      0.0000      0.2113      0.0000      0.1749      0.0000      0.0592      0.1305
 10      0.0000      0.1416      0.0000      0.0000      0.0603      0.0000      0.0000      0.0000      0.0000
 11      0.0000      0.1234      0.0000      0.0000      0.0000      0.0000      0.0000      0.0000      0.0000
 12      0.0000      0.0742      0.0570      0.0000      0.0000      0.0341      0.2017      0.3151      0.0000
 13      0.0000      0.7300      0.9914      2.5117      0.0000      0.3221      0.0000      0.0000      0.4460
 14      2.9454      4.1733      3.8101      3.6749      4.4353      4.2931      4.9941      3.6265      3.9598
 15      0.0001      1.8216      1.7440      1.4943      1.7756      0.3661      1.1490      0.9206      1.5656
 16      0.0000      0.0587      0.0000      0.0000      0.0000      0.0000      0.0000      0.0000      0.0000
 17      0.0000      0.0607      0.0000      0.0000      0.0000      0.0000      0.0000      0.0000      0.0000
 18      7.1396      6.7919      6.7035      6.6018      6.9421      7.5138      7.4563      6.8235      7.4345
 19      2.9374      2.8644      2.6762      3.1159      2.9494      2.8314      3.6377      3.1133      3.1341
 20      1.1875      1.1416      0.9326      1.3856      1.7396      1.0570      0.9892      1.2671      0.9463
 21      0.0000      0.2375      0.0000      0.0000      0.0000      0.0000      0.0000      0.0000      0.0000
 22      0.0000      0.1542      0.0000      0.4837      0.0000      0.0000      0.0000      0.0000      0.0000
 23      0.0002      0.5984      0.0000      0.4802      1.0054      0.7541      0.6016      0.0000      0.2358
 24      0.0005      0.3065      0.0000      0.1957      0.7169      0.2613      0.0000      0.5581      0.1347
 25      0.0000      0.1157      0.0000      0.2700      0.0000      0.0000      0.6899      0.0000      0.3843
 26      0.0000      0.1421      0.0000      0.0006      0.0000      0.0000      0.4502      0.1118      0.2067
 27      0.0000      0.0763      0.0000      0.0000      0.0000      0.1611      0.0000      0.0000      0.0000
 28      0.0012      0.5089      0.0232      0.0000      1.3427      0.3519      0.3887      0.8692      0.5267
 29      0.0000      0.5968      0.0958      0.0000      0.4175      1.1810      1.1134      0.0142      1.2835
 30      0.0000      0.6886      0.6118      0.0000      0.0000      0.7630      0.5043      0.0000      0.7692
 31      0.0000      0.1949      0.7259      0.0000      0.0000      0.0000      0.4540      0.0000      0.3045
 32      0.0000      0.1096      0.0000      0.0000      0.0000      0.0000      0.0000      0.0000      0.0000
 33      0.0000      0.1540      0.0000      0.0000      0.0000      0.0000      0.0000      0.0000      0.0000
 34      0.0000      0.0742      0.0000      0.0000      0.0000      0.0510      0.0000      0.0000      0.0000
 35      3.9002      4.5000      4.3191      4.5206      4.8032      4.6179      4.2012      4.5652      4.0887
 36      3.7289      3.1722      3.0710      2.9806      2.2947      3.5581      2.8719      3.5684      2.9369
 37      0.0000      0.0796      0.0000      0.0733      0.0000      0.0127      0.0000      0.0852      0.0000
 38     16.9170      8.7138      9.4386      8.6931     11.2142      7.5049      9.5709      9.2577     10.1336
 39      0.5010      0.9539      1.0588      1.2977      1.0946      1.6516      1.5371      0.0000      0.2155
 40      0.0000      0.3334      0.7118      0.5390      0.1448      1.0507      0.0000      0.6617      0.5814
 41      0.0000      0.0892      0.0000      0.0523      0.0000      0.0000      0.0000      0.0000      0.3362
 42      0.0000      0.0827      0.0000      0.0000      0.1838      0.0000      0.0000      0.0000      0.0000
 43      0.0000      0.0563      0.0000      0.0000      0.0000      0.0000      0.0000      0.0000      0.0000
 44      0.0000      0.1369      0.0432      0.0000      0.0000      0.6572      0.0000      0.6964      0.0000
 45      0.0000      0.6729      1.1723      1.4226      0.4948      0.9140      1.2746      1.3255      0.0000
 46      0.0000      0.8238      0.8579      0.0000      0.1255      1.0784      0.0000      1.3378      0.6614
