###################################################################
## OUTPUT of StarlightChains_v04.for    [Cid@UFSC - 01/Apr/2007] ##
###################################################################

## Some input info
PTF11qzq.txt                             [arq_obs]
Base.CB07.vall.4m                        [arq_base]
Masks.EmLines.NEW.gm                     [arq_masks]
StCv04.C11.config                        [arq_config]
   66                                    [N_base]
    0                                    [N_YAV_components = # of components with extra extinction!]
    0                                    [i_FitPowerLaw (1/0 = Yes/No)]
-9.99                                    [alpha_PowerLaw]
CCM                                      [red_law_option]
 1.458241                                [q_norm = A(l_norm)/A(V)]

## (Re)Sampling Parameters
 3741.00                                 [l_ini (A)]
 7218.00                                 [l_fin (A)]
    1.00                                 [dl    (A)]     (OBS: dl_cushion =    50.00 A)

## Normalization info
 4020.00                                 [l_norm (A) - for base]
 4010.00                                 [llow_norm (A) - window for f_obs]
 4060.00                                 [lupp_norm (A) - window for f_obs]
4.120659E-18                             [fobs_norm (in input units)]

## S/N
 3691.00                                 [llow_SN (A) - window for S/N]
 7268.00                                 [lupp_SN (A) - window for S/N]
   4.297                                 [S/N in S/N window]
   6.118                                 [S/N in norm. window]
   6.057                                 [S/N_err in S/N window]
   8.624                                 [S/N_err in norm. window]
  1.0000                                 [fscale_chi2]

## etc...
    -2007464                             [idum_orig]
  2250                                   [NOl_eff]
  2249                                   [Nl_eff]
     1    NSIGMA                         [Ntot_cliped & clip_method]
   717570                                [Nglobal_steps]
   7                                     [N_chains]
  11                                     [NEX0s_base = N_base in EX0s-fits]
 0   0   1       12   2.0   1.785E+01    [Clip-Bug, RC-Crash & Burn-In warning-flags, n_censored_weights, wei_nsig_threshold & wei_limit]
    11     10.590     10.096      0.493  [idt_all, wdt_TotTime, wdt_UsrTime & wdt_SysTime (sec)]

## Synthesis Results - Best model ##

 5.09325E-01                             [chi2/Nl_eff]
     9.07534                             [adev (%)]

   101.40788                             [sum-of-x (%)]
 3.68209E-18                             [Flux_tot (units of input spectrum!)]
 9.63941E-15                             [Mini_tot (???)]
 5.97027E-15                             [Mcor_tot (???)]

 -30.09                                  [v0_min  (km/s)]
 171.61                                  [vd_min  (km/s)]
-0.0942                                  [AV_min  (mag)]
 0.0000                                  [YAV_min (mag)]

# j     x_j(%)      Mini_j(%)     Mcor_j(%)     age_j(yr)     Z_j      (L/M)_j    YAV?  Mstars   component_j        a/Fe...       SSP_chi2r SSP_adev(%)   SSP_AV   SSP_x(%)
  1      0.0000     0.0000E+00    0.0000E+00    1.000000E+06  0.00400  1.094E-02    0   1.0000   age020_m42            0.0000     6.3118E-01    10.3008   2.1139    87.1619
  2      0.0000     0.0000E+00    0.0000E+00    3.160000E+06  0.00400  4.007E-02    0   0.9999   age045_m42            0.0000     5.8770E-01     9.7693   1.4036    92.6260
  3      0.0000     0.0000E+00    0.0000E+00    5.010000E+06  0.00400  2.539E-02    0   0.9488   age055_m42            0.0000     6.0707E-01     9.9839   1.7161    90.6280
  4      0.0000     0.0000E+00    0.0000E+00    6.610000E+06  0.00400  2.620E-02    0   0.9220   age061_m42            0.0000     5.9001E-01     9.7770   1.3310    92.8564
  5      0.0000     0.0000E+00    0.0000E+00    1.000000E+07  0.00400  1.322E-02    0   0.8862   age070_m42            0.0000     5.9751E-01     9.8961   1.0327    95.8813
  6      0.0000     0.0000E+00    0.0000E+00    1.445000E+07  0.00400  7.883E-03    0   0.8571   age078_m42            0.0000     6.0878E-01    10.0369   1.3584    93.4410
  7      0.0000     0.0000E+00    0.0000E+00    2.512000E+07  0.00400  5.251E-03    0   0.8174   age090_m42            0.0000     6.0398E-01     9.9427   0.8983    96.6607
  8      0.0000     0.0000E+00    0.0000E+00    4.000000E+07  0.00400  3.649E-03    0   0.7851   age104_m42            0.0000     5.9052E-01     9.8146   0.6732    97.3406
  9      0.0000     0.0000E+00    0.0000E+00    5.500000E+07  0.00400  3.098E-03    0   0.7629   age110_m42            0.0000     5.8559E-01     9.7391   0.8413    96.6096
 10      0.0000     0.0000E+00    0.0000E+00    1.015200E+08  0.00400  2.228E-03    0   0.7207   age116_m42            0.0000     5.8546E-01     9.7885   0.8700    96.3529
 11      0.0000     0.0000E+00    0.0000E+00    2.861200E+08  0.00400  1.093E-03    0   0.6648   age125_m42            0.0000     5.9197E-01     9.8943   0.2992    99.6117
 12      0.0000     0.0000E+00    0.0000E+00    5.088000E+08  0.00400  6.597E-04    0   0.6365   age130_m42            0.0000     5.7773E-01     9.9051   0.2978    99.8937
 13      0.0000     0.0000E+00    0.0000E+00    1.434000E+09  0.00400  2.132E-04    0   0.5798   age139_m42            0.0000     5.3208E-01     9.4762  -0.6800   101.9489
 14      0.0000     0.0000E+00    0.0000E+00    4.250000E+09  0.00400  5.895E-05    0   0.5377   age158_m42            0.0000     5.6237E-01     9.5142  -1.0000    93.1943
 15      0.0000     0.0000E+00    0.0000E+00    7.500000E+09  0.00400  3.510E-05    0   0.5212   age171_m42            0.0000     6.9387E-01    10.8141  -1.0000    85.6403
 16      0.0000     0.0000E+00    0.0000E+00    1.300000E+10  0.00400  2.005E-05    0   0.5034   age193_m42            0.0000     8.7461E-01    12.3836  -1.0000    79.4049
 17      0.0000     0.0000E+00    0.0000E+00    1.800000E+10  0.00400  1.525E-05    0   0.4967   age213_m42            0.0000     9.0111E-01    12.5848  -1.0000    78.2681
 18      4.6907     1.4272E-01    2.3044E-01    1.000000E+06  0.00800  1.238E-02    0   1.0000   age020_m52            0.0000     6.3002E-01    10.2928   2.1108    87.3086
 19      0.0000     0.0000E+00    0.0000E+00    3.160000E+06  0.00800  3.074E-02    0   0.9966   age045_m52            0.0000     6.2455E-01    10.2232   2.0340    88.0684
 20      0.0000     0.0000E+00    0.0000E+00    5.010000E+06  0.00800  2.668E-02    0   0.9443   age055_m52            0.0000     6.0709E-01    10.0260   1.7951    89.9348
 21     32.3171     5.6991E-01    8.4442E-01    6.610000E+06  0.00800  2.136E-02    0   0.9177   age061_m52            0.0000     5.4951E-01     9.5649   0.5183    97.4649
 22      0.0000     0.0000E+00    0.0000E+00    1.000000E+07  0.00800  1.215E-02    0   0.8827   age070_m52            0.0000     6.0826E-01    10.0502   1.2040    96.1102
 23      0.0000     0.0000E+00    0.0000E+00    1.445000E+07  0.00800  8.717E-03    0   0.8552   age078_m52            0.0000     5.9751E-01     9.9415   1.3223    94.8103
 24      0.0000     0.0000E+00    0.0000E+00    2.512000E+07  0.00800  5.592E-03    0   0.8162   age090_m52            0.0000     5.9887E-01     9.9114   0.9620    97.8541
 25      0.0000     0.0000E+00    0.0000E+00    4.000000E+07  0.00800  3.896E-03    0   0.7841   age104_m52            0.0000     5.8870E-01     9.7987   0.8824    98.2500
 26      0.0000     0.0000E+00    0.0000E+00    1.015200E+08  0.00800  2.148E-03    0   0.7226   age116_m52            0.0000     5.7498E-01     9.7073   0.8289    97.5878
 27      0.0000     0.0000E+00    0.0000E+00    2.861200E+08  0.00800  9.925E-04    0   0.6683   age125_m52            0.0000     5.7122E-01     9.8607   0.3621   100.8157
 28      0.0000     0.0000E+00    0.0000E+00    9.047900E+08  0.00800  3.141E-04    0   0.6138   age135_m52            0.0000     5.5017E-01     9.7653  -0.4293   104.5097
 29      0.0000     0.0000E+00    0.0000E+00    1.434000E+09  0.00800  1.719E-04    0   0.5853   age139_m52            0.0000     5.4406E-01     9.4914  -1.0000   101.9717
 30      0.0000     0.0000E+00    0.0000E+00    2.500000E+09  0.00800  7.872E-05    0   0.5600   age150_m52            0.0000     6.7690E-01    10.7758  -1.0000    88.7346
 31      0.0000     0.0000E+00    0.0000E+00    4.250000E+09  0.00800  4.336E-05    0   0.5426   age158_m52            0.0000     6.9749E-01    10.8971  -1.0000    87.3373
 32      0.0000     0.0000E+00    0.0000E+00    6.250000E+09  0.00800  3.159E-05    0   0.5319   age166_m52            0.0000     9.2327E-01    12.8568  -1.0000    80.0740
 33      0.0000     0.0000E+00    0.0000E+00    1.300000E+10  0.00800  1.361E-05    0   0.5073   age193_m52            0.0000     1.7040E+00    18.2791  -1.0000    64.5141
 34      0.0000     0.0000E+00    0.0000E+00    1.800000E+10  0.00800  9.886E-06    0   0.4990   age213_m52            0.0000     1.9213E+00    19.5298  -1.0000    61.0736
 35      0.0000     0.0000E+00    0.0000E+00    1.000000E+06  0.02000  1.544E-02    0   1.0000   age020_m62            0.0000     6.3090E-01    10.3032   2.1057    87.5466
 36      6.8674     6.8761E-02    1.0944E-01    3.160000E+06  0.02000  3.762E-02    0   0.9858   age045_m62            0.0000     6.3026E-01    10.2807   2.0459    88.2642
 37      0.0021     2.3443E-05    3.5361E-05    5.010000E+06  0.02000  3.296E-02    0   0.9342   age055_m62            0.0000     5.9859E-01     9.8699   1.6814    91.5027
 38      0.3826     1.2490E-02    1.7869E-02    8.710000E+06  0.02000  1.154E-02    0   0.8861   age067_m62            0.0000     7.7218E-01    11.4033   0.6162   101.2545
 39      0.0000     0.0000E+00    0.0000E+00    1.445000E+07  0.02000  7.663E-03    0   0.8472   age078_m62            0.0000     6.3210E-01    10.2950   0.8376    99.1324
 40      0.0000     0.0000E+00    0.0000E+00    2.512000E+07  0.02000  4.532E-03    0   0.8099   age090_m62            0.0000     6.5445E-01    10.4123   0.8331    98.8056
 41      0.0000     0.0000E+00    0.0000E+00    5.500000E+07  0.02000  2.733E-03    0   0.7595   age110_m62            0.0000     5.9073E-01     9.8053   0.8632    97.5845
 42      0.0000     0.0000E+00    0.0000E+00    1.609000E+08  0.02000  1.369E-03    0   0.6985   age120_m62            0.0000     5.8532E-01     9.8531   0.7212    99.2947
 43      0.0000     0.0000E+00    0.0000E+00    2.861200E+08  0.02000  9.013E-04    0   0.6714   age125_m62            0.0000     5.8130E-01    10.0055   0.4782   101.7342
 44      0.0000     0.0000E+00    0.0000E+00    5.088000E+08  0.02000  5.028E-04    0   0.6449   age130_m62            0.0000     5.6487E-01    10.0433   0.1098   103.8451
 45      0.0000     0.0000E+00    0.0000E+00    9.047900E+08  0.02000  2.428E-04    0   0.6179   age135_m62            0.0000     5.5659E-01     9.7464  -0.4783   103.2045
 46      0.0000     0.0000E+00    0.0000E+00    1.434000E+09  0.02000  1.263E-04    0   0.5908   age139_m62            0.0000     5.7795E-01     9.6548  -0.9218   101.5590
 47      0.0000     0.0000E+00    0.0000E+00    2.500000E+09  0.02000  5.985E-05    0   0.5673   age150_m62            0.0000     7.2989E-01    11.1434  -1.0000    88.9569
 48      0.0000     0.0000E+00    0.0000E+00    4.250000E+09  0.02000  3.271E-05    0   0.5468   age158_m62            0.0000     1.0853E+00    14.1492  -1.0000    77.3066
 49      0.0000     0.0000E+00    0.0000E+00    1.000000E+10  0.02000  1.360E-05    0   0.5167   age181_m62            0.0000     1.6847E+00    18.1442  -1.0000    65.8665
 50      0.0000     0.0000E+00    0.0000E+00    1.800000E+10  0.02000  7.124E-06    0   0.5013   age213_m62            0.0000     2.1099E+00    20.5140  -1.0000    59.3333
 51      0.0000     0.0000E+00    0.0000E+00    1.000000E+06  0.05000  2.592E-02    0   0.9998   age020_m72            0.0000     6.3375E-01    10.3496   2.0947    87.6660
 52      0.0000     0.0000E+00    0.0000E+00    3.160000E+06  0.05000  4.845E-02    0   0.9577   age045_m72            0.0000     6.2159E-01    10.1375   1.9349    89.1934
 53      0.0000     0.0000E+00    0.0000E+00    5.010000E+06  0.05000  3.072E-02    0   0.9147   age055_m72            0.0000     6.2890E-01    10.2961   1.4411    94.4674
 54      0.5865     1.5184E-02    2.1763E-02    6.610000E+06  0.05000  1.455E-02    0   0.8877   age061_m72            0.0000     1.0237E+00    13.0808   0.6657   102.9362
 55      0.0000     0.0000E+00    0.0000E+00    1.000000E+07  0.05000  9.074E-03    0   0.8524   age070_m72            0.0000     6.9620E-01    10.7624   1.6379    93.8863
 56      0.0000     0.0000E+00    0.0000E+00    2.512000E+07  0.05000  4.250E-03    0   0.7902   age090_m72            0.0000     6.5573E-01    10.3628   1.3356    95.6649
 57      0.0000     0.0000E+00    0.0000E+00    4.000000E+07  0.05000  3.087E-03    0   0.7618   age104_m72            0.0000     6.6420E-01    10.3668   1.1072    97.3509
 58      0.0000     0.0000E+00    0.0000E+00    1.015200E+08  0.05000  1.700E-03    0   0.7096   age116_m72            0.0000     6.0153E-01     9.9452   0.8592    99.2166
 59      0.0000     0.0000E+00    0.0000E+00    2.861200E+08  0.05000  7.384E-04    0   0.6633   age125_m72            0.0000     5.6748E-01     9.9964   0.3537   102.6999
 60     22.1465     2.1844E+01    2.2473E+01    5.088000E+08  0.05000  3.819E-04    0   0.6372   age130_m72            0.0000     5.4684E-01     9.8349  -0.1382   104.0933
 61     34.4149     7.7347E+01    7.6303E+01    9.047900E+08  0.05000  1.676E-04    0   0.6110   age135_m72            0.0000     6.0718E-01    10.0218  -0.8177   101.2617
 62      0.0000     0.0000E+00    0.0000E+00    1.434000E+09  0.05000  8.837E-05    0   0.5874   age139_m72            0.0000     7.4924E-01    11.3115  -1.0000    90.1828
 63      0.0000     0.0000E+00    0.0000E+00    2.500000E+09  0.05000  4.233E-05    0   0.5598   age150_m72            0.0000     1.1029E+00    14.2674  -1.0000    77.9143
 64      0.0000     0.0000E+00    0.0000E+00    6.250000E+09  0.05000  1.435E-05    0   0.5249   age166_m72            0.0000     1.8716E+00    19.2551  -1.0000    62.7298
 65      0.0000     0.0000E+00    0.0000E+00    1.300000E+10  0.05000  6.513E-06    0   0.5036   age193_m72            0.0000     2.4767E+00    22.3636  -1.0000    55.5905
 66      0.0000     0.0000E+00    0.0000E+00    1.800000E+10  0.05000  4.527E-06    0   0.4945   age213_m72            0.0000     2.8500E+00    24.0678  -1.0000    51.4150


## Synthesis Results - Average & Chains ##

# j      x_j: min, <> & last-chain-values for 1 ...  7 chains
  1      0.0000      0.5525      0.0000      0.0000      2.2265      0.0000      2.0267      3.5366      0.0000
  2      0.0000      1.2194      3.8488      0.0000      2.4925      0.0000      1.1726      2.2357      0.0000
  3      0.0000      0.5540      3.4188      0.0000      2.2653      0.0000      2.3930      0.0000      0.0000
  4      0.0000      0.6260      0.0000      0.6787      0.0000      0.2651      0.0000      0.9913      0.0000
  5      0.0000      0.8479      0.0000      0.0000      0.0000      0.4179      0.0000      0.0000      0.0000
  6      0.0000      0.6639      2.9128      3.7764      0.0000      0.0000      0.0000      0.0000      0.0000
  7      0.0000      1.0740      0.0000      0.0000      0.0000      0.0000      0.0000      0.0000      1.7031
  8      0.0000      0.7108      0.0000      0.3095      0.0000      0.0000      0.0000      0.0000      2.3088
  9      0.0000      0.8163      0.0000      0.0000      0.0000      0.0000      2.1298      0.0000      0.0000
 10      0.0000      0.6353      0.0000      0.0000      0.0000      0.0000      0.0000      0.0000      0.0504
 11      0.0000      0.8644      0.4270      0.0000      0.0000      0.5319      0.0000      0.0000      0.0000
 12      0.0000      1.0734      1.1606      0.0000      0.2561      0.0000      0.3382      0.0000      0.0000
 13      0.0000      0.3461      0.0000      2.1025      0.0000      0.0000      0.1557      0.0000      0.0000
 14      0.0000      0.2694      0.0000      0.0000      0.0000      0.0000      0.0000      0.0000      0.0000
 15      0.0000      0.1410      0.0000      0.0000      0.0000      0.0000      0.7613      0.0000      0.0000
 16      0.0000      0.0913      0.0000      0.0000      0.0000      0.0000      1.2521      0.0000      0.0000
 17      0.0000      0.0733      0.0000      0.0000      0.6851      0.0000      0.0000      0.0000      0.0000
 18      4.6907      0.8754      0.0000      1.4332      0.0000      2.7219      3.6464      0.0000      0.0000
 19      0.0000      0.5304      1.0169      3.3647      0.0000      0.1085      0.0000      0.0000      3.1545
 20      0.0000      0.3651      0.0000      0.0000      0.0000      0.4338      0.0000      0.0000      0.0000
 21     32.3171     17.9246     20.8887     23.4574     19.4543     25.7384     15.5971     30.4534     23.8269
 22      0.0000      0.7955      0.1985      0.0000      0.0000      0.0000      0.7381      0.0000      0.0000
 23      0.0000      0.4486      0.0000      0.0000      0.0000      0.0000      0.0000      0.0000      0.0000
 24      0.0000      1.0685      0.3794      0.4934      5.0667      3.8362      0.0000      0.0000      0.0000
 25      0.0000      0.9341      0.0000      0.0000      0.0000      0.0000      0.0000      7.9215      0.0000
 26      0.0000      1.0721      1.5540      0.0000      0.7587      0.0000      0.0000      0.0000      0.0000
 27      0.0000      1.3967      0.0000      0.0000      0.0000      0.0000      0.0000      0.0000      0.0000
 28      0.0000      1.3374      0.0000      4.2252      0.0000      0.0000      0.0000      0.0000      1.1142
 29      0.0000      0.2546      0.0000      1.9002      0.0000      0.0000      0.0000      0.0000      0.0000
 30      0.0000      0.2534      0.0000      0.3043      0.0000      0.0000      0.0000      0.0000      0.0000
 31      0.0000      0.1895      0.0000      0.0000      0.0000      0.0000      0.0000      0.0000      1.0208
 32      0.0000      0.0222      0.0000      0.0573      0.0000      0.0000      0.0000      0.0000      0.0000
 33      0.0000      0.1097      0.0000      0.0000      0.0000      0.0000      0.0000      0.0000      0.0000
 34      0.0000      0.0700      0.0000      0.0000      0.4780      0.0000      0.0000      0.0046      0.0000
 35      0.0000      0.2680      0.0000      0.0000      0.0000      0.0000      1.6900      0.0000      1.6446
 36      6.8674      0.9157      0.3046      2.3298      0.0000      2.6386      2.0729      1.7007      0.0000
 37      0.0021      0.4790      1.8332      2.3510      0.7297      2.8374      0.0000      0.0000      0.0000
 38      0.3826      1.0757      3.1739      0.0000      0.6384      0.9179      1.8185      0.0000      3.8858
 39      0.0000      1.0135      4.8878      0.0000      0.0000      0.0000      0.6191      0.0000      0.0000
 40      0.0000      0.7217      0.0000      0.0000      0.7075      0.0000      0.0000      0.0000      0.3646
 41      0.0000      0.5972      0.0000      0.0000      0.0000      0.0000      0.0000      0.0000      0.0000
 42      0.0000      0.7285      0.0000      0.0000      0.2775      0.0000      0.0000      0.0000      0.5784
 43      0.0000      0.8428      0.0000      0.0000      0.0000      0.0000      0.0000      0.0000      0.0000
 44      0.0000      2.3367      0.0000      2.0805      1.2406      0.0000      0.0000      0.0000      0.0000
 45      0.0000      4.5529      0.6247      0.0000      5.7663      8.3533      6.4554      2.8933      0.0000
 46      0.0000      1.0278      0.0000      3.2589      0.0000      0.0000      0.0000      0.0000      0.0000
