###################################################################
## OUTPUT of StarlightChains_v04.for    [Cid@UFSC - 01/Apr/2007] ##
###################################################################

## Some input info
PTF13ddg.txt                             [arq_obs]
Base.CB07.vall.4m                        [arq_base]
Masks.EmLines.NEW.gm                     [arq_masks]
StCv04.C11.config                        [arq_config]
   66                                    [N_base]
    0                                    [N_YAV_components = # of components with extra extinction!]
    0                                    [i_FitPowerLaw (1/0 = Yes/No)]
-9.99                                    [alpha_PowerLaw]
CCM                                      [red_law_option]
 1.458241                                [q_norm = A(l_norm)/A(V)]

## (Re)Sampling Parameters
 3741.00                                 [l_ini (A)]
 7218.00                                 [l_fin (A)]
    1.00                                 [dl    (A)]     (OBS: dl_cushion =    50.00 A)

## Normalization info
 4020.00                                 [l_norm (A) - for base]
 4010.00                                 [llow_norm (A) - window for f_obs]
 4060.00                                 [lupp_norm (A) - window for f_obs]
4.337433E-15                             [fobs_norm (in input units)]

## S/N
 3691.00                                 [llow_SN (A) - window for S/N]
 7268.00                                 [lupp_SN (A) - window for S/N]
   2.696                                 [S/N in S/N window]
   3.830                                 [S/N in norm. window]
  10.000                                 [S/N_err in S/N window]
  14.209                                 [S/N_err in norm. window]
  1.0000                                 [fscale_chi2]

## etc...
    -2007467                             [idum_orig]
  2197                                   [NOl_eff]
  2086                                   [Nl_eff]
   111    NSIGMA                         [Ntot_cliped & clip_method]
   631050                                [Nglobal_steps]
   7                                     [N_chains]
   9                                     [NEX0s_base = N_base in EX0s-fits]
 0   0   1       30   2.0   4.526E+01    [Clip-Bug, RC-Crash & Burn-In warning-flags, n_censored_weights, wei_nsig_threshold & wei_limit]
    12     11.441     10.948      0.493  [idt_all, wdt_TotTime, wdt_UsrTime & wdt_SysTime (sec)]

## Synthesis Results - Best model ##

 1.19375E+00                             [chi2/Nl_eff]
     8.82985                             [adev (%)]

   108.49953                             [sum-of-x (%)]
 2.36809E-14                             [Flux_tot (units of input spectrum!)]
 9.06516E-13                             [Mini_tot (???)]
 9.03437E-13                             [Mcor_tot (???)]

  79.32                                  [v0_min  (km/s)]
 114.60                                  [vd_min  (km/s)]
 1.2031                                  [AV_min  (mag)]
 0.0000                                  [YAV_min (mag)]

# j     x_j(%)      Mini_j(%)     Mcor_j(%)     age_j(yr)     Z_j      (L/M)_j    YAV?  Mstars   component_j        a/Fe...       SSP_chi2r SSP_adev(%)   SSP_AV   SSP_x(%)
  1      0.0000     0.0000E+00    0.0000E+00    1.000000E+06  0.00400  1.094E-02    0   1.0000   age020_m42            0.0000     1.2062E+00     8.8802   1.2853   107.4129
  2      0.0000     0.0000E+00    0.0000E+00    3.160000E+06  0.00400  4.007E-02    0   0.9999   age045_m42            0.0000     1.3710E+00     9.3397   0.5694   114.3705
  3      0.0000     0.0000E+00    0.0000E+00    5.010000E+06  0.00400  2.539E-02    0   0.9488   age055_m42            0.0000     1.2730E+00     9.0764   0.8861   111.7451
  4      0.0000     0.0000E+00    0.0000E+00    6.610000E+06  0.00400  2.620E-02    0   0.9220   age061_m42            0.0000     1.4122E+00     9.4204   0.5014   114.4567
  5      0.0000     0.0000E+00    0.0000E+00    1.000000E+07  0.00400  1.322E-02    0   0.8862   age070_m42            0.0000     1.4229E+00     9.5055   0.2406   116.2914
  6      0.0000     0.0000E+00    0.0000E+00    1.445000E+07  0.00400  7.883E-03    0   0.8571   age078_m42            0.0000     1.3397E+00     9.2846   0.5626   113.5576
  7      0.0000     0.0000E+00    0.0000E+00    2.512000E+07  0.00400  5.251E-03    0   0.8174   age090_m42            0.0000     1.4591E+00     9.6205   0.1142   116.8219
  8      0.0000     0.0000E+00    0.0000E+00    4.000000E+07  0.00400  3.649E-03    0   0.7851   age104_m42            0.0000     1.5058E+00     9.7402  -0.1144   117.8100
  9      0.0000     0.0000E+00    0.0000E+00    5.500000E+07  0.00400  3.098E-03    0   0.7629   age110_m42            0.0000     1.5790E+00     9.8875   0.0347   117.8753
 10      0.0000     0.0000E+00    0.0000E+00    1.015200E+08  0.00400  2.228E-03    0   0.7207   age116_m42            0.0000     1.6777E+00    10.0677   0.0530   118.0810
 11      0.0000     0.0000E+00    0.0000E+00    2.861200E+08  0.00400  1.093E-03    0   0.6648   age125_m42            0.0000     1.8289E+00    10.4050  -0.4951   121.0401
 12      0.0000     0.0000E+00    0.0000E+00    5.088000E+08  0.00400  6.597E-04    0   0.6365   age130_m42            0.0000     1.9833E+00    10.6658  -0.5113   122.0889
 13      0.0000     0.0000E+00    0.0000E+00    1.434000E+09  0.00400  2.132E-04    0   0.5798   age139_m42            0.0000     3.0516E+00    12.6543  -1.0000   104.5420
 14      0.0000     0.0000E+00    0.0000E+00    4.250000E+09  0.00400  5.895E-05    0   0.5377   age158_m42            0.0000     5.2012E+00    17.3600  -1.0000    83.8610
 15      0.0000     0.0000E+00    0.0000E+00    7.500000E+09  0.00400  3.510E-05    0   0.5212   age171_m42            0.0000     6.5140E+00    19.6422  -1.0000    76.7069
 16      0.0000     0.0000E+00    0.0000E+00    1.300000E+10  0.00400  2.005E-05    0   0.5034   age193_m42            0.0000     7.7684E+00    21.5847  -1.0000    70.8211
 17      0.0000     0.0000E+00    0.0000E+00    1.800000E+10  0.00400  1.525E-05    0   0.4967   age213_m42            0.0000     7.9182E+00    21.8846  -1.0000    69.7658
 18      0.0000     0.0000E+00    0.0000E+00    1.000000E+06  0.00800  1.238E-02    0   1.0000   age020_m52            0.0000     1.2058E+00     8.8761   1.2816   107.6217
 19      0.2689     2.1063E-01    2.1063E-01    3.160000E+06  0.00800  3.074E-02    0   0.9966   age045_m52            0.0000     1.2017E+00     8.8682   1.2026   108.6576
 20      0.0000     0.0000E+00    0.0000E+00    5.010000E+06  0.00800  2.668E-02    0   0.9443   age055_m52            0.0000     1.2457E+00     8.9959   0.9665   110.8281
 21      2.9974     3.3786E+00    3.1111E+00    6.610000E+06  0.00800  2.136E-02    0   0.9177   age061_m52            0.0000     1.3728E+00     9.4165  -0.2698   117.9530
 22      0.0000     0.0000E+00    0.0000E+00    1.000000E+07  0.00800  1.215E-02    0   0.8827   age070_m52            0.0000     1.3897E+00     9.4520   0.4248   115.9675
 23      0.0000     0.0000E+00    0.0000E+00    1.445000E+07  0.00800  8.717E-03    0   0.8552   age078_m52            0.0000     1.3609E+00     9.3466   0.5284   115.1037
 24      0.0000     0.0000E+00    0.0000E+00    2.512000E+07  0.00800  5.592E-03    0   0.8162   age090_m52            0.0000     1.4839E+00     9.7033   0.1817   118.0937
 25      0.0000     0.0000E+00    0.0000E+00    4.000000E+07  0.00800  3.896E-03    0   0.7841   age104_m52            0.0000     1.5409E+00     9.8345   0.0942   118.9744
 26      0.0000     0.0000E+00    0.0000E+00    1.015200E+08  0.00800  2.148E-03    0   0.7226   age116_m52            0.0000     1.6206E+00     9.9454   0.0242   118.9816
 27      0.0000     0.0000E+00    0.0000E+00    2.861200E+08  0.00800  9.925E-04    0   0.6683   age125_m52            0.0000     2.0147E+00    10.7576  -0.4473   123.1889
 28      0.0000     0.0000E+00    0.0000E+00    9.047900E+08  0.00800  3.141E-04    0   0.6138   age135_m52            0.0000     2.5492E+00    11.5219  -1.0000   117.6827
 29      0.0000     0.0000E+00    0.0000E+00    1.434000E+09  0.00800  1.719E-04    0   0.5853   age139_m52            0.0000     4.6899E+00    16.1728  -1.0000    92.0048
 30      0.0000     0.0000E+00    0.0000E+00    2.500000E+09  0.00800  7.872E-05    0   0.5600   age150_m52            0.0000     6.4809E+00    19.4291  -1.0000    79.5161
 31      0.0000     0.0000E+00    0.0000E+00    4.250000E+09  0.00800  4.336E-05    0   0.5426   age158_m52            0.0000     6.5788E+00    19.5799  -1.0000    78.2410
 32      0.0000     0.0000E+00    0.0000E+00    6.250000E+09  0.00800  3.159E-05    0   0.5319   age166_m52            0.0000     8.1677E+00    21.9819  -1.0000    71.3455
 33      0.0000     0.0000E+00    0.0000E+00    1.300000E+10  0.00800  1.361E-05    0   0.5073   age193_m52            0.0000     1.2051E+01    27.3678  -1.0000    56.6709
 34      0.0000     0.0000E+00    0.0000E+00    1.800000E+10  0.00800  9.886E-06    0   0.4990   age213_m52            0.0000     1.3017E+01    28.3924  -1.0000    53.4900
 35      0.0000     0.0000E+00    0.0000E+00    1.000000E+06  0.02000  1.544E-02    0   1.0000   age020_m62            0.0000     1.2018E+00     8.8622   1.2771   107.9018
 36      4.6327     2.9649E+00    2.9328E+00    3.160000E+06  0.02000  3.762E-02    0   0.9858   age045_m62            0.0000     1.2018E+00     8.8684   1.2150   108.9089
 37      0.0000     0.0000E+00    0.0000E+00    5.010000E+06  0.02000  3.296E-02    0   0.9342   age055_m62            0.0000     1.3304E+00     9.2151   0.8449   113.1445
 38      0.0000     0.0000E+00    0.0000E+00    8.710000E+06  0.02000  1.154E-02    0   0.8861   age067_m62            0.0000     1.6920E+00    10.4727  -0.0841   118.1467
 39      0.0000     0.0000E+00    0.0000E+00    1.445000E+07  0.02000  7.663E-03    0   0.8472   age078_m62            0.0000     1.4478E+00     9.6887   0.0887   118.1794
 40      0.0000     0.0000E+00    0.0000E+00    2.512000E+07  0.02000  4.532E-03    0   0.8099   age090_m62            0.0000     1.5032E+00     9.8427   0.0858   117.7181
 41      0.0000     0.0000E+00    0.0000E+00    5.500000E+07  0.02000  2.733E-03    0   0.7595   age110_m62            0.0000     1.5227E+00     9.7743   0.0755   118.1868
 42      0.0000     0.0000E+00    0.0000E+00    1.609000E+08  0.02000  1.369E-03    0   0.6985   age120_m62            0.0000     1.8384E+00    10.3894  -0.0880   121.3121
 43      0.0000     0.0000E+00    0.0000E+00    2.861200E+08  0.02000  9.013E-04    0   0.6714   age125_m62            0.0000     2.1457E+00    10.9760  -0.3375   124.5555
 44      0.0000     0.0000E+00    0.0000E+00    5.088000E+08  0.02000  5.028E-04    0   0.6449   age130_m62            0.0000     2.3905E+00    11.4769  -0.7214   127.8954
 45      0.0000     0.0000E+00    0.0000E+00    9.047900E+08  0.02000  2.428E-04    0   0.6179   age135_m62            0.0000     2.6577E+00    11.6798  -1.0000   114.2852
 46      0.0000     0.0000E+00    0.0000E+00    1.434000E+09  0.02000  1.263E-04    0   0.5908   age139_m62            0.0000     4.3811E+00    15.3836  -1.0000    94.6609
 47      0.0000     0.0000E+00    0.0000E+00    2.500000E+09  0.02000  5.985E-05    0   0.5673   age150_m62            0.0000     6.7504E+00    19.6734  -1.0000    79.6764
 48      0.0000     0.0000E+00    0.0000E+00    4.250000E+09  0.02000  3.271E-05    0   0.5468   age158_m62            0.0000     9.1810E+00    23.2483  -1.0000    68.6397
 49      0.0000     0.0000E+00    0.0000E+00    1.000000E+10  0.02000  1.360E-05    0   0.5167   age181_m62            0.0000     1.2145E+01    27.0687  -1.0000    57.8786
 50      0.0000     0.0000E+00    0.0000E+00    1.800000E+10  0.02000  7.124E-06    0   0.5013   age213_m62            0.0000     1.3958E+01    29.1386  -1.0000    51.8211
 51    100.6005     9.3446E+01    9.3745E+01    1.000000E+06  0.05000  2.592E-02    0   0.9998   age020_m72            0.0000     1.1940E+00     8.8251   1.2675   107.9856
 52      0.0000     0.0000E+00    0.0000E+00    3.160000E+06  0.05000  4.845E-02    0   0.9577   age045_m72            0.0000     1.2354E+00     8.9647   1.0984   110.3147
 53      0.0000     0.0000E+00    0.0000E+00    5.010000E+06  0.05000  3.072E-02    0   0.9147   age055_m72            0.0000     1.3003E+00     9.2084   0.6659   114.0599
 54      0.0000     0.0000E+00    0.0000E+00    6.610000E+06  0.05000  1.455E-02    0   0.8877   age061_m72            0.0000     1.9278E+00    11.1984   0.0160   118.2786
 55      0.0000     0.0000E+00    0.0000E+00    1.000000E+07  0.05000  9.074E-03    0   0.8524   age070_m72            0.0000     1.3046E+00     9.2154   0.8723   113.2727
 56      0.0000     0.0000E+00    0.0000E+00    2.512000E+07  0.05000  4.250E-03    0   0.7902   age090_m72            0.0000     1.4323E+00     9.5488   0.5623   115.4950
 57      0.0000     0.0000E+00    0.0000E+00    4.000000E+07  0.05000  3.087E-03    0   0.7618   age104_m72            0.0000     1.5377E+00     9.8489   0.3398   117.2324
 58      0.0000     0.0000E+00    0.0000E+00    1.015200E+08  0.05000  1.700E-03    0   0.7096   age116_m72            0.0000     1.7799E+00    10.3000   0.0620   120.6827
 59      0.0000     0.0000E+00    0.0000E+00    2.861200E+08  0.05000  7.384E-04    0   0.6633   age125_m72            0.0000     2.2943E+00    11.3011  -0.4736   126.3175
 60      0.0000     0.0000E+00    0.0000E+00    5.088000E+08  0.05000  3.819E-04    0   0.6372   age130_m72            0.0000     2.3328E+00    11.4971  -0.9849   128.9722
 61      0.0000     0.0000E+00    0.0000E+00    9.047900E+08  0.05000  1.676E-04    0   0.6110   age135_m72            0.0000     4.1374E+00    14.7369  -1.0000    98.4887
 62      0.0000     0.0000E+00    0.0000E+00    1.434000E+09  0.05000  8.837E-05    0   0.5874   age139_m72            0.0000     6.8634E+00    19.7924  -1.0000    80.7691
 63      0.0000     0.0000E+00    0.0000E+00    2.500000E+09  0.05000  4.233E-05    0   0.5598   age150_m72            0.0000     9.2785E+00    23.2767  -1.0000    69.1755
 64      0.0000     0.0000E+00    0.0000E+00    6.250000E+09  0.05000  1.435E-05    0   0.5249   age166_m72            0.0000     1.2973E+01    28.1075  -1.0000    54.9627
 65      0.0000     0.0000E+00    0.0000E+00    1.300000E+10  0.05000  6.513E-06    0   0.5036   age193_m72            0.0000     1.5379E+01    30.7685  -1.0000    48.3154
 66      0.0000     0.0000E+00    0.0000E+00    1.800000E+10  0.05000  4.527E-06    0   0.4945   age213_m72            0.0000     1.6732E+01    32.1881  -1.0000    44.4882


## Synthesis Results - Average & Chains ##

# j      x_j: min, <> & last-chain-values for 1 ...  7 chains
  1      0.0000      4.6810      0.8964      5.2635      0.0000      0.0000      2.8883      1.6966      3.3163
  2      0.0000      2.5198      1.2648      0.0000      6.5392      2.0050      4.0405      0.0000      6.7634
  3      0.0000      2.1919      1.5724      0.0000      4.7013      0.1628      0.3823      2.1846      3.5034
  4      0.0000      0.8285      0.0000      0.3893      0.7927      0.2840      0.1983      0.0000      1.6163
  5      0.0000      0.7558      0.0000      0.7248      0.0517      0.0000      0.6166      0.0000      1.6150
  6      0.0000      0.5841      0.0000      0.0000      0.0518      0.4034      0.0000      0.0000      0.0000
  7      0.0000      0.3020      0.0000      0.0000      0.0000      0.0000      0.0000      0.1411      0.1703
  8      0.0000      0.1692      0.0000      1.3450      0.0000      0.0000      0.0000      0.0000      0.0000
  9      0.0000      0.2887      0.0000      0.0000      0.0000      0.0000      0.0000      0.1642      0.0000
 10      0.0000      0.1760      0.0000      0.0000      0.0000      0.0910      0.0476      0.0000      0.2712
 11      0.0000      0.0662      0.0000      0.0000      0.0000      0.0000      0.0000      0.0000      0.2814
 12      0.0000      0.0839      0.0000      0.1214      0.0000      0.0000      0.0000      0.2452      0.0000
 13      0.0000      0.0639      0.0000      0.0000      0.0000      0.6018      0.0000      0.4550      0.0000
 14      0.0000      0.0460      0.0000      0.0000      0.0000      0.2033      0.3514      0.0000      0.0000
 15      0.0000      0.0216      0.1569      0.0000      0.0000      0.0000      0.0000      0.0000      0.0000
 16      0.0000      0.0216      0.0000      0.0000      0.0000      0.3104      0.0000      0.0000      0.0000
 17      0.0000      0.0299      0.3836      0.0000      0.0000      0.0000      0.3394      0.0000      0.0000
 18      0.0000      7.2076      4.8976      9.3807      0.0000      3.1337      8.3202      3.7416      2.4693
 19      0.2689     17.1979     25.8916     13.6115     24.2670     18.8372     21.7734     13.7261     14.9416
 20      0.0000      3.3777      4.6794      0.0000      0.0000      9.1348      0.0000      0.0000      0.0000
 21      2.9974      1.1882      1.7675      0.2478      3.9190      0.0000      0.3870      5.0089      1.2968
 22      0.0000      0.8385      0.0000      0.0000      3.6656      0.0000      0.0000      0.0000      0.3910
 23      0.0000      0.8527      0.0000      0.0000      0.0000      0.5389      0.0000      0.0000      0.0000
 24      0.0000      0.2261      0.5499      0.0000      0.0000      0.0000      0.0000      0.0000      0.8486
 25      0.0000      0.2421      0.0000      0.0000      0.0000      0.2235      0.0000      0.0000      0.0000
 26      0.0000      0.2113      0.0000      0.0000      0.0000      0.0000      0.0000      1.1527      0.0000
 27      0.0000      0.1233      0.0000      0.0000      0.0019      0.0000      0.0000      0.0000      0.0000
 28      0.0000      0.0243      0.0000      0.0000      0.0000      0.0000      0.0000      0.2415      0.0000
 29      0.0000      0.1378      0.0000      0.0000      0.3883      0.0000      0.7462      0.0000      0.0000
 30      0.0000      0.0041      0.0000      0.0000      0.0000      0.0000      0.0000      0.1386      0.0000
 31      0.0000      0.0149      0.0000      0.0000      0.0000      0.2197      0.0000      0.1841      0.0000
 32      0.0000      0.0574      0.0000      0.0000      0.0000      0.0000      0.0000      0.4634      0.3288
 33      0.0000      0.0127      0.0000      0.0000      0.0000      0.0000      0.0000      0.0000      0.0000
 34      0.0000      0.0005      0.0000      0.0000      0.0000      0.0000      0.0000      0.0000      0.0000
 35      0.0000      9.3348     13.5315     11.5058      6.6667     13.9421     23.0078     15.1394      4.7636
 36      4.6327     19.7597     26.3153     31.5068     19.1834     29.6682     14.1057     24.3152     26.5488
 37      0.0000      1.0353      0.0000      0.0000      0.0000      0.0000      0.0000      0.0000      0.0000
 38      0.0000      0.0941      0.0000      0.0000      0.0000      0.0000      0.0000      0.0000      0.0000
 39      0.0000      0.3203      0.7128      0.0000      0.0000      0.0000      0.0000      0.0000      0.0000
 40      0.0000      0.2885      0.0000      0.0000      0.0000      0.0000      0.0000      0.0000      0.0000
 41      0.0000      0.2696      2.0386      1.4213      0.0000      0.0000      0.0000      0.0000      0.0000
 42      0.0000      0.1194      0.0000      0.0330      0.0000      0.0000      0.0000      0.0000      0.0000
 43      0.0000      0.1218      0.0000      0.0000      0.0000      0.0000      0.0051      0.0000      0.0000
 44      0.0000      0.1870      0.9484      0.0000      0.0000      0.5725      1.1919      0.0000      0.0000
 45      0.0000      0.3177      0.0000      1.4333      0.2495      0.0000      1.4520      0.1109      0.0000
 46      0.0000      0.0861      0.0000      0.0000      0.0000      0.0000      0.0000      0.0000      0.5033
