###################################################################
## OUTPUT of StarlightChains_v04.for    [Cid@UFSC - 01/Apr/2007] ##
###################################################################

## Some input info
SNF20080612-003.txt                      [arq_obs]
Base.CB07.vall.4m                        [arq_base]
Masks.EmLines.NEW.gm                     [arq_masks]
StCv04.C11.config                        [arq_config]
   66                                    [N_base]
    0                                    [N_YAV_components = # of components with extra extinction!]
    0                                    [i_FitPowerLaw (1/0 = Yes/No)]
-9.99                                    [alpha_PowerLaw]
CCM                                      [red_law_option]
 1.458241                                [q_norm = A(l_norm)/A(V)]

## (Re)Sampling Parameters
 3741.00                                 [l_ini (A)]
 7218.00                                 [l_fin (A)]
    1.00                                 [dl    (A)]     (OBS: dl_cushion =    50.00 A)

## Normalization info
 4020.00                                 [l_norm (A) - for base]
 4010.00                                 [llow_norm (A) - window for f_obs]
 4060.00                                 [lupp_norm (A) - window for f_obs]
1.916582E-17                             [fobs_norm (in input units)]

## S/N
 3691.00                                 [llow_SN (A) - window for S/N]
 7268.00                                 [lupp_SN (A) - window for S/N]
   6.581                                 [S/N in S/N window]
   6.445                                 [S/N in norm. window]
   7.938                                 [S/N_err in S/N window]
   7.773                                 [S/N_err in norm. window]
  1.0000                                 [fscale_chi2]

## etc...
    -2007469                             [idum_orig]
  2299                                   [NOl_eff]
  2299                                   [Nl_eff]
     0    NSIGMA                         [Ntot_cliped & clip_method]
  2239370                                [Nglobal_steps]
   7                                     [N_chains]
  44                                     [NEX0s_base = N_base in EX0s-fits]
 0   0   1        1   2.0   1.774E+01    [Clip-Bug, RC-Crash & Burn-In warning-flags, n_censored_weights, wei_nsig_threshold & wei_limit]
    21     21.421     20.924      0.497  [idt_all, wdt_TotTime, wdt_UsrTime & wdt_SysTime (sec)]

## Synthesis Results - Best model ##

 3.04708E-01                             [chi2/Nl_eff]
     7.57063                             [adev (%)]

    95.87973                             [sum-of-x (%)]
 5.62041E-17                             [Flux_tot (units of input spectrum!)]
 9.04835E-13                             [Mini_tot (???)]
 4.75083E-13                             [Mcor_tot (???)]

 -67.37                                  [v0_min  (km/s)]
 162.62                                  [vd_min  (km/s)]
 0.8324                                  [AV_min  (mag)]
 0.0000                                  [YAV_min (mag)]

# j     x_j(%)      Mini_j(%)     Mcor_j(%)     age_j(yr)     Z_j      (L/M)_j    YAV?  Mstars   component_j        a/Fe...       SSP_chi2r SSP_adev(%)   SSP_AV   SSP_x(%)
  1      2.8341     1.6783E-02    3.1965E-02    1.000000E+06  0.00400  1.094E-02    0   1.0000   age020_m42            0.0000     6.2456E-01     9.8257   3.5396    77.6136
  2      0.4636     7.4955E-04    1.4274E-03    3.160000E+06  0.00400  4.007E-02    0   0.9999   age045_m42            0.0000     5.3233E-01     8.9041   2.8055    83.4555
  3      0.0000     0.0000E+00    0.0000E+00    5.010000E+06  0.00400  2.539E-02    0   0.9488   age055_m42            0.0000     5.5732E-01     9.2374   3.1226    81.4635
  4      0.0000     0.0000E+00    0.0000E+00    6.610000E+06  0.00400  2.620E-02    0   0.9220   age061_m42            0.0000     5.0391E-01     8.7732   2.7183    84.2390
  5      3.0971     1.5177E-02    2.5617E-02    1.000000E+07  0.00400  1.322E-02    0   0.8862   age070_m42            0.0000     4.0927E-01     8.7075   2.3437    90.1125
  6      0.0000     0.0000E+00    0.0000E+00    1.445000E+07  0.00400  7.883E-03    0   0.8571   age078_m42            0.0000     4.4628E-01     8.9762   2.6858    87.1542
  7      3.6750     4.5341E-02    7.0587E-02    2.512000E+07  0.00400  5.251E-03    0   0.8174   age090_m42            0.0000     3.9473E-01     8.6930   2.1943    91.5077
  8      2.7055     4.8034E-02    7.1824E-02    4.000000E+07  0.00400  3.649E-03    0   0.7851   age104_m42            0.0000     3.8233E-01     8.4857   1.9741    91.9459
  9      0.6693     1.3997E-02    2.0338E-02    5.500000E+07  0.00400  3.098E-03    0   0.7629   age110_m42            0.0000     4.0779E-01     8.3654   2.1692    90.1080
 10      1.2299     3.5762E-02    4.9088E-02    1.015200E+08  0.00400  2.228E-03    0   0.7207   age116_m42            0.0000     4.2171E-01     8.2879   2.2158    89.1424
 11      0.0000     0.0000E+00    0.0000E+00    2.861200E+08  0.00400  1.093E-03    0   0.6648   age125_m42            0.0000     4.0660E-01     8.2125   1.6224    93.2477
 12      0.0000     0.0000E+00    0.0000E+00    5.088000E+08  0.00400  6.597E-04    0   0.6365   age130_m42            0.0000     4.0294E-01     7.9629   1.6512    92.2087
 13     18.2833     5.5557E+00    6.1350E+00    1.434000E+09  0.00400  2.132E-04    0   0.5798   age139_m42            0.0000     3.3046E-01     7.2767   0.6886    93.5268
 14      0.0013     1.4597E-03    1.4948E-03    4.250000E+09  0.00400  5.895E-05    0   0.5377   age158_m42            0.0000     3.7449E-01     7.4853   0.3145    86.9763
 15      0.0000     0.0000E+00    0.0000E+00    7.500000E+09  0.00400  3.510E-05    0   0.5212   age171_m42            0.0000     4.0252E-01     7.6870   0.1552    85.2692
 16      0.0000     0.0000E+00    0.0000E+00    1.300000E+10  0.00400  2.005E-05    0   0.5034   age193_m42            0.0000     4.3948E-01     7.9920   0.0178    83.7507
 17      0.0000     0.0000E+00    0.0000E+00    1.800000E+10  0.00400  1.525E-05    0   0.4967   age213_m42            0.0000     4.3537E-01     7.9618  -0.0118    83.6302
 18      0.0000     0.0000E+00    0.0000E+00    1.000000E+06  0.00800  1.238E-02    0   1.0000   age020_m52            0.0000     6.2326E-01     9.8197   3.5373    77.7112
 19      1.8718     3.9449E-03    7.4878E-03    3.160000E+06  0.00800  3.074E-02    0   0.9966   age045_m52            0.0000     6.1420E-01     9.7342   3.4605    78.4031
 20      1.2983     3.1525E-03    5.6698E-03    5.010000E+06  0.00800  2.668E-02    0   0.9443   age055_m52            0.0000     5.5390E-01     9.3072   3.2011    80.8619
 21      3.2666     9.9076E-03    1.7317E-02    6.610000E+06  0.00800  2.136E-02    0   0.9177   age061_m52            0.0000     3.6435E-01     8.3649   1.8485    90.8128
 22      0.0000     0.0000E+00    0.0000E+00    1.000000E+07  0.00800  1.215E-02    0   0.8827   age070_m52            0.0000     4.1200E-01     8.9424   2.5026    90.9006
 23      1.2736     9.4653E-03    1.5417E-02    1.445000E+07  0.00800  8.717E-03    0   0.8552   age078_m52            0.0000     4.2552E-01     8.8464   2.6452    88.6297
 24      2.6801     3.1050E-02    4.8268E-02    2.512000E+07  0.00800  5.592E-03    0   0.8162   age090_m52            0.0000     3.8498E-01     8.6531   2.2542    92.8502
 25      2.9500     4.9054E-02    7.3257E-02    4.000000E+07  0.00800  3.896E-03    0   0.7841   age104_m52            0.0000     3.8491E-01     8.4519   2.1861    92.7362
 26      5.1105     1.5414E-01    2.1213E-01    1.015200E+08  0.00800  2.148E-03    0   0.7226   age116_m52            0.0000     3.9432E-01     8.1900   2.1633    90.8056
 27      0.0000     0.0000E+00    0.0000E+00    2.861200E+08  0.00800  9.925E-04    0   0.6683   age125_m52            0.0000     3.7484E-01     7.7988   1.7102    93.3073
 28      0.0000     0.0000E+00    0.0000E+00    9.047900E+08  0.00800  3.141E-04    0   0.6138   age135_m52            0.0000     3.5918E-01     7.3330   0.9657    94.7654
 29      0.0000     0.0000E+00    0.0000E+00    1.434000E+09  0.00800  1.719E-04    0   0.5853   age139_m52            0.0000     3.7703E-01     7.4116   0.3974    92.3208
 30      0.0000     0.0000E+00    0.0000E+00    2.500000E+09  0.00800  7.872E-05    0   0.5600   age150_m52            0.0000     4.1289E-01     7.6831   0.1890    87.1322
 31      0.0000     0.0000E+00    0.0000E+00    4.250000E+09  0.00800  4.336E-05    0   0.5426   age158_m52            0.0000     4.1514E-01     7.7443   0.1776    86.1425
 32      0.0000     0.0000E+00    0.0000E+00    6.250000E+09  0.00800  3.159E-05    0   0.5319   age166_m52            0.0000     4.5876E-01     8.0749   0.0120    84.6790
 33      1.4755     7.0236E+00    6.7861E+00    1.300000E+10  0.00800  1.361E-05    0   0.5073   age193_m52            0.0000     5.2666E-01     8.6935  -0.4140    82.4615
 34      0.0000     0.0000E+00    0.0000E+00    1.800000E+10  0.00800  9.886E-06    0   0.4990   age213_m52            0.0000     5.9080E-01     9.3077  -0.4815    80.5352
 35      0.0000     0.0000E+00    0.0000E+00    1.000000E+06  0.02000  1.544E-02    0   1.0000   age020_m62            0.0000     6.2559E-01     9.8472   3.5336    77.8783
 36      1.0295     1.7729E-03    3.3287E-03    3.160000E+06  0.02000  3.762E-02    0   0.9858   age045_m62            0.0000     6.2733E-01     9.8369   3.4738    78.5319
 37      0.0000     0.0000E+00    0.0000E+00    5.010000E+06  0.02000  3.296E-02    0   0.9342   age055_m62            0.0000     5.4575E-01     9.0730   3.0912    82.1429
 38      5.6479     3.1707E-02    5.3510E-02    8.710000E+06  0.02000  1.154E-02    0   0.8861   age067_m62            0.0000     4.9293E-01    10.8632   1.7878   101.7882
 39      0.0145     1.2293E-04    1.9835E-04    1.445000E+07  0.02000  7.663E-03    0   0.8472   age078_m62            0.0000     4.0527E-01     9.2427   2.1012    95.4204
 40      0.0020     2.8070E-05    4.3299E-05    2.512000E+07  0.02000  4.532E-03    0   0.8099   age090_m62            0.0000     4.1945E-01     9.3569   2.0851    95.6425
 41      2.0333     4.8198E-02    6.9720E-02    5.500000E+07  0.02000  2.733E-03    0   0.7595   age110_m62            0.0000     3.7379E-01     8.4243   2.1678    92.0788
 42      1.8113     8.5716E-02    1.1403E-01    1.609000E+08  0.02000  1.369E-03    0   0.6985   age120_m62            0.0000     3.7961E-01     8.0313   2.0509    92.6138
 43      1.9447     1.3979E-01    1.7875E-01    2.861200E+08  0.02000  9.013E-04    0   0.6714   age125_m62            0.0000     3.7105E-01     7.7792   1.8180    94.4503
 44      0.0000     0.0000E+00    0.0000E+00    5.088000E+08  0.02000  5.028E-04    0   0.6449   age130_m62            0.0000     3.8828E-01     7.5928   1.5013    94.1729
 45      0.0000     0.0000E+00    0.0000E+00    9.047900E+08  0.02000  2.428E-04    0   0.6179   age135_m62            0.0000     3.7055E-01     7.3479   0.9488    92.1515
 46      0.0000     0.0000E+00    0.0000E+00    1.434000E+09  0.02000  1.263E-04    0   0.5908   age139_m62            0.0000     3.8560E-01     7.4642   0.5216    90.0032
 47      0.0144     1.5585E-02    1.6839E-02    2.500000E+09  0.02000  5.985E-05    0   0.5673   age150_m62            0.0000     4.4920E-01     7.9557   0.2077    86.5671
 48      1.9000     3.7631E+00    3.9190E+00    4.250000E+09  0.02000  3.271E-05    0   0.5468   age158_m62            0.0000     5.2910E-01     8.6671  -0.0445    83.7040
 49     11.5464     5.5002E+01    5.4127E+01    1.000000E+10  0.02000  1.360E-05    0   0.5167   age181_m62            0.0000     6.3850E-01     9.7234  -0.3336    81.1424
 50      1.0579     9.6205E+00    9.1853E+00    1.800000E+10  0.02000  7.124E-06    0   0.5013   age213_m62            0.0000     7.4218E-01    10.6388  -0.4903    78.5710
 51      3.3843     8.4588E-03    1.6107E-02    1.000000E+06  0.05000  2.592E-02    0   0.9998   age020_m72            0.0000     6.2804E-01     9.9231   3.5204    78.0651
 52      0.3289     4.3980E-04    8.0220E-04    3.160000E+06  0.05000  4.845E-02    0   0.9577   age045_m72            0.0000     6.0704E-01     9.5736   3.3614    79.4322
 53      0.0000     0.0000E+00    0.0000E+00    5.010000E+06  0.05000  3.072E-02    0   0.9147   age055_m72            0.0000     4.9154E-01     9.4181   2.7731    88.1278
 54      0.0000     0.0000E+00    0.0000E+00    6.610000E+06  0.05000  1.455E-02    0   0.8877   age061_m72            0.0000     9.6882E-01    13.0728   1.8257   104.7034
 55      0.0000     0.0000E+00    0.0000E+00    1.000000E+07  0.05000  9.074E-03    0   0.8524   age070_m72            0.0000     6.0497E-01     9.8720   2.9965    86.7722
 56      0.0000     0.0000E+00    0.0000E+00    2.512000E+07  0.05000  4.250E-03    0   0.7902   age090_m72            0.0000     5.1405E-01     9.3298   2.6556    89.8389
 57      0.0000     0.0000E+00    0.0000E+00    4.000000E+07  0.05000  3.087E-03    0   0.7618   age104_m72            0.0000     5.1305E-01     9.2945   2.4072    92.3052
 58      0.0000     0.0000E+00    0.0000E+00    1.015200E+08  0.05000  1.700E-03    0   0.7096   age116_m72            0.0000     3.9660E-01     8.2680   2.1715    93.3471
 59      0.2247     1.9718E-02    2.4910E-02    2.861200E+08  0.05000  7.384E-04    0   0.6633   age125_m72            0.0000     3.7220E-01     7.6430   1.7147    94.4438
 60      2.5956     4.4032E-01    5.3437E-01    5.088000E+08  0.05000  3.819E-04    0   0.6372   age130_m72            0.0000     3.6821E-01     7.3585   1.2726    93.5853
 61      6.0283     2.3302E+00    2.7116E+00    9.047900E+08  0.05000  1.676E-04    0   0.6110   age135_m72            0.0000     4.3615E-01     7.8284   0.6540    88.5502
 62      0.0030     2.2123E-03    2.4750E-03    1.434000E+09  0.05000  8.837E-05    0   0.5874   age139_m72            0.0000     4.6566E-01     8.0577   0.2131    87.5982
 63      0.0000     0.0000E+00    0.0000E+00    2.500000E+09  0.05000  4.233E-05    0   0.5598   age150_m72            0.0000     5.6964E-01     8.9977  -0.0274    83.7247
 64      3.4273     1.5473E+01    1.5469E+01    6.250000E+09  0.05000  1.435E-05    0   0.5249   age166_m72            0.0000     6.9791E-01    10.1232  -0.4117    80.0856
 65      0.0000     0.0000E+00    0.0000E+00    1.300000E+10  0.05000  6.513E-06    0   0.5036   age193_m72            0.0000     8.4052E-01    11.3077  -0.6242    78.4033
 66      0.0000     0.0000E+00    0.0000E+00    1.800000E+10  0.05000  4.527E-06    0   0.4945   age213_m72            0.0000     9.4772E-01    12.0655  -0.7419    76.7229


## Synthesis Results - Average & Chains ##

# j      x_j: min, <> & last-chain-values for 1 ...  7 chains
  1      2.8341      0.8162      2.0695      1.2635      0.0000      1.0048      0.7670      2.5299      1.3667
  2      0.4636      0.3802      0.2088      0.8549      0.0000      0.4359      0.0000      0.0000      2.1177
  3      0.0000      0.7250      3.3143      0.0000      0.6310      1.0431      1.9301      0.0044      0.0000
  4      0.0000      0.3369      0.5348      0.1058      0.0454      0.0000      0.0000      0.0000      0.7662
  5      3.0971      1.6636      5.3017      2.7413      3.9553      2.0583      4.6044      0.0000      0.7920
  6      0.0000      1.0672      1.9599      0.0000      1.7734      0.4959      1.5705      0.3091      0.0000
  7      3.6750      0.9123      0.0357      0.9752      1.9646      0.0000      0.7293      1.8269      0.0000
  8      2.7055      2.5538      2.3323      4.6053      3.9034      2.9632      1.4172      1.4862      2.4976
  9      0.6693      1.5968      3.7854      1.8850      1.7413      0.3061      0.0000      0.5090      1.6746
 10      1.2299      0.7316      1.7455      1.6042      0.4469      0.0000      0.9503      0.2423      0.6084
 11      0.0000      0.9590      0.0000      0.0000      0.0000      0.0000      0.0000      0.0000      2.3282
 12      0.0000      0.8517      0.7967      0.0000      0.0000      3.8101      0.6171      0.0000      0.7538
 13     18.2833     13.8586     18.4802     13.3658     11.0005     17.8048      1.4047     13.8623     14.8764
 14      0.0013      2.2510      5.7084      1.8348      2.1043      0.2805      4.8144      2.4754      3.9633
 15      0.0000      1.1321      0.0000      1.7742      0.6978      2.9085      0.1682      0.0000      1.4403
 16      0.0000      0.6296      0.0000      0.3746      0.0662      0.0000      0.0000      0.0000      0.0000
 17      0.0000      1.3212      0.7895      0.6583      0.0000      2.3171      1.8775      1.0402      0.0000
 18      0.0000      0.6677      0.0000      0.0000      0.6147      0.9100      1.7198      1.3936      0.9056
 19      1.8718      0.3375      0.0000      0.4161      1.0044      0.6897      0.6163      1.0978      0.0000
 20      1.2983      0.8504      0.0000      1.7436      1.2914      2.3569      1.0978      0.9408      2.9188
 21      3.2666      1.4590      2.3572      1.0890      0.5799      2.4676      0.5530      0.8091      0.0000
 22      0.0000      0.3846      0.2494      0.0000      0.0000      1.9940      2.1868      0.6884      0.0000
 23      1.2736      0.5086      0.0000      0.6413      0.1005      0.5608      0.0000      2.2869      1.2526
 24      2.6801      2.3658      0.0000      3.8309      2.9891      3.2892      5.8828      1.6861      2.7903
 25      2.9500      1.0133      0.4136      1.0892      1.6529      0.9110      1.6468      3.4758      2.4709
 26      5.1105      4.2658      5.1567      3.7454      4.9755      4.5477      5.3663     10.1874      5.0326
 27      0.0000      0.9006      0.0000      0.1834      0.0000      0.6841      1.4853      3.6764      0.0787
 28      0.0000      2.4071      0.9082      0.3691      2.2173      0.5793      1.5966      0.0000      1.3092
 29      0.0000      0.6019      1.1095      0.0000      0.1665      0.0000      0.3538      0.0000      0.0000
 30      0.0000      0.9356      0.0000      1.3257      0.3793      0.0000      0.4006      1.8561      0.0000
 31      0.0000      2.1084      0.7075      0.5609      1.6921      1.8303      2.0110      5.3922      2.5683
 32      0.0000      1.2814      0.0000      1.8236      2.3596      0.0000      1.8553      1.0067      2.9103
 33      1.4755      0.2877      0.0000      2.1808      0.6306      0.1978      0.9304      0.0000      0.0000
 34      0.0000      0.2436      0.0000      0.0000      1.6289      0.0000      0.0000      0.5978      0.1304
 35      0.0000      0.2398      0.1079      0.0000      0.0000      0.0000      0.0000      0.0000      0.0000
 36      1.0295      0.7974      1.5176      1.6954      1.2797      0.0000      0.0000      2.7469      0.6334
 37      0.0000      0.3008      0.0000      0.1836      0.9301      0.0000      0.2455      0.0000      0.0000
 38      5.6479      4.5016      4.1337      4.5839      4.8639      4.9239      7.0849      2.2534      4.9776
 39      0.0145      1.3144      0.0000      0.9637      1.4025      1.5595      1.5426      0.0000      3.1995
 40      0.0020      0.7815      0.0225      2.5101      0.1424      0.0000      0.0000      0.0000      0.0000
 41      2.0333      0.6123      0.1871      0.6945      0.3883      0.2025      3.2586      0.0000      0.0000
 42      1.8113      0.8940      1.0089      2.3021      0.8787      0.0000      0.8907      2.1558      0.2269
 43      1.9447      1.2265      0.3308      0.5345      1.9231      0.0000      2.1427      0.1780      0.0000
 44      0.0000      0.9663      0.0000      1.1957      3.4808      0.0000      0.0000      0.0000      2.6728
 45      0.0000      1.8646      0.0000      0.2615      0.6149      0.0000      0.0000      1.4302      0.7174
 46      0.0000      1.4295      0.0000      0.0000      0.0000      0.0058      0.0000      1.2256      0.0000
