###################################################################
## OUTPUT of StarlightChains_v04.for    [Cid@UFSC - 01/Apr/2007] ##
###################################################################

## Some input info
SNF20080514-002.txt                      [arq_obs]
Base.CB07.vall.4m                        [arq_base]
Masks.EmLines.NEW.gm                     [arq_masks]
StCv04.C11.config                        [arq_config]
   66                                    [N_base]
    0                                    [N_YAV_components = # of components with extra extinction!]
    0                                    [i_FitPowerLaw (1/0 = Yes/No)]
-9.99                                    [alpha_PowerLaw]
CCM                                      [red_law_option]
 1.458241                                [q_norm = A(l_norm)/A(V)]

## (Re)Sampling Parameters
 3741.00                                 [l_ini (A)]
 7218.00                                 [l_fin (A)]
    1.00                                 [dl    (A)]     (OBS: dl_cushion =    50.00 A)

## Normalization info
 4020.00                                 [l_norm (A) - for base]
 4010.00                                 [llow_norm (A) - window for f_obs]
 4060.00                                 [lupp_norm (A) - window for f_obs]
2.754242E-17                             [fobs_norm (in input units)]

## S/N
 3691.00                                 [llow_SN (A) - window for S/N]
 7268.00                                 [lupp_SN (A) - window for S/N]
   6.738                                 [S/N in S/N window]
   5.901                                 [S/N in norm. window]
  11.948                                 [S/N_err in S/N window]
  10.464                                 [S/N_err in norm. window]
  1.0000                                 [fscale_chi2]

## etc...
    -2007468                             [idum_orig]
  2384                                   [NOl_eff]
  2345                                   [Nl_eff]
    39    NSIGMA                         [Ntot_cliped & clip_method]
  1768130                                [Nglobal_steps]
   7                                     [N_chains]
  29                                     [NEX0s_base = N_base in EX0s-fits]
 0   0   1       38   2.0   1.888E+01    [Clip-Bug, RC-Crash & Burn-In warning-flags, n_censored_weights, wei_nsig_threshold & wei_limit]
    14     14.155     13.663      0.492  [idt_all, wdt_TotTime, wdt_UsrTime & wdt_SysTime (sec)]

## Synthesis Results - Best model ##

 4.81939E-01                             [chi2/Nl_eff]
     4.66153                             [adev (%)]

   106.73710                             [sum-of-x (%)]
 3.07184E-17                             [Flux_tot (units of input spectrum!)]
 1.13657E-12                             [Mini_tot (???)]
 5.87764E-13                             [Mcor_tot (???)]

  49.72                                  [v0_min  (km/s)]
 120.56                                  [vd_min  (km/s)]
 0.0327                                  [AV_min  (mag)]
 0.0000                                  [YAV_min (mag)]

# j     x_j(%)      Mini_j(%)     Mcor_j(%)     age_j(yr)     Z_j      (L/M)_j    YAV?  Mstars   component_j        a/Fe...       SSP_chi2r SSP_adev(%)   SSP_AV   SSP_x(%)
  1      0.0000     0.0000E+00    0.0000E+00    1.000000E+06  0.00400  1.094E-02    0   1.0000   age020_m42            0.0000     1.4697E+00     7.6019   3.5373    86.7172
  2      0.0000     0.0000E+00    0.0000E+00    3.160000E+06  0.00400  4.007E-02    0   0.9999   age045_m42            0.0000     1.2463E+00     6.9667   2.7621    95.0882
  3      0.0000     0.0000E+00    0.0000E+00    5.010000E+06  0.00400  2.539E-02    0   0.9488   age055_m42            0.0000     1.3402E+00     7.1941   3.1036    91.7014
  4      0.0119     1.1512E-05    2.0525E-05    6.610000E+06  0.00400  2.620E-02    0   0.9220   age061_m42            0.0000     1.2519E+00     6.9076   2.6830    95.5393
  5      0.0297     5.6809E-05    9.7351E-05    1.000000E+07  0.00400  1.322E-02    0   0.8862   age070_m42            0.0000     1.3672E+00     7.0877   2.3739    98.7047
  6      0.0000     0.0000E+00    0.0000E+00    1.445000E+07  0.00400  7.883E-03    0   0.8571   age078_m42            0.0000     1.4272E+00     7.2531   2.7192    95.3223
  7      0.0000     0.0000E+00    0.0000E+00    2.512000E+07  0.00400  5.251E-03    0   0.8174   age090_m42            0.0000     1.3990E+00     7.1683   2.2350    99.6808
  8      0.8797     6.1045E-03    9.2676E-03    4.000000E+07  0.00400  3.649E-03    0   0.7851   age104_m42            0.0000     1.2938E+00     6.9477   1.9984   101.0262
  9      0.0000     0.0000E+00    0.0000E+00    5.500000E+07  0.00400  3.098E-03    0   0.7629   age110_m42            0.0000     1.2412E+00     6.7963   2.1582   100.8252
 10      0.0000     0.0000E+00    0.0000E+00    1.015200E+08  0.00400  2.228E-03    0   0.7207   age116_m42            0.0000     1.2321E+00     6.7469   2.1811   100.9583
 11      0.0000     0.0000E+00    0.0000E+00    2.861200E+08  0.00400  1.093E-03    0   0.6648   age125_m42            0.0000     1.2265E+00     6.8798   1.5772   105.7987
 12      0.0000     0.0000E+00    0.0000E+00    5.088000E+08  0.00400  6.597E-04    0   0.6365   age130_m42            0.0000     1.1170E+00     6.5786   1.5685   106.7451
 13      3.1431     3.7330E-01    4.1853E-01    1.434000E+09  0.00400  2.132E-04    0   0.5798   age139_m42            0.0000     6.9115E-01     5.4864   0.5691   110.5381
 14     13.2403     5.6872E+00    5.9134E+00    4.250000E+09  0.00400  5.895E-05    0   0.5377   age158_m42            0.0000     5.3290E-01     4.9054   0.1555   105.0255
 15     10.9286     7.8840E+00    7.9459E+00    7.500000E+09  0.00400  3.510E-05    0   0.5212   age171_m42            0.0000     5.5108E-01     4.9123  -0.0255   104.0791
 16      4.3189     5.4544E+00    5.3095E+00    1.300000E+10  0.00400  2.005E-05    0   0.5034   age193_m42            0.0000     5.9824E-01     5.0239  -0.1834   103.2410
 17      6.5054     1.0802E+01    1.0375E+01    1.800000E+10  0.00400  1.525E-05    0   0.4967   age213_m42            0.0000     5.8559E-01     4.9883  -0.2079   102.8356
 18      0.0000     0.0000E+00    0.0000E+00    1.000000E+06  0.00800  1.238E-02    0   1.0000   age020_m52            0.0000     1.4640E+00     7.5954   3.5336    86.8837
 19      0.0000     0.0000E+00    0.0000E+00    3.160000E+06  0.00800  3.074E-02    0   0.9966   age045_m52            0.0000     1.4348E+00     7.5251   3.4560    87.7071
 20      1.7362     1.6478E-03    3.0089E-03    5.010000E+06  0.00800  2.668E-02    0   0.9443   age055_m52            0.0000     1.3424E+00     7.2320   3.1929    90.5601
 21      0.0000     0.0000E+00    0.0000E+00    6.610000E+06  0.00800  2.136E-02    0   0.9177   age061_m52            0.0000     1.0854E+00     6.4453   1.8691   100.1267
 22      2.0617     4.2967E-03    7.3341E-03    1.000000E+07  0.00800  1.215E-02    0   0.8827   age070_m52            0.0000     1.4602E+00     7.3207   2.5529    98.4267
 23      0.0000     0.0000E+00    0.0000E+00    1.445000E+07  0.00800  8.717E-03    0   0.8552   age078_m52            0.0000     1.3784E+00     7.1326   2.6785    96.9400
 24      1.9040     8.6218E-03    1.3608E-02    2.512000E+07  0.00800  5.592E-03    0   0.8162   age090_m52            0.0000     1.3773E+00     7.1292   2.2926   101.1722
 25      0.0000     0.0000E+00    0.0000E+00    4.000000E+07  0.00800  3.896E-03    0   0.7841   age104_m52            0.0000     1.2897E+00     6.9654   2.1980   102.3888
 26      0.0000     0.0000E+00    0.0000E+00    1.015200E+08  0.00800  2.148E-03    0   0.7226   age116_m52            0.0000     1.1683E+00     6.6848   2.1382   102.2638
 27      0.0000     0.0000E+00    0.0000E+00    2.861200E+08  0.00800  9.925E-04    0   0.6683   age125_m52            0.0000     1.0878E+00     6.4907   1.6306   107.8706
 28      0.0000     0.0000E+00    0.0000E+00    9.047900E+08  0.00800  3.141E-04    0   0.6138   age135_m52            0.0000     7.2367E-01     5.6766   0.8006   114.4019
 29      0.0000     0.0000E+00    0.0000E+00    1.434000E+09  0.00800  1.719E-04    0   0.5853   age139_m52            0.0000     5.8709E-01     5.1491   0.2341   111.3680
 30      0.0000     0.0000E+00    0.0000E+00    2.500000E+09  0.00800  7.872E-05    0   0.5600   age150_m52            0.0000     5.7413E-01     4.9805  -0.0069   107.1163
 31      0.0000     0.0000E+00    0.0000E+00    4.250000E+09  0.00800  4.336E-05    0   0.5426   age158_m52            0.0000     5.8775E-01     5.0275  -0.0190   105.9598
 32      0.0000     0.0000E+00    0.0000E+00    6.250000E+09  0.00800  3.159E-05    0   0.5319   age166_m52            0.0000     6.7452E-01     5.2629  -0.2140   105.7110
 33      5.3360     9.9275E+00    9.7387E+00    1.300000E+10  0.00800  1.361E-05    0   0.5073   age193_m52            0.0000     8.5476E-01     5.7510  -0.6687   104.4878
 34      0.1512     3.8734E-01    3.7375E-01    1.800000E+10  0.00800  9.886E-06    0   0.4990   age213_m52            0.0000     1.0470E+00     6.2660  -0.7601   103.2654
 35      0.0000     0.0000E+00    0.0000E+00    1.000000E+06  0.02000  1.544E-02    0   1.0000   age020_m62            0.0000     1.4689E+00     7.6214   3.5322    86.9758
 36      3.8535     2.5938E-03    4.9444E-03    3.160000E+06  0.02000  3.762E-02    0   0.9858   age045_m62            0.0000     1.4570E+00     7.6034   3.4715    87.7272
 37      0.0000     0.0000E+00    0.0000E+00    5.010000E+06  0.02000  3.296E-02    0   0.9342   age055_m62            0.0000     1.2835E+00     7.0385   3.0587    93.0984
 38      6.9793     1.5314E-02    2.6240E-02    8.710000E+06  0.02000  1.154E-02    0   0.8861   age067_m62            0.0000     2.4163E+00     9.3686   1.9719   102.3608
 39      2.9447     9.7304E-03    1.5941E-02    1.445000E+07  0.02000  7.663E-03    0   0.8472   age078_m62            0.0000     1.5996E+00     7.6527   2.1788   101.6129
 40      0.0000     0.0000E+00    0.0000E+00    2.512000E+07  0.02000  4.532E-03    0   0.8099   age090_m62            0.0000     1.6974E+00     7.8468   2.1664   101.5512
 41      3.0184     2.7965E-02    4.1071E-02    5.500000E+07  0.02000  2.733E-03    0   0.7595   age110_m62            0.0000     1.2861E+00     6.8798   2.1870   101.3163
 42      0.0000     0.0000E+00    0.0000E+00    1.609000E+08  0.02000  1.369E-03    0   0.6985   age120_m62            0.0000     1.2092E+00     6.6682   2.0148   104.8646
 43      0.0000     0.0000E+00    0.0000E+00    2.861200E+08  0.02000  9.013E-04    0   0.6714   age125_m62            0.0000     1.1526E+00     6.5346   1.7472   108.8995
 44      0.0000     0.0000E+00    0.0000E+00    5.088000E+08  0.02000  5.028E-04    0   0.6449   age130_m62            0.0000     9.4406E-01     6.1734   1.3556   112.8105
 45      0.0000     0.0000E+00    0.0000E+00    9.047900E+08  0.02000  2.428E-04    0   0.6179   age135_m62            0.0000     6.5716E-01     5.3554   0.7673   112.4225
 46      0.0011     2.1613E-04    2.4692E-04    1.434000E+09  0.02000  1.263E-04    0   0.5908   age139_m62            0.0000     5.8564E-01     5.0588   0.3337   110.2695
 47      0.0000     0.0000E+00    0.0000E+00    2.500000E+09  0.02000  5.985E-05    0   0.5673   age150_m62            0.0000     6.6834E-01     5.2517  -0.0094   107.7065
 48     14.1206     1.0931E+01    1.1558E+01    4.250000E+09  0.02000  3.271E-05    0   0.5468   age158_m62            0.0000     8.4904E-01     5.7626  -0.2964   106.0318
 49     12.2835     2.2870E+01    2.2851E+01    1.000000E+10  0.02000  1.360E-05    0   0.5167   age181_m62            0.0000     1.2025E+00     6.7616  -0.6211   104.6178
 50      4.3865     1.5591E+01    1.5114E+01    1.800000E+10  0.02000  7.124E-06    0   0.5013   age213_m62            0.0000     1.5210E+00     7.5927  -0.8027   102.5433
 51      0.0000     0.0000E+00    0.0000E+00    1.000000E+06  0.05000  2.592E-02    0   0.9998   age020_m72            0.0000     1.4930E+00     7.7056   3.5277    86.8158
 52      1.0300     5.3832E-04    9.9693E-04    3.160000E+06  0.05000  4.845E-02    0   0.9577   age045_m72            0.0000     1.3867E+00     7.3968   3.3459    89.3196
 53      0.0000     0.0000E+00    0.0000E+00    5.010000E+06  0.05000  3.072E-02    0   0.9147   age055_m72            0.0000     1.5639E+00     7.6331   2.8064    95.9124
 54      0.0000     0.0000E+00    0.0000E+00    6.610000E+06  0.05000  1.455E-02    0   0.8877   age061_m72            0.0000     3.6697E+00    11.6479   2.0066   103.9051
 55      0.3253     9.0781E-04    1.4963E-03    1.000000E+07  0.05000  9.074E-03    0   0.8524   age070_m72            0.0000     1.8652E+00     8.2659   2.9954    95.5308
 56      0.0000     0.0000E+00    0.0000E+00    2.512000E+07  0.05000  4.250E-03    0   0.7902   age090_m72            0.0000     1.6453E+00     7.7824   2.6666    98.6140
 57      0.0000     0.0000E+00    0.0000E+00    4.000000E+07  0.05000  3.087E-03    0   0.7618   age104_m72            0.0000     1.6753E+00     7.8458   2.4213   101.0973
 58      0.0000     0.0000E+00    0.0000E+00    1.015200E+08  0.05000  1.700E-03    0   0.7096   age116_m72            0.0000     1.3186E+00     6.9740   2.1537   104.5267
 59      0.0000     0.0000E+00    0.0000E+00    2.861200E+08  0.05000  7.384E-04    0   0.6633   age125_m72            0.0000     1.0437E+00     6.3138   1.6091   110.8356
 60      0.0000     0.0000E+00    0.0000E+00    5.088000E+08  0.05000  3.819E-04    0   0.6372   age130_m72            0.0000     7.5913E-01     5.5886   1.1114   113.1308
 61      0.0000     0.0000E+00    0.0000E+00    9.047900E+08  0.05000  1.676E-04    0   0.6110   age135_m72            0.0000     6.9118E-01     5.3635   0.4443   109.8632
 62      0.0013     3.6059E-04    4.0959E-04    1.434000E+09  0.05000  8.837E-05    0   0.5874   age139_m72            0.0000     7.0895E-01     5.3964  -0.0138   109.4972
 63      2.8309     1.6934E+00    1.8331E+00    2.500000E+09  0.05000  4.233E-05    0   0.5598   age150_m72            0.0000     9.4320E-01     6.0610  -0.2902   106.6346
 64      4.7154     8.3205E+00    8.4454E+00    6.250000E+09  0.05000  1.435E-05    0   0.5249   age166_m72            0.0000     1.2857E+00     7.0526  -0.7067   103.6603
 65      0.0000     0.0000E+00    0.0000E+00    1.300000E+10  0.05000  6.513E-06    0   0.5036   age193_m72            0.0000     1.7145E+00     8.1705  -0.9478   102.9033
 66      0.0000     0.0000E+00    0.0000E+00    1.800000E+10  0.05000  4.527E-06    0   0.4945   age213_m72            0.0000     2.0239E+00     8.7837  -1.0000    97.8910


## Synthesis Results - Average & Chains ##

# j      x_j: min, <> & last-chain-values for 1 ...  7 chains
  1      0.0000      0.1591      0.0000      0.0000      0.0000      0.0000      0.0000      0.0000      0.0000
  2      0.0000      0.1741      0.0000      0.0000      0.0000      0.0000      0.1989      0.5141      0.0000
  3      0.0000      0.9458      0.8431      0.0000      1.5288      3.6374      0.2226      2.0794      0.3227
  4      0.0119      0.3107      0.0000      0.0000      0.0000      0.0000      0.0000      0.0000      0.7021
  5      0.0297      0.4716      0.0000      0.0000      0.0000      0.6766      2.2659      0.0000      0.7035
  6      0.0000      0.5353      1.1270      1.5475      1.1130      0.0000      2.4255      1.7776      0.0000
  7      0.0000      0.2510      0.3498      0.0000      0.3850      0.6055      0.0000      0.0000      0.2262
  8      0.8797      0.3661      0.0000      0.0000      0.0000      0.0000      0.0000      0.6418      0.6939
  9      0.0000      0.2383      0.0000      0.0000      1.4469      0.0000      0.0000      0.0000      0.0000
 10      0.0000      0.6753      1.0241      1.0945      0.0000      0.0000      0.0000      0.0000      0.0000
 11      0.0000      0.3062      0.0000      0.0000      0.0000      0.0613      0.2054      0.0000      0.0000
 12      0.0000      0.3419      0.0000      0.0000      0.1112      0.0000      0.0000      0.0000      0.0000
 13      3.1431      1.6115      1.5956      1.2853      1.3586      0.0000      2.1147      3.7187      1.3087
 14     13.2403      7.8490      9.9151      9.3745      0.9491     11.8208      4.5564     13.3014      7.4144
 15     10.9286      7.0162     11.0586      9.4455     14.7139     11.2057      8.0512      4.1805      7.5396
 16      4.3189      9.5788      8.5715      7.8765      9.3947      6.1254      9.4277      4.2850     10.6639
 17      6.5054      2.8179      2.8341      2.9094      9.6034      0.5639      4.3885      0.1001      2.0012
 18      0.0000      0.4400      0.7847      0.3808      0.0000      1.0850      0.0000      0.0000      1.0449
 19      0.0000      0.3299      0.0000      0.0000      1.0595      0.4121      0.0000      0.0000      0.4425
 20      1.7362      0.7884      0.0000      0.3596      0.0000      0.8043      1.8510      0.3941      3.1174
 21      0.0000      0.4720      1.0972      0.5302      1.0433      0.0000      0.3416      0.0000      0.2464
 22      2.0617      1.4117      0.4724      0.7724      1.5829      1.6210      3.3665      3.6983      1.8692
 23      0.0000      0.2815      2.0402      0.1568      0.0000      1.2351      0.3293      0.0000      0.0000
 24      1.9040      1.0639      1.5334      1.6337      2.1102      1.2527      0.0799      1.0072      0.7393
 25      0.0000      0.3858      0.0000      0.0000      1.8284      2.3485      0.0000      0.0000      0.3318
 26      0.0000      1.4290      2.3208      3.0510      2.6004      0.1137      1.5198      1.6957      0.0000
 27      0.0000      0.3473      0.0000      0.2154      0.1265      1.4979      0.0000      0.0000      0.0000
 28      0.0000      0.3858      1.0805      1.5189      0.0000      0.0000      0.0000      0.1349      0.0000
 29      0.0000      1.2846      0.4931      0.0000      0.0000      0.4361      0.0000      0.0000      0.0000
 30      0.0000      1.6654      0.1663      0.0000      0.0000      0.3294      0.0000      0.5808      0.0000
 31      0.0000      1.8500      0.0000      0.0000      0.0000      0.5078      0.0000      0.0000      0.0000
 32      0.0000      1.0357      2.4512      0.0000      1.2429      0.0000      0.0000      2.8963      0.0000
 33      5.3360      4.0676      4.2915      4.3117      4.2331      3.6908      6.2253      3.3301      1.8540
 34      0.1512      0.3694      0.0000      0.0000      0.0000      0.0000      0.0000      0.5897      2.5053
 35      0.0000      0.3281      0.2208      0.0000      1.1198      0.0000      0.0000      0.0000      0.0000
 36      3.8535      2.4081      2.5843      3.6674      4.0959      2.3699      3.3047      4.0813      2.6248
 37      0.0000      0.2006      1.2280      0.0689      0.0000      0.0000      0.0000      0.0000      0.2272
 38      6.9793      2.6268      3.7586      2.4805      2.2600      2.0468      1.0499      2.9778      3.0647
 39      2.9447      0.8477      0.4554      0.7727      0.0000      0.1217      1.1605      0.9840      3.7795
 40      0.0000      0.2112      0.0000      1.0843      0.0000      0.0000      0.0000      0.0000      0.0000
 41      3.0184      1.0236      0.0000      5.1191      1.6408      1.8706      0.9099      0.0000      1.5573
 42      0.0000      0.2365      0.7549      0.0000      0.0000      0.3024      0.0000      0.5479      0.0000
 43      0.0000      0.2398      0.0000      0.0000      0.0000      0.0000      0.6835      0.0000      0.0000
 44      0.0000      0.2744      0.0000      0.0000      0.6778      0.0000      0.7589      0.0000      0.0000
 45      0.0000      0.5060      0.6698      0.0000      0.7691      0.0000      0.0000      0.0000      0.0000
 46      0.0011      1.7168      1.0540      1.6971      0.0780      0.0000      4.4393      1.1194      1.2515
