###################################################################
## OUTPUT of StarlightChains_v04.for    [Cid@UFSC - 01/Apr/2007] ##
###################################################################

## Some input info
SNhunt175.txt                            [arq_obs]
Base.CB07.vall.4m                        [arq_base]
Masks.EmLines.NEW.gm                     [arq_masks]
StCv04.C11.config                        [arq_config]
   66                                    [N_base]
    0                                    [N_YAV_components = # of components with extra extinction!]
    0                                    [i_FitPowerLaw (1/0 = Yes/No)]
-9.99                                    [alpha_PowerLaw]
CCM                                      [red_law_option]
 1.458241                                [q_norm = A(l_norm)/A(V)]

## (Re)Sampling Parameters
 3741.00                                 [l_ini (A)]
 7218.00                                 [l_fin (A)]
    1.00                                 [dl    (A)]     (OBS: dl_cushion =    50.00 A)

## Normalization info
 4020.00                                 [l_norm (A) - for base]
 4010.00                                 [llow_norm (A) - window for f_obs]
 4060.00                                 [lupp_norm (A) - window for f_obs]
3.594801E-18                             [fobs_norm (in input units)]

## S/N
 3691.00                                 [llow_SN (A) - window for S/N]
 7268.00                                 [lupp_SN (A) - window for S/N]
   3.741                                 [S/N in S/N window]
   2.284                                 [S/N in norm. window]
   6.264                                 [S/N_err in S/N window]
   3.825                                 [S/N_err in norm. window]
  1.0000                                 [fscale_chi2]

## etc...
    -2007470                             [idum_orig]
  2200                                   [NOl_eff]
  2097                                   [Nl_eff]
   103    NSIGMA                         [Ntot_cliped & clip_method]
   664020                                [Nglobal_steps]
   7                                     [N_chains]
  11                                     [NEX0s_base = N_base in EX0s-fits]
 0   0   1       47   2.0   1.371E+01    [Clip-Bug, RC-Crash & Burn-In warning-flags, n_censored_weights, wei_nsig_threshold & wei_limit]
    10     10.309      9.814      0.494  [idt_all, wdt_TotTime, wdt_UsrTime & wdt_SysTime (sec)]

## Synthesis Results - Best model ##

 6.94971E-01                             [chi2/Nl_eff]
    26.18624                             [adev (%)]

   130.00000                             [sum-of-x (%)]
 3.88170E-18                             [Flux_tot (units of input spectrum!)]
 4.68874E-13                             [Mini_tot (???)]
 2.32177E-13                             [Mcor_tot (???)]

-228.25                                  [v0_min  (km/s)]
 438.35                                  [vd_min  (km/s)]
-0.1382                                  [AV_min  (mag)]
 0.0000                                  [YAV_min (mag)]

# j     x_j(%)      Mini_j(%)     Mcor_j(%)     age_j(yr)     Z_j      (L/M)_j    YAV?  Mstars   component_j        a/Fe...       SSP_chi2r SSP_adev(%)   SSP_AV   SSP_x(%)
  1      9.0076     5.2434E-03    1.0589E-02    1.000000E+06  0.00400  1.094E-02    0   1.0000   age020_m42            0.0000     1.0719E+00    28.7358   3.9461   107.4840
  2      0.0000     0.0000E+00    0.0000E+00    3.160000E+06  0.00400  4.007E-02    0   0.9999   age045_m42            0.0000     1.0409E+00    30.1163   3.1456   119.3166
  3      0.0000     0.0000E+00    0.0000E+00    5.010000E+06  0.00400  2.539E-02    0   0.9488   age055_m42            0.0000     1.0546E+00    29.5386   3.4989   114.4088
  4      0.0000     0.0000E+00    0.0000E+00    6.610000E+06  0.00400  2.620E-02    0   0.9220   age061_m42            0.0000     1.0556E+00    30.3905   3.0634   120.0681
  5      0.0000     0.0000E+00    0.0000E+00    1.000000E+07  0.00400  1.322E-02    0   0.8862   age070_m42            0.0000     1.2119E+00    31.6276   2.7649   123.2366
  6      0.0000     0.0000E+00    0.0000E+00    1.445000E+07  0.00400  7.883E-03    0   0.8571   age078_m42            0.0000     1.1995E+00    31.0154   3.1160   118.7410
  7      0.0000     0.0000E+00    0.0000E+00    2.512000E+07  0.00400  5.251E-03    0   0.8174   age090_m42            0.0000     1.2436E+00    32.0441   2.6223   124.6343
  8      0.0000     0.0000E+00    0.0000E+00    4.000000E+07  0.00400  3.649E-03    0   0.7851   age104_m42            0.0000     1.2071E+00    32.1095   2.3807   126.6192
  9      0.0000     0.0000E+00    0.0000E+00    5.500000E+07  0.00400  3.098E-03    0   0.7629   age110_m42            0.0000     1.1251E+00    31.9314   2.5241   127.5338
 10      0.0000     0.0000E+00    0.0000E+00    1.015200E+08  0.00400  2.228E-03    0   0.7207   age116_m42            0.0000     1.0854E+00    31.8761   2.5374   128.3837
 11      0.0000     0.0000E+00    0.0000E+00    2.861200E+08  0.00400  1.093E-03    0   0.6648   age125_m42            0.0000     1.1378E+00    32.6428   1.9482   133.7579
 12      0.0000     0.0000E+00    0.0000E+00    5.088000E+08  0.00400  6.597E-04    0   0.6365   age130_m42            0.0000     1.0540E+00    32.2864   1.9253   135.9318
 13      0.0000     0.0000E+00    0.0000E+00    1.434000E+09  0.00400  2.132E-04    0   0.5798   age139_m42            0.0000     9.2726E-01    31.2532   0.9336   139.9904
 14      0.0000     0.0000E+00    0.0000E+00    4.250000E+09  0.00400  5.895E-05    0   0.5377   age158_m42            0.0000     8.0701E-01    28.2986   0.5563   130.5603
 15      0.0000     0.0000E+00    0.0000E+00    7.500000E+09  0.00400  3.510E-05    0   0.5212   age171_m42            0.0000     7.6624E-01    27.6102   0.3733   129.5961
 16      0.0000     0.0000E+00    0.0000E+00    1.300000E+10  0.00400  2.005E-05    0   0.5034   age193_m42            0.0000     7.3865E-01    27.0747   0.2147   128.7050
 17     70.9739     2.9638E+01    2.9729E+01    1.800000E+10  0.00400  1.525E-05    0   0.4967   age213_m42            0.0000     7.3880E-01    27.0191   0.1945   127.8927
 18      0.0000     0.0000E+00    0.0000E+00    1.000000E+06  0.00800  1.238E-02    0   1.0000   age020_m52            0.0000     1.0726E+00    28.7095   3.9438   107.6141
 19      0.0000     0.0000E+00    0.0000E+00    3.160000E+06  0.00800  3.074E-02    0   0.9966   age045_m52            0.0000     1.0627E+00    28.6972   3.8652   108.6676
 20      0.0000     0.0000E+00    0.0000E+00    5.010000E+06  0.00800  2.668E-02    0   0.9443   age055_m52            0.0000     1.0624E+00    29.3315   3.5921   112.7448
 21      0.0000     0.0000E+00    0.0000E+00    6.610000E+06  0.00800  2.136E-02    0   0.9177   age061_m52            0.0000     1.1634E+00    30.6305   2.2816   123.5062
 22      0.0000     0.0000E+00    0.0000E+00    1.000000E+07  0.00800  1.215E-02    0   0.8827   age070_m52            0.0000     1.2719E+00    31.6387   2.9582   122.1042
 23      0.0000     0.0000E+00    0.0000E+00    1.445000E+07  0.00800  8.717E-03    0   0.8552   age078_m52            0.0000     1.1979E+00    31.1472   3.0747   120.7771
 24      0.0000     0.0000E+00    0.0000E+00    2.512000E+07  0.00800  5.592E-03    0   0.8162   age090_m52            0.0000     1.2419E+00    32.1047   2.6844   126.3214
 25      0.0000     0.0000E+00    0.0000E+00    4.000000E+07  0.00800  3.896E-03    0   0.7841   age104_m52            0.0000     1.1937E+00    32.1474   2.5817   128.4400
 26      0.0000     0.0000E+00    0.0000E+00    1.015200E+08  0.00800  2.148E-03    0   0.7226   age116_m52            0.0000     1.1193E+00    31.8197   2.5136   128.8295
 27      0.0000     0.0000E+00    0.0000E+00    2.861200E+08  0.00800  9.925E-04    0   0.6683   age125_m52            0.0000     1.0534E+00    32.4229   1.9846   137.5955
 28      0.0000     0.0000E+00    0.0000E+00    9.047900E+08  0.00800  3.141E-04    0   0.6138   age135_m52            0.0000     9.2684E-01    30.8895   1.1707   144.7985
 29      0.0000     0.0000E+00    0.0000E+00    1.434000E+09  0.00800  1.719E-04    0   0.5853   age139_m52            0.0000     8.4119E-01    29.5451   0.6213   139.7345
 30      0.0000     0.0000E+00    0.0000E+00    2.500000E+09  0.00800  7.872E-05    0   0.5600   age150_m52            0.0000     7.6142E-01    27.8728   0.3777   134.4530
 31      0.0000     0.0000E+00    0.0000E+00    4.250000E+09  0.00800  4.336E-05    0   0.5426   age158_m52            0.0000     7.5706E-01    27.4739   0.3688   132.7320
 32      0.0000     0.0000E+00    0.0000E+00    6.250000E+09  0.00800  3.159E-05    0   0.5319   age166_m52            0.0000     7.2971E-01    26.9384   0.1631   133.2040
 33      0.0000     0.0000E+00    0.0000E+00    1.300000E+10  0.00800  1.361E-05    0   0.5073   age193_m52            0.0000     7.1889E-01    26.4766  -0.3138   133.1488
 34      0.0000     0.0000E+00    0.0000E+00    1.800000E+10  0.00800  9.886E-06    0   0.4990   age213_m52            0.0000     7.4344E-01    26.1895  -0.4217   132.7427
 35      0.0000     0.0000E+00    0.0000E+00    1.000000E+06  0.02000  1.544E-02    0   1.0000   age020_m62            0.0000     1.0759E+00    28.6427   3.9438   107.6430
 36      0.0000     0.0000E+00    0.0000E+00    3.160000E+06  0.02000  3.762E-02    0   0.9858   age045_m62            0.0000     1.0664E+00    28.5752   3.8841   108.5254
 37      0.0000     0.0000E+00    0.0000E+00    5.010000E+06  0.02000  3.296E-02    0   0.9342   age055_m62            0.0000     1.0328E+00    29.6642   3.4487   116.5020
 38      0.0000     0.0000E+00    0.0000E+00    8.710000E+06  0.02000  1.154E-02    0   0.8861   age067_m62            0.0000     1.8468E+00    33.9746   2.4145   124.4155
 39      0.0000     0.0000E+00    0.0000E+00    1.445000E+07  0.02000  7.663E-03    0   0.8472   age078_m62            0.0000     1.3923E+00    32.2728   2.5995   125.1376
 40      0.0000     0.0000E+00    0.0000E+00    2.512000E+07  0.02000  4.532E-03    0   0.8099   age090_m62            0.0000     1.4196E+00    32.6916   2.5831   125.3913
 41      0.0000     0.0000E+00    0.0000E+00    5.500000E+07  0.02000  2.733E-03    0   0.7595   age110_m62            0.0000     1.1897E+00    31.9169   2.5743   126.8444
 42      0.0000     0.0000E+00    0.0000E+00    1.609000E+08  0.02000  1.369E-03    0   0.6985   age120_m62            0.0000     1.1036E+00    32.3826   2.3702   133.4937
 43      0.0000     0.0000E+00    0.0000E+00    2.861200E+08  0.02000  9.013E-04    0   0.6714   age125_m62            0.0000     1.0681E+00    32.8433   2.0792   140.2545
 44      0.0000     0.0000E+00    0.0000E+00    5.088000E+08  0.02000  5.028E-04    0   0.6449   age130_m62            0.0000     9.8950E-01    31.9942   1.6873   145.3761
 45      0.0000     0.0000E+00    0.0000E+00    9.047900E+08  0.02000  2.428E-04    0   0.6179   age135_m62            0.0000     8.7091E-01    29.6064   1.1391   142.0204
 46      0.0000     0.0000E+00    0.0000E+00    1.434000E+09  0.02000  1.263E-04    0   0.5908   age139_m62            0.0000     8.0491E-01    28.2417   0.7184   138.3206
 47      0.0000     0.0000E+00    0.0000E+00    2.500000E+09  0.02000  5.985E-05    0   0.5673   age150_m62            0.0000     7.4585E-01    27.0664   0.3675   135.6432
 48      0.0001     9.8249E-06    1.0849E-05    4.250000E+09  0.02000  3.271E-05    0   0.5468   age158_m62            0.0000     7.3010E-01    26.5173   0.0553   135.2634
 49      0.0000     0.0000E+00    0.0000E+00    1.000000E+10  0.02000  1.360E-05    0   0.5167   age181_m62            0.0000     7.8749E-01    26.1362  -0.2995   135.5468
 50      0.0000     0.0000E+00    0.0000E+00    1.800000E+10  0.02000  7.124E-06    0   0.5013   age213_m62            0.0000     8.7041E-01    25.9024  -0.4989   134.1271
 51      0.0000     0.0000E+00    0.0000E+00    1.000000E+06  0.05000  2.592E-02    0   0.9998   age020_m72            0.0000     1.0906E+00    28.5005   3.9438   107.1753
 52      0.0000     0.0000E+00    0.0000E+00    3.160000E+06  0.05000  4.845E-02    0   0.9577   age045_m72            0.0000     1.0399E+00    28.8522   3.7487   111.0569
 53      0.0000     0.0000E+00    0.0000E+00    5.010000E+06  0.05000  3.072E-02    0   0.9147   age055_m72            0.0000     1.2432E+00    30.6234   3.2381   117.8797
 54      0.0000     0.0000E+00    0.0000E+00    6.610000E+06  0.05000  1.455E-02    0   0.8877   age061_m72            0.0000     2.2345E+00    35.2712   2.4981   124.5154
 55      0.0000     0.0000E+00    0.0000E+00    1.000000E+07  0.05000  9.074E-03    0   0.8524   age070_m72            0.0000     1.2374E+00    30.6152   3.4450   117.1006
 56      0.0000     0.0000E+00    0.0000E+00    2.512000E+07  0.05000  4.250E-03    0   0.7902   age090_m72            0.0000     1.2410E+00    31.6392   3.0835   122.3896
 57      0.0000     0.0000E+00    0.0000E+00    4.000000E+07  0.05000  3.087E-03    0   0.7618   age104_m72            0.0000     1.2754E+00    32.3096   2.8329   125.7692
 58      0.0000     0.0000E+00    0.0000E+00    1.015200E+08  0.05000  1.700E-03    0   0.7096   age116_m72            0.0000     1.1490E+00    32.5972   2.5204   132.4701
 59      0.0000     0.0000E+00    0.0000E+00    2.861200E+08  0.05000  7.384E-04    0   0.6633   age125_m72            0.0000     1.0208E+00    32.4854   1.9349   143.2676
 60      0.0000     0.0000E+00    0.0000E+00    5.088000E+08  0.05000  3.819E-04    0   0.6372   age130_m72            0.0000     9.1976E-01    30.6182   1.4589   144.5752
 61      0.0000     0.0000E+00    0.0000E+00    9.047900E+08  0.05000  1.676E-04    0   0.6110   age135_m72            0.0000     7.9318E-01    27.6727   0.8125   138.8989
 62      0.0000     0.0000E+00    0.0000E+00    1.434000E+09  0.05000  8.837E-05    0   0.5874   age139_m72            0.0000     7.4122E-01    26.8654   0.3610   138.1477
 63      0.0000     0.0000E+00    0.0000E+00    2.500000E+09  0.05000  4.233E-05    0   0.5598   age150_m72            0.0000     7.3736E-01    26.3146   0.0543   136.6044
 64      0.0062     2.7596E-03    2.9252E-03    6.250000E+09  0.05000  1.435E-05    0   0.5249   age166_m72            0.0000     8.0326E-01    26.0651  -0.3925   134.8615
 65      0.0000     0.0000E+00    0.0000E+00    1.300000E+10  0.05000  6.513E-06    0   0.5036   age193_m72            0.0000     9.2056E-01    25.7970  -0.6529   135.2482
 66     50.0122     7.0354E+01    7.0257E+01    1.800000E+10  0.05000  4.527E-06    0   0.4945   age213_m72            0.0000     9.9889E-01    25.5056  -0.7933   133.9025


## Synthesis Results - Average & Chains ##

# j      x_j: min, <> & last-chain-values for 1 ...  7 chains
  1      9.0076      0.2788      0.0000      0.0000      0.0000      2.0965      0.0000      0.0000      1.3587
  2      0.0000      0.1082      0.0000      0.0000      0.0000      0.0000      0.0000      1.7448      0.0000
  3      0.0000      0.0656      0.0000      0.0000      0.0000      0.0000      0.0000      0.0000      0.0000
  4      0.0000      0.0488      0.0000      0.0000      0.0000      0.0000      0.0000      0.0000      0.0000
  5      0.0000      0.0855      0.0000      0.0000      0.0000      0.0000      0.0000      0.0000      0.0000
  6      0.0000      0.1892      1.5968      0.0000      0.0000      0.0000      0.0000      0.0000      0.0000
  7      0.0000      0.1098      0.3036      0.0000      0.0000      0.0000      0.0000      0.0164      0.0000
  8      0.0000      0.1132      0.0797      0.1993      0.0000      0.3673      0.0000      0.0000      0.0000
  9      0.0000      0.0820      0.0000      0.0000      0.0000      0.0000      0.0000      0.0000      0.0000
 10      0.0000      0.0719      0.2373      0.0000      0.0000      0.0000      0.0000      0.0000      0.0000
 11      0.0000      0.1056      0.0000      0.0000      0.0000      0.0000      0.0000      0.0000      0.0000
 12      0.0000      0.0845      0.0000      0.0000      0.0000      0.0000      0.0000      0.0000      0.0000
 13      0.0000      0.1158      0.0000      0.0000      0.0000      0.0000      0.0000      0.0000      0.0000
 14      0.0000      1.7009      0.0000      0.0000      0.0000      0.0000      0.0000      0.2197      0.3042
 15      0.0000      5.2534     13.1491      6.2393      0.0000      5.8180      4.3479      6.8148      6.6351
 16      0.0000     14.0902     12.3156     32.1363      8.5164      3.5783     15.8568     11.1943     23.3687
 17     70.9739     31.3672     22.1338     33.6285     58.1859     34.3192     37.0406     31.7310     37.2524
 18      0.0000      0.6062      2.3340      0.6325      0.0000      0.0000      0.0000      0.0000      0.0000
 19      0.0000      0.3321      0.0000      0.0000      0.0000      0.2650      0.0000      0.0000      0.6068
 20      0.0000      0.1604      0.0000      0.0000      0.0000      1.1797      0.9170      1.3797      0.0000
 21      0.0000      0.2349      0.0000      0.0000      0.0000      2.2131      0.0000      0.0000      0.0000
 22      0.0000      0.1118      0.0000      0.0000      0.0000      0.0000      0.0000      0.0000      0.0000
 23      0.0000      0.1317      1.3183      0.0000      0.0000      0.0000      0.0000      0.0000      0.2248
 24      0.0000      0.1168      0.0000      0.0000      0.0000      0.0000      0.0000      0.0000      0.0000
 25      0.0000      0.0572      0.0000      0.0000      0.0000      0.0000      0.0000      0.0000      0.0000
 26      0.0000      0.0944      0.0000      0.0000      1.2942      0.0000      0.0000      0.0000      0.0000
 27      0.0000      0.0474      0.0000      0.0000      0.0000      0.0000      0.0000      0.0000      0.0000
 28      0.0000      0.0750      0.0000      0.0000      0.0000      0.0000      0.0000      0.0000      0.0000
 29      0.0000      0.3058      0.0000      0.0000      0.0000      0.0000      0.0000      0.0362      0.0000
 30      0.0000      1.6579      5.0519      0.0000      0.0000      0.0000      3.1293      0.3631      0.0000
 31      0.0000      3.5831      0.0000      0.0000      1.0226      6.2880      0.7946      6.9379      0.0000
 32      0.0000      4.9704      4.2427      0.0000      0.0000      4.5910      0.0000      2.5742      0.0000
 33      0.0000      1.1811      0.0000      0.0475      5.3329      0.6951      0.0000      0.3681      0.5000
 34      0.0000      1.3713      0.0000      4.6847      0.4707      3.5016      0.0000      0.0000      0.0000
 35      0.0000      0.3756      0.0000      0.0000      0.3922      0.0000      2.7745      1.6283      0.0000
 36      0.0000      0.3079      0.7871      1.1151      0.1620      0.0000      0.2674      0.0000      0.0000
 37      0.0000      0.1368      0.3035      0.0000      0.0432      0.0000      0.4104      0.0000      0.0000
 38      0.0000      0.1415      0.0000      0.0000      0.0000      0.0000      0.0000      0.0000      0.0000
 39      0.0000      0.1769      0.0000      1.2123      0.0000      0.0000      0.0000      0.0000      0.0000
 40      0.0000      0.1244      0.0000      0.0000      0.0000      0.9574      0.5749      0.0954      0.0000
 41      0.0000      0.1370      0.0000      0.0000      0.4192      0.0000      0.0000      0.0000      0.0000
 42      0.0000      0.0457      0.0000      0.0000      0.0000      0.0000      0.0000      0.0000      0.0000
 43      0.0000      0.0783      0.0000      0.0000      0.0000      0.0000      0.0000      0.0000      0.0000
 44      0.0000      0.0816      0.0000      0.0000      0.0000      0.0000      0.0000      0.0000      0.0000
 45      0.0000      0.1285      0.0000      0.0000      0.0000      0.0000      0.0000      0.0000      0.0000
 46      0.0000      0.5376      0.0000      0.2455      2.8422      0.0000      0.0000      0.0000      0.0000
