###################################################################
## OUTPUT of StarlightChains_v04.for    [Cid@UFSC - 01/Apr/2007] ##
###################################################################

## Some input info
KUG0210-078._50_43.txt                   [arq_obs]
Base.CB07.vall.4m                        [arq_base]
Masks.EmLines.NEW.gm                     [arq_masks]
StCv04.C11.config                        [arq_config]
   66                                    [N_base]
    0                                    [N_YAV_components = # of components with extra extinction!]
    0                                    [i_FitPowerLaw (1/0 = Yes/No)]
-9.99                                    [alpha_PowerLaw]
CCM                                      [red_law_option]
 1.458241                                [q_norm = A(l_norm)/A(V)]

## (Re)Sampling Parameters
 3741.00                                 [l_ini (A)]
 7218.00                                 [l_fin (A)]
    1.00                                 [dl    (A)]     (OBS: dl_cushion =    50.00 A)

## Normalization info
 4020.00                                 [l_norm (A) - for base]
 4010.00                                 [llow_norm (A) - window for f_obs]
 4060.00                                 [lupp_norm (A) - window for f_obs]
4.452705E-18                             [fobs_norm (in input units)]

## S/N
 3691.00                                 [llow_SN (A) - window for S/N]
 7268.00                                 [lupp_SN (A) - window for S/N]
   2.815                                 [S/N in S/N window]
   2.033                                 [S/N in norm. window]
   0.008                                 [S/N_err in S/N window]
   0.006                                 [S/N_err in norm. window]
  1.0000                                 [fscale_chi2]

## etc...
    -2007961                             [idum_orig]
  2366                                   [NOl_eff]
  2294                                   [Nl_eff]
    72    NSIGMA                         [Ntot_cliped & clip_method]
  5225010                                [Nglobal_steps]
   7                                     [N_chains]
   7                                     [NEX0s_base = N_base in EX0s-fits]
 0   0   1       72   2.0   1.639E+03    [Clip-Bug, RC-Crash & Burn-In warning-flags, n_censored_weights, wei_nsig_threshold & wei_limit]
    40     39.139     38.609      0.530  [idt_all, wdt_TotTime, wdt_UsrTime & wdt_SysTime (sec)]

## Synthesis Results - Best model ##

 1.18877E-05                             [chi2/Nl_eff]
    60.79014                             [adev (%)]

   130.00000                             [sum-of-x (%)]
 3.64843E-16                             [Flux_tot (units of input spectrum!)]
 2.16479E-14                             [Mini_tot (???)]
 2.16468E-14                             [Mcor_tot (???)]

-154.65                                  [v0_min  (km/s)]
   0.10                                  [vd_min  (km/s)]
 3.0851                                  [AV_min  (mag)]
 0.0000                                  [YAV_min (mag)]

# j     x_j(%)      Mini_j(%)     Mcor_j(%)     age_j(yr)     Z_j      (L/M)_j    YAV?  Mstars   component_j        a/Fe...       SSP_chi2r SSP_adev(%)   SSP_AV   SSP_x(%)
  1     24.1294     2.8594E+01    2.8596E+01    1.000000E+06  0.00400  1.094E-02    0   1.0000   age020_m42            0.0000     1.1000E-05    64.9132   2.7192   152.5579
  2      0.0000     0.0000E+00    0.0000E+00    3.160000E+06  0.00400  4.007E-02    0   0.9999   age045_m42            0.0000     1.1039E-05    65.4684   2.0481   159.1902
  3      0.0000     0.0000E+00    0.0000E+00    5.010000E+06  0.00400  2.539E-02    0   0.9488   age055_m42            0.0000     1.1082E-05    65.8492   2.3510   156.5914
  4      0.0000     0.0000E+00    0.0000E+00    6.610000E+06  0.00400  2.620E-02    0   0.9220   age061_m42            0.0000     1.1150E-05    65.7640   1.9874   158.8712
  5      0.0000     0.0000E+00    0.0000E+00    1.000000E+07  0.00400  1.322E-02    0   0.8862   age070_m42            0.0000     1.1631E-05    68.0182   1.7330   161.0900
  6      0.0000     0.0000E+00    0.0000E+00    1.445000E+07  0.00400  7.883E-03    0   0.8571   age078_m42            0.0000     1.1531E-05    67.6944   2.0413   158.2195
  7      0.0000     0.0000E+00    0.0000E+00    2.512000E+07  0.00400  5.251E-03    0   0.8174   age090_m42            0.0000     1.1737E-05    68.5394   1.6133   161.4609
  8      0.0000     0.0000E+00    0.0000E+00    4.000000E+07  0.00400  3.649E-03    0   0.7851   age104_m42            0.0000     1.1654E-05    67.7468   1.3895   162.4610
  9      0.0000     0.0000E+00    0.0000E+00    5.500000E+07  0.00400  3.098E-03    0   0.7629   age110_m42            0.0000     1.1495E-05    67.0678   1.5397   162.2945
 10      0.0000     0.0000E+00    0.0000E+00    1.015200E+08  0.00400  2.228E-03    0   0.7207   age116_m42            0.0000     1.1436E-05    66.6456   1.5625   162.2306
 11      0.0000     0.0000E+00    0.0000E+00    2.861200E+08  0.00400  1.093E-03    0   0.6648   age125_m42            0.0000     1.1634E-05    66.7496   1.0121   165.7706
 12      0.0000     0.0000E+00    0.0000E+00    5.088000E+08  0.00400  6.597E-04    0   0.6365   age130_m42            0.0000     1.1400E-05    65.5932   0.9985   167.1046
 13      0.0000     0.0000E+00    0.0000E+00    1.434000E+09  0.00400  2.132E-04    0   0.5798   age139_m42            0.0000     1.0861E-05    60.9418   0.0132   171.0966
 14      0.0000     0.0000E+00    0.0000E+00    4.250000E+09  0.00400  5.895E-05    0   0.5377   age158_m42            0.0000     1.0120E-05    53.2688  -0.4931   168.3589
 15      0.0000     0.0000E+00    0.0000E+00    7.500000E+09  0.00400  3.510E-05    0   0.5212   age171_m42            0.0000     9.9541E-06    50.4829  -0.6939   167.8458
 16      0.0000     0.0000E+00    0.0000E+00    1.300000E+10  0.00400  2.005E-05    0   0.5034   age193_m42            0.0000     9.8480E-06    47.8195  -0.8773   167.7301
 17      0.0000     0.0000E+00    0.0000E+00    1.800000E+10  0.00400  1.525E-05    0   0.4967   age213_m42            0.0000     9.8469E-06    48.0121  -0.8998   167.0630
 18      0.0000     0.0000E+00    0.0000E+00    1.000000E+06  0.00800  1.238E-02    0   1.0000   age020_m52            0.0000     1.0977E-05    64.9553   2.7155   152.8827
 19      0.0000     0.0000E+00    0.0000E+00    3.160000E+06  0.00800  3.074E-02    0   0.9966   age045_m52            0.0000     1.0948E-05    64.9110   2.6424   153.9981
 20      0.0000     0.0000E+00    0.0000E+00    5.010000E+06  0.00800  2.668E-02    0   0.9443   age055_m52            0.0000     1.1043E-05    65.3857   2.4264   155.7229
 21      0.0000     0.0000E+00    0.0000E+00    6.610000E+06  0.00800  2.136E-02    0   0.9177   age061_m52            0.0000     1.1219E-05    64.5280   1.2099   164.4411
 22      0.0000     0.0000E+00    0.0000E+00    1.000000E+07  0.00800  1.215E-02    0   0.8827   age070_m52            0.0000     1.1703E-05    68.5544   1.9084   161.1842
 23      0.0000     0.0000E+00    0.0000E+00    1.445000E+07  0.00800  8.717E-03    0   0.8552   age078_m52            0.0000     1.1517E-05    67.6786   2.0134   160.0425
 24      0.0000     0.0000E+00    0.0000E+00    2.512000E+07  0.00800  5.592E-03    0   0.8162   age090_m52            0.0000     1.1724E-05    68.4393   1.6777   163.2778
 25      0.0000     0.0000E+00    0.0000E+00    4.000000E+07  0.00800  3.896E-03    0   0.7841   age104_m52            0.0000     1.1602E-05    67.6450   1.5941   164.0781
 26      0.0000     0.0000E+00    0.0000E+00    1.015200E+08  0.00800  2.148E-03    0   0.7226   age116_m52            0.0000     1.1413E-05    66.1124   1.5306   163.6257
 27      0.0000     0.0000E+00    0.0000E+00    2.861200E+08  0.00800  9.925E-04    0   0.6683   age125_m52            0.0000     1.1406E-05    64.7131   1.0665   168.4442
 28      0.0000     0.0000E+00    0.0000E+00    9.047900E+08  0.00800  3.141E-04    0   0.6138   age135_m52            0.0000     1.0632E-05    56.9613   0.2379   176.7738
 29      0.0000     0.0000E+00    0.0000E+00    1.434000E+09  0.00800  1.719E-04    0   0.5853   age139_m52            0.0000     1.0387E-05    56.0344  -0.3667   174.6544
 30      0.0000     0.0000E+00    0.0000E+00    2.500000E+09  0.00800  7.872E-05    0   0.5600   age150_m52            0.0000     9.9387E-06    50.9152  -0.6718   172.0946
 31      0.0000     0.0000E+00    0.0000E+00    4.250000E+09  0.00800  4.336E-05    0   0.5426   age158_m52            0.0000     9.8525E-06    48.8170  -0.6984   171.1900
 32      0.0000     0.0000E+00    0.0000E+00    6.250000E+09  0.00800  3.159E-05    0   0.5319   age166_m52            0.0000     9.7289E-06    46.1885  -0.9156   171.7646
 33      0.0000     0.0000E+00    0.0000E+00    1.300000E+10  0.00800  1.361E-05    0   0.5073   age193_m52            0.0000     1.0255E-05    47.9911  -1.0000   153.9702
 34      0.0000     0.0000E+00    0.0000E+00    1.800000E+10  0.00800  9.886E-06    0   0.4990   age213_m52            0.0000     1.0591E-05    47.6706  -1.0000   148.2886
 35     54.3567     4.5641E+01    4.5643E+01    1.000000E+06  0.02000  1.544E-02    0   1.0000   age020_m62            0.0000     1.0962E-05    64.9350   2.7096   153.3654
 36      0.0000     0.0000E+00    0.0000E+00    3.160000E+06  0.02000  3.762E-02    0   0.9858   age045_m62            0.0000     1.0964E-05    64.9713   2.6497   154.6046
 37      0.0000     0.0000E+00    0.0000E+00    5.010000E+06  0.02000  3.296E-02    0   0.9342   age055_m62            0.0000     1.1050E-05    65.1546   2.3172   157.9944
 38      0.0000     0.0000E+00    0.0000E+00    8.710000E+06  0.02000  1.154E-02    0   0.8861   age067_m62            0.0000     1.2836E-05    73.2036   1.3858   165.1767
 39      0.0000     0.0000E+00    0.0000E+00    1.445000E+07  0.02000  7.663E-03    0   0.8472   age078_m62            0.0000     1.1944E-05    69.4129   1.5639   164.5026
 40      0.0000     0.0000E+00    0.0000E+00    2.512000E+07  0.02000  4.532E-03    0   0.8099   age090_m62            0.0000     1.2096E-05    70.1796   1.5648   163.4527
 41      0.0000     0.0000E+00    0.0000E+00    5.500000E+07  0.02000  2.733E-03    0   0.7595   age110_m62            0.0000     1.1613E-05    67.6452   1.5735   163.1569
 42      0.0000     0.0000E+00    0.0000E+00    1.609000E+08  0.02000  1.369E-03    0   0.6985   age120_m62            0.0000     1.1560E-05    66.5594   1.4279   166.0551
 43      0.0000     0.0000E+00    0.0000E+00    2.861200E+08  0.02000  9.013E-04    0   0.6714   age125_m62            0.0000     1.1503E-05    65.5356   1.1899   169.7489
 44      0.0000     0.0000E+00    0.0000E+00    5.088000E+08  0.02000  5.028E-04    0   0.6449   age130_m62            0.0000     1.0943E-05    61.1419   0.7915   175.0737
 45      0.0000     0.0000E+00    0.0000E+00    9.047900E+08  0.02000  2.428E-04    0   0.6179   age135_m62            0.0000     1.0256E-05    54.2310   0.1587   176.8707
 46      0.0000     0.0000E+00    0.0000E+00    1.434000E+09  0.02000  1.263E-04    0   0.5908   age139_m62            0.0000     9.9789E-06    50.7547  -0.3150   176.0455
 47      0.0000     0.0000E+00    0.0000E+00    2.500000E+09  0.02000  5.985E-05    0   0.5673   age150_m62            0.0000     9.7131E-06    47.1595  -0.7113   175.2190
 48      0.0000     0.0000E+00    0.0000E+00    4.250000E+09  0.02000  3.271E-05    0   0.5468   age158_m62            0.0000     9.6255E-06    45.2929  -1.0000   172.9068
 49      0.0000     0.0000E+00    0.0000E+00    1.000000E+10  0.02000  1.360E-05    0   0.5167   age181_m62            0.0000     1.0179E-05    46.1617  -1.0000   156.6506
 50      0.0000     0.0000E+00    0.0000E+00    1.800000E+10  0.02000  7.124E-06    0   0.5013   age213_m62            0.0000     1.1013E-05    47.4511  -1.0000   145.7208
 51     51.5139     2.5765E+01    2.5761E+01    1.000000E+06  0.05000  2.592E-02    0   0.9998   age020_m72            0.0000     1.0946E-05    64.8291   2.6977   153.7154
 52      0.0000     0.0000E+00    0.0000E+00    3.160000E+06  0.05000  4.845E-02    0   0.9577   age045_m72            0.0000     1.0960E-05    65.0204   2.5470   155.6272
 53      0.0000     0.0000E+00    0.0000E+00    5.010000E+06  0.05000  3.072E-02    0   0.9147   age055_m72            0.0000     1.1514E-05    67.8732   2.1071   160.4259
 54      0.0000     0.0000E+00    0.0000E+00    6.610000E+06  0.05000  1.455E-02    0   0.8877   age061_m72            0.0000     1.3590E-05    75.6869   1.4279   166.4678
 55      0.0000     0.0000E+00    0.0000E+00    1.000000E+07  0.05000  9.074E-03    0   0.8524   age070_m72            0.0000     1.1664E-05    68.6677   2.2824   159.8676
 56      0.0000     0.0000E+00    0.0000E+00    2.512000E+07  0.05000  4.250E-03    0   0.7902   age090_m72            0.0000     1.1750E-05    68.8676   2.0185   160.8673
 57      0.0000     0.0000E+00    0.0000E+00    4.000000E+07  0.05000  3.087E-03    0   0.7618   age104_m72            0.0000     1.1933E-05    69.3789   1.8107   162.3479
 58      0.0000     0.0000E+00    0.0000E+00    1.015200E+08  0.05000  1.700E-03    0   0.7096   age116_m72            0.0000     1.1735E-05    67.4204   1.5749   165.2232
 59      0.0000     0.0000E+00    0.0000E+00    2.861200E+08  0.05000  7.384E-04    0   0.6633   age125_m72            0.0000     1.1185E-05    63.6209   1.0473   172.4798
 60      0.0000     0.0000E+00    0.0000E+00    5.088000E+08  0.05000  3.819E-04    0   0.6372   age130_m72            0.0000     1.0472E-05    57.6871   0.5157   177.5437
 61      0.0000     0.0000E+00    0.0000E+00    9.047900E+08  0.05000  1.676E-04    0   0.6110   age135_m72            0.0000     9.7582E-06    48.6812  -0.2487   178.3104
 62      0.0000     0.0000E+00    0.0000E+00    1.434000E+09  0.05000  8.837E-05    0   0.5874   age139_m72            0.0000     9.6923E-06    45.7719  -0.7206   178.1401
 63      0.0000     0.0000E+00    0.0000E+00    2.500000E+09  0.05000  4.233E-05    0   0.5598   age150_m72            0.0000     9.5813E-06    44.1414  -1.0000   174.4134
 64      0.0000     0.0000E+00    0.0000E+00    6.250000E+09  0.05000  1.435E-05    0   0.5249   age166_m72            0.0000     1.0526E-05    47.1934  -1.0000   151.5896
 65      0.0000     0.0000E+00    0.0000E+00    1.300000E+10  0.05000  6.513E-06    0   0.5036   age193_m72            0.0000     1.2015E-05    48.7825  -1.0000   139.7031
 66      0.0000     0.0000E+00    0.0000E+00    1.800000E+10  0.05000  4.527E-06    0   0.4945   age213_m72            0.0000     1.3105E-05    49.9075  -1.0000   131.7928


## Synthesis Results - Average & Chains ##

# j      x_j: min, <> & last-chain-values for 1 ...  7 chains
  1     24.1294      0.7765      0.7351      0.2984      0.0000      0.1685      0.7495      0.0000      0.1426
  2      0.0000      1.1395      0.4999      0.0355      0.2963      0.4394      0.0000      0.2304      0.9128
  3      0.0000      1.0648      0.1328      0.0990      0.0000      0.7643      0.2019      0.0073      0.0000
  4      0.0000      1.1559      0.0612      0.0068      0.1319      1.9509      0.0220      0.3349      0.0546
  5      0.0000      0.8352      0.0937      0.0033      0.1566      0.0000      0.0000      0.0424      0.0000
  6      0.0000      1.1976      0.2723      0.0000      0.0323      1.2252      1.0585      0.0000      0.3069
  7      0.0000      1.1144      0.0000      0.0000      0.0000      0.1055      0.0296      0.0000      0.0866
  8      0.0000      1.0710      0.0444      0.0034      0.1194      1.2266      0.3971      0.1788      0.2971
  9      0.0000      0.7913      0.2273      0.0209      0.0000      0.0537      0.0000      0.1174      0.4667
 10      0.0000      1.2291      0.5640      0.0000      0.0761      0.8780      0.0725      0.0000      0.2778
 11      0.0000      5.6967      8.9316      8.8503      8.8876      8.0121      8.3200      8.8302      8.5170
 12      0.0000      1.1306      0.0937      0.0000      0.0313      0.1021      0.0000      0.0841      0.2879
 13      0.0000      1.2156      0.0000      0.0000      0.0000      1.1253      0.0000      0.2304      0.5246
 14      0.0000      0.9865      0.0009      0.0009      0.2988      2.1005      0.1354      0.1379      0.4290
 15      0.0000      0.9536      0.2904      0.0329      0.2362      0.0000      2.4051      0.0000      0.2735
 16      0.0000      1.1335      0.0577      0.0089      0.0000      0.0279      0.0757      0.0000      0.0000
 17      0.0000      0.7256      0.0266      0.0000      0.2168      0.1920      0.0000      0.1184      0.0237
 18      0.0000      0.8444      0.0462      0.0199      0.0000      0.0000      0.0000      0.1685      0.0864
 19      0.0000      1.0998      0.0960      0.0166      0.0606      0.6477      0.0000      0.0000      0.3887
 20      0.0000      0.9827      0.2154      0.0000      0.0429      0.0021      0.3077      0.6943      0.0311
 21      0.0000      0.6499      0.0619      0.0000      0.1784      0.2897      0.1196      0.1017      0.0000
 22      0.0000      1.0917      0.1513      0.0040      0.0000      0.0935      0.0000      0.8064      0.2772
 23      0.0000      0.9416      0.0843      0.0000      0.6963      0.0000      0.0000      0.8486      0.0837
 24      0.0000      1.1619      0.1935      0.0433      0.1591      1.2689      0.8841      0.3576      0.2142
 25      0.0000      1.0258      0.1820      0.0000      0.0296      1.0733      1.3674      0.3705      0.2709
 26      0.0000      1.0712      0.1480      0.0617      0.1980      0.8417      1.0312      0.1159      0.0000
 27      0.0000      0.8489      0.0277      0.0064      0.0441      0.2068      0.0000      0.3164      0.2195
 28      0.0000      1.0569      0.0417      0.0116      0.6589      1.0279      0.4048      0.0945      0.1469
 29      0.0000      1.1951      0.0629      0.0569      0.3253      0.7637      0.0000      0.0828      0.1034
 30      0.0000      1.0037      0.0000      0.0000      0.5299      0.0000      1.6437      0.0000      0.3579
 31      0.0000      1.1673      0.0184      0.0014      0.3858      0.6553      0.0000      0.0000      0.0429
 32      0.0000      0.9365      0.0000      0.0083      0.0000      0.0169      0.2443      0.4558      0.0534
 33      0.0000      0.8585      0.0000      0.0122      0.0000      0.5389      0.0000      0.0222      0.0562
 34      0.0000      1.0809      0.1328      0.0326      0.1199      0.0000      0.0000      0.0134      0.7198
 35     54.3567      8.8813     15.1859     17.7585     15.0120     11.8557     13.4535     14.7811     14.4883
 36      0.0000      0.6683      0.0000      0.0216      0.5484      0.1203      0.8587      0.0000      0.1577
 37      0.0000      1.0446      0.1499      0.0285      0.0181      0.0000      0.1983      0.6842      0.2243
 38      0.0000      0.8259      0.0000      0.0098      0.3649      0.5858      0.9743      0.0000      0.0000
 39      0.0000      1.1083      0.1262      0.0000      0.4369      0.2293      0.3634      0.2446      0.1695
 40      0.0000      1.1486      0.0030      0.0057      0.5228      0.4187      0.0000      0.0000      0.0000
 41      0.0000      0.9015      0.0493      0.0331      0.0000      0.0178      0.6663      0.0308      0.0000
 42      0.0000      1.0996      0.2325      0.0243      0.0300      0.6101      0.7601      0.1629      0.3235
 43      0.0000      1.0175      0.5607      0.0000      0.0000      0.5472      0.7545      0.1820      0.6765
 44      0.0000      1.3847      0.0000      0.0548      0.0000      0.0984      0.1698      0.9475      0.3795
 45      0.0000      1.1634      0.0000      0.0226      0.4077      0.3041      1.0376      0.0000      0.2483
 46      0.0000      0.9183      0.0000      0.0176      0.0146      0.2589      0.3359      0.2540      0.0000
