###################################################################
## OUTPUT of StarlightChains_v04.for    [Cid@UFSC - 01/Apr/2007] ##
###################################################################

## Some input info
KUG0210-078._44_44.txt                   [arq_obs]
Base.CB07.vall.4m                        [arq_base]
Masks.EmLines.NEW.gm                     [arq_masks]
StCv04.C11.config                        [arq_config]
   66                                    [N_base]
    0                                    [N_YAV_components = # of components with extra extinction!]
    0                                    [i_FitPowerLaw (1/0 = Yes/No)]
-9.99                                    [alpha_PowerLaw]
CCM                                      [red_law_option]
 1.458241                                [q_norm = A(l_norm)/A(V)]

## (Re)Sampling Parameters
 3741.00                                 [l_ini (A)]
 7218.00                                 [l_fin (A)]
    1.00                                 [dl    (A)]     (OBS: dl_cushion =    50.00 A)

## Normalization info
 4020.00                                 [l_norm (A) - for base]
 4010.00                                 [llow_norm (A) - window for f_obs]
 4060.00                                 [lupp_norm (A) - window for f_obs]
9.420301E-18                             [fobs_norm (in input units)]

## S/N
 3691.00                                 [llow_SN (A) - window for S/N]
 7268.00                                 [lupp_SN (A) - window for S/N]
   4.600                                 [S/N in S/N window]
   4.761                                 [S/N in norm. window]
   0.012                                 [S/N_err in S/N window]
   0.012                                 [S/N_err in norm. window]
  1.0000                                 [fscale_chi2]

## etc...
    -2007845                             [idum_orig]
  2421                                   [NOl_eff]
  2258                                   [Nl_eff]
   163    NSIGMA                         [Ntot_cliped & clip_method]
 10611720                                [Nglobal_steps]
   7                                     [N_chains]
  41                                     [NEX0s_base = N_base in EX0s-fits]
 0   0   1      163   2.0   5.273E+03    [Clip-Bug, RC-Crash & Burn-In warning-flags, n_censored_weights, wei_nsig_threshold & wei_limit]
   200    199.276    198.568      0.708  [idt_all, wdt_TotTime, wdt_UsrTime & wdt_SysTime (sec)]

## Synthesis Results - Best model ##

 6.57084E-06                             [chi2/Nl_eff]
    13.50334                             [adev (%)]

   104.73459                             [sum-of-x (%)]
 2.72865E-17                             [Flux_tot (units of input spectrum!)]
 1.29648E-13                             [Mini_tot (???)]
 7.53823E-14                             [Mcor_tot (???)]

 122.32                                  [v0_min  (km/s)]
 251.18                                  [vd_min  (km/s)]
 0.7574                                  [AV_min  (mag)]
 0.0000                                  [YAV_min (mag)]

# j     x_j(%)      Mini_j(%)     Mcor_j(%)     age_j(yr)     Z_j      (L/M)_j    YAV?  Mstars   component_j        a/Fe...       SSP_chi2r SSP_adev(%)   SSP_AV   SSP_x(%)
  1      0.0550     1.0109E-03    1.7386E-03    1.000000E+06  0.00400  1.094E-02    0   1.0000   age020_m42            0.0000     6.5118E-06    12.8753   2.9563    93.6138
  2      0.0000     0.0000E+00    0.0000E+00    3.160000E+06  0.00400  4.007E-02    0   0.9999   age045_m42            0.0000     6.5604E-06    13.2094   2.2889    97.5499
  3      2.1164     1.6750E-02    2.7333E-02    5.010000E+06  0.00400  2.539E-02    0   0.9488   age055_m42            0.0000     6.5270E-06    13.0619   2.5876    96.0801
  4      0.1916     1.4699E-03    2.3309E-03    6.610000E+06  0.00400  2.620E-02    0   0.9220   age061_m42            0.0000     6.5736E-06    13.2953   2.2240    97.4472
  5      0.0000     0.0000E+00    0.0000E+00    1.000000E+07  0.00400  1.322E-02    0   0.8862   age070_m42            0.0000     6.7419E-06    13.9531   1.9563    99.2424
  6      0.0000     0.0000E+00    0.0000E+00    1.445000E+07  0.00400  7.883E-03    0   0.8571   age078_m42            0.0000     6.6996E-06    13.7556   2.2638    97.5006
  7      0.0000     0.0000E+00    0.0000E+00    2.512000E+07  0.00400  5.251E-03    0   0.8174   age090_m42            0.0000     6.8002E-06    14.1503   1.8344    99.5389
  8      0.0000     8.1985E-07    1.1070E-06    4.000000E+07  0.00400  3.649E-03    0   0.7851   age104_m42            0.0000     6.7670E-06    14.1243   1.6128   100.0941
  9      0.0000     0.0000E+00    0.0000E+00    5.500000E+07  0.00400  3.098E-03    0   0.7629   age110_m42            0.0000     6.7329E-06    13.8762   1.7703    99.7553
 10      3.7734     3.4034E-01    4.2185E-01    1.015200E+08  0.00400  2.228E-03    0   0.7207   age116_m42            0.0000     6.7215E-06    13.7369   1.7974    99.5592
 11      0.0000     0.0000E+00    0.0000E+00    2.861200E+08  0.00400  1.093E-03    0   0.6648   age125_m42            0.0000     6.8636E-06    14.3037   1.2447   101.7551
 12      0.0019     5.7146E-04    6.2558E-04    5.088000E+08  0.00400  6.597E-04    0   0.6365   age130_m42            0.0000     6.7952E-06    13.9567   1.2396   102.2935
 13      0.0000     0.0000E+00    0.0000E+00    1.434000E+09  0.00400  2.132E-04    0   0.5798   age139_m42            0.0000     6.7348E-06    13.6076   0.2758   104.0532
 14      0.0000     0.0000E+00    0.0000E+00    4.250000E+09  0.00400  5.895E-05    0   0.5377   age158_m42            0.0000     6.8580E-06    12.9567  -0.2003   101.3715
 15      0.0688     3.9400E-01    3.5318E-01    7.500000E+09  0.00400  3.510E-05    0   0.5212   age171_m42            0.0000     7.0563E-06    12.8798  -0.3920   100.7308
 16      0.0000     0.0000E+00    0.0000E+00    1.300000E+10  0.00400  2.005E-05    0   0.5034   age193_m42            0.0000     7.2681E-06    12.8543  -0.5577   100.1248
 17      0.0000     0.0000E+00    0.0000E+00    1.800000E+10  0.00400  1.525E-05    0   0.4967   age213_m42            0.0000     7.2426E-06    12.8585  -0.5833    99.8149
 18      0.0000     0.0000E+00    0.0000E+00    1.000000E+06  0.00800  1.238E-02    0   1.0000   age020_m52            0.0000     6.5025E-06    12.8628   2.9512    93.8494
 19      0.0000     0.0000E+00    0.0000E+00    3.160000E+06  0.00800  3.074E-02    0   0.9966   age045_m52            0.0000     6.4870E-06    12.8488   2.8781    94.5511
 20      0.0000     0.0000E+00    0.0000E+00    5.010000E+06  0.00800  2.668E-02    0   0.9443   age055_m52            0.0000     6.4948E-06    13.0095   2.6616    95.6049
 21      0.0000     0.0000E+00    0.0000E+00    6.610000E+06  0.00800  2.136E-02    0   0.9177   age061_m52            0.0000     6.5656E-06    13.6650   1.4411   101.0793
 22      0.0000     0.0000E+00    0.0000E+00    1.000000E+07  0.00800  1.215E-02    0   0.8827   age070_m52            0.0000     6.7853E-06    14.1244   2.1263    99.4544
 23      0.0000     0.0000E+00    0.0000E+00    1.445000E+07  0.00800  8.717E-03    0   0.8552   age078_m52            0.0000     6.6846E-06    13.7924   2.2350    98.6385
 24      0.0000     0.0000E+00    0.0000E+00    2.512000E+07  0.00800  5.592E-03    0   0.8162   age090_m52            0.0000     6.8013E-06    14.2229   1.8979   100.6936
 25      0.0000     0.0000E+00    0.0000E+00    4.000000E+07  0.00800  3.896E-03    0   0.7841   age104_m52            0.0000     6.7698E-06    14.1841   1.8180   101.0431
 26      0.0000     0.0000E+00    0.0000E+00    1.015200E+08  0.00800  2.148E-03    0   0.7226   age116_m52            0.0000     6.6727E-06    13.8912   1.7618   100.5133
 27      0.0000     0.0000E+00    0.0000E+00    2.861200E+08  0.00800  9.925E-04    0   0.6683   age125_m52            0.0000     6.7706E-06    13.9599   1.3045   103.2386
 28      0.9370     5.9943E-01    6.3280E-01    9.047900E+08  0.00800  3.141E-04    0   0.6138   age135_m52            0.0000     6.9136E-06    13.6320   0.5038   107.4156
 29      0.0000     0.0000E+00    0.0000E+00    1.434000E+09  0.00800  1.719E-04    0   0.5853   age139_m52            0.0000     6.8111E-06    13.3885  -0.0880   105.7316
 30      2.8416     7.2539E+00    6.9865E+00    2.500000E+09  0.00800  7.872E-05    0   0.5600   age150_m52            0.0000     7.0261E-06    12.8927  -0.3685   103.3318
 31      5.3689     2.4882E+01    2.3220E+01    4.250000E+09  0.00800  4.336E-05    0   0.5426   age158_m52            0.0000     7.1644E-06    12.8943  -0.3889   102.5492
 32      0.0000     0.0000E+00    0.0000E+00    6.250000E+09  0.00800  3.159E-05    0   0.5319   age166_m52            0.0000     7.4364E-06    12.8470  -0.5867   102.2412
 33      0.0000     0.0000E+00    0.0000E+00    1.300000E+10  0.00800  1.361E-05    0   0.5073   age193_m52            0.0000     7.7939E-06    12.8941  -1.0000    99.8613
 34      0.0000     0.0000E+00    0.0000E+00    1.800000E+10  0.00800  9.886E-06    0   0.4990   age213_m52            0.0000     8.1996E-06    13.2551  -1.0000    96.2333
 35      0.0000     0.0000E+00    0.0000E+00    1.000000E+06  0.02000  1.544E-02    0   1.0000   age020_m62            0.0000     6.4990E-06    12.8551   2.9453    94.1592
 36      0.0000     0.0000E+00    0.0000E+00    3.160000E+06  0.02000  3.762E-02    0   0.9858   age045_m62            0.0000     6.4920E-06    12.8450   2.8832    95.0376
 37      0.0000     0.0000E+00    0.0000E+00    5.010000E+06  0.02000  3.296E-02    0   0.9342   age055_m62            0.0000     6.5062E-06    13.0426   2.5557    96.9007
 38      0.0000     0.0000E+00    0.0000E+00    8.710000E+06  0.02000  1.154E-02    0   0.8861   age067_m62            0.0000     7.5038E-06    16.0112   1.5721   103.0626
 39      8.3096     2.1791E-01    3.1751E-01    1.445000E+07  0.02000  7.663E-03    0   0.8472   age078_m62            0.0000     6.9459E-06    14.7387   1.7717   101.8716
 40      0.0000     0.0000E+00    0.0000E+00    2.512000E+07  0.02000  4.532E-03    0   0.8099   age090_m62            0.0000     7.0357E-06    14.9512   1.7731   101.1819
 41      0.3565     2.6212E-02    3.4239E-02    5.500000E+07  0.02000  2.733E-03    0   0.7595   age110_m62            0.0000     6.7320E-06    14.0878   1.7983   100.4476
 42      0.0000     0.0000E+00    0.0000E+00    1.609000E+08  0.02000  1.369E-03    0   0.6985   age120_m62            0.0000     6.7310E-06    13.9345   1.6608   101.9766
 43      0.0000     0.0000E+00    0.0000E+00    2.861200E+08  0.02000  9.013E-04    0   0.6714   age125_m62            0.0000     6.7577E-06    13.8753   1.4228   104.2757
 44      0.2014     8.0505E-02    8.9291E-02    5.088000E+08  0.02000  5.028E-04    0   0.6449   age130_m62            0.0000     6.7848E-06    13.5294   1.0405   107.0533
 45      0.0000     0.0000E+00    0.0000E+00    9.047900E+08  0.02000  2.428E-04    0   0.6179   age135_m62            0.0000     6.8720E-06    13.1712   0.4373   107.0449
 46      0.0000     0.0000E+00    0.0000E+00    1.434000E+09  0.02000  1.263E-04    0   0.5908   age139_m62            0.0000     7.0312E-06    12.9753  -0.0161   105.8450
 47      0.0000     0.0000E+00    0.0000E+00    2.500000E+09  0.02000  5.985E-05    0   0.5673   age150_m62            0.0000     7.3170E-06    12.7987  -0.3901   104.5946
 48      0.0000     0.0000E+00    0.0000E+00    4.250000E+09  0.02000  3.271E-05    0   0.5468   age158_m62            0.0000     7.6497E-06    12.7488  -0.6912   103.3828
 49      0.0000     0.0000E+00    0.0000E+00    1.000000E+10  0.02000  1.360E-05    0   0.5167   age181_m62            0.0000     8.1758E-06    12.8481  -1.0000   101.6123
 50      0.4194     1.1830E+01    1.0199E+01    1.800000E+10  0.02000  7.124E-06    0   0.5013   age213_m62            0.0000     8.9130E-06    13.6028  -1.0000    94.7362
 51      3.3593     2.6044E-02    4.4783E-02    1.000000E+06  0.05000  2.592E-02    0   0.9998   age020_m72            0.0000     6.4801E-06    12.8360   2.9306    94.4709
 52      2.5224     1.0462E-02    1.7232E-02    3.160000E+06  0.05000  4.845E-02    0   0.9577   age045_m72            0.0000     6.4739E-06    12.8641   2.7849    95.5062
 53      0.0000     0.0000E+00    0.0000E+00    5.010000E+06  0.05000  3.072E-02    0   0.9147   age055_m72            0.0000     6.7582E-06    14.0706   2.3259    98.9951
 54      0.0000     0.0000E+00    0.0000E+00    6.610000E+06  0.05000  1.455E-02    0   0.8877   age061_m72            0.0000     8.4051E-06    17.8439   1.5964   104.4275
 55     18.2587     4.0436E-01    5.9279E-01    1.000000E+07  0.05000  9.074E-03    0   0.8524   age070_m72            0.0000     7.0142E-06    14.5754   2.4981    98.7238
 56      2.3054     1.0900E-01    1.4814E-01    2.512000E+07  0.05000  4.250E-03    0   0.7902   age090_m72            0.0000     6.9306E-06    14.5367   2.2373    99.2050
 57      0.0000     0.0000E+00    0.0000E+00    4.000000E+07  0.05000  3.087E-03    0   0.7618   age104_m72            0.0000     7.0128E-06    14.8220   2.0258   100.2242
 58      0.0000     0.0000E+00    0.0000E+00    1.015200E+08  0.05000  1.700E-03    0   0.7096   age116_m72            0.0000     6.8235E-06    14.2222   1.8005   101.6853
 59      0.2341     6.3721E-02    7.2692E-02    2.861200E+08  0.05000  7.384E-04    0   0.6633   age125_m72            0.0000     6.7292E-06    13.6903   1.2876   105.7411
 60     15.3086     8.0553E+00    8.8278E+00    5.088000E+08  0.05000  3.819E-04    0   0.6372   age130_m72            0.0000     6.7357E-06    13.2082   0.7805   108.0012
 61     38.1046     4.5687E+01    4.8010E+01    9.047900E+08  0.05000  1.676E-04    0   0.6110   age135_m72            0.0000     7.1408E-06    12.8063   0.0645   106.7917
 62      0.0000     0.0000E+00    0.0000E+00    1.434000E+09  0.05000  8.837E-05    0   0.5874   age139_m72            0.0000     7.4515E-06    12.8241  -0.3932   106.1722
 63      0.0000     0.0000E+00    0.0000E+00    2.500000E+09  0.05000  4.233E-05    0   0.5598   age150_m72            0.0000     7.7678E-06    12.7584  -0.6986   104.4852
 64      0.0000     0.0000E+00    0.0000E+00    6.250000E+09  0.05000  1.435E-05    0   0.5249   age166_m72            0.0000     8.3381E-06    13.0427  -1.0000    98.4806
 65      0.0000     0.0000E+00    0.0000E+00    1.300000E+10  0.05000  6.513E-06    0   0.5036   age193_m72            0.0000     9.7720E-06    14.9209  -1.0000    91.0905
 66      0.0000     0.0000E+00    0.0000E+00    1.800000E+10  0.05000  4.527E-06    0   0.4945   age213_m72            0.0000     1.1069E-05    16.4813  -1.0000    86.0872


## Synthesis Results - Average & Chains ##

# j      x_j: min, <> & last-chain-values for 1 ...  7 chains
  1      0.0550     36.3949     30.7428     34.1076     39.4126     41.8042     25.1298     26.8304     40.2765
  2      0.0000      0.1997      0.7336      1.2745      0.0260      0.0044      0.1157      1.4663      0.1231
  3      2.1164      0.2928      0.9311      0.1511      0.1354      0.1302      0.7370      0.9840      0.1684
  4      0.1916      0.2909      1.2256      0.5767      0.1061      0.0786      0.5833      1.0103      0.0000
  5      0.0000      0.2368      0.0527      0.1467      0.0120      0.0257      1.2149      1.4669      0.0524
  6      0.0000      0.1824      0.0000      0.0000      0.2048      0.0049      0.8131      0.0727      0.1301
  7      0.0000      0.2646      1.0283      0.2436      0.1847      0.0468      0.0000      0.8340      0.0198
  8      0.0000      0.2283      0.4065      0.2018      0.2323      0.0391      0.0096      1.1982      0.0055
  9      0.0000      0.2488      0.0023      0.0128      0.0000      0.1116      0.9199      0.1254      0.3648
 10      3.7734      0.2982      0.5594      0.0000      0.0000      0.1228      2.5058      0.9616      0.0000
 11      0.0000      0.2581      0.3628      0.0000      0.1005      0.0258      0.0000      0.0000      0.0930
 12      0.0019      0.2044      0.2831      0.0000      0.1064      0.0495      0.3888      0.4728      0.0000
 13      0.0000      0.2364      0.3329      0.1619      0.0000      0.0000      0.0000      1.7023      0.1377
 14      0.0000      0.2851      1.0468      0.0000      0.1190      0.1277      1.9573      0.0000      0.3448
 15      0.0688      0.2949      0.0966      0.0620      0.0010      0.0000      1.0635      0.3915      0.0322
 16      0.0000      0.2517      0.0000      0.3302      0.0000      0.0619      0.0850      0.6849      0.0668
 17      0.0000      0.2429      0.2205      0.0000      0.0488      0.0166      0.1335      0.9102      0.0506
 18      0.0000     23.1137     22.6602     19.9232     25.1932     25.8796     16.1424     14.2075     25.3620
 19      0.0000      0.1952      1.5599      0.0105      0.0244      0.1915      0.0691      0.0000      0.1585
 20      0.0000      0.1787      0.3590      0.0000      0.2582      0.0544      0.0000      0.1419      0.0379
 21      0.0000      0.1760      0.1819      0.5759      0.0888      0.1665      0.0000      0.0000      0.0000
 22      0.0000      0.2259      0.9280      0.8094      0.0674      0.0000      0.2099      0.0000      0.0711
 23      0.0000      0.1812      0.7344      0.0000      0.1211      0.0129      0.0000      1.3298      0.0606
 24      0.0000      0.2118      0.0000      0.2119      0.1031      0.1036      1.5276      1.2476      0.1086
 25      0.0000      0.2913      0.5541      0.3777      0.0999      0.1992      1.9572      0.0000      0.0000
 26      0.0000      0.2707      0.0000      0.7809      0.1889      0.0570      0.3008      3.4407      0.0829
 27      0.0000      0.2298      0.0000      0.4541      0.0000      0.1192      0.4612      0.3118      0.0000
 28      0.9370      0.2389      0.2691      0.0233      0.3333      0.0330      1.5605      0.6868      0.0000
 29      0.0000      0.2683      0.1173      1.0357      0.1343      0.0398      0.3314      1.3526      0.0949
 30      2.8416      0.1935      0.4709      0.0242      0.1097      0.0000      0.3378      0.4730      0.0821
 31      5.3689      0.1857      0.4308      0.1416      0.0689      0.0000      0.3300      0.3549      0.1237
 32      0.0000      0.1831      0.7678      0.6712      0.0490      0.0948      0.7714      0.0000      0.0374
 33      0.0000      0.2657      0.8183      0.4863      0.1427      0.0196      0.8882      0.1873      0.0257
 34      0.0000      0.2290      0.7674      0.0636      0.1736      0.0646      0.3487      0.0798      0.0972
 35      0.0000      0.5402      0.2168      0.1234      0.6102      0.4364      0.6918      0.3988      0.5210
 36      0.0000      0.2696      0.1221      0.0000      0.1095      0.0965      0.7697      0.0000      0.0943
 37      0.0000      0.2367      0.7383      0.6610      0.1932      0.0000      0.0000      0.0694      0.1028
 38      0.0000      6.1488      5.2910      5.9344      6.5418      6.8004      4.2356      5.5845      6.6452
 39      8.3096      0.1520      0.0000      0.5367      0.0584      0.0657      0.6536      0.6369      0.0543
 40      0.0000      0.1674      0.1921      0.2337      0.1377      0.1163      0.0000      0.2415      0.1185
 41      0.3565      0.2544      0.0000      1.2917      0.3448      0.0838      0.5374      0.4036      0.0565
 42      0.0000      0.2143      1.1967      0.0000      0.0000      0.0000      0.4077      0.0188      0.0560
 43      0.0000      0.2493      0.0610      1.5454      0.0066      0.1379      0.8691      0.0000      0.1027
 44      0.2014      0.1859      0.5961      0.0000      0.0396      0.0426      0.2352      0.3780      0.0708
 45      0.0000      0.2372      0.0000      0.1137      0.3579      0.0000      0.7521      0.8726      0.0000
 46      0.0000      0.1968      0.5555      0.1734      0.1482      0.0138      1.6616      0.1955      0.1923
