###################################################################
## OUTPUT of StarlightChains_v04.for    [Cid@UFSC - 01/Apr/2007] ##
###################################################################

## Some input info
KUG0210-078._36_34.txt                   [arq_obs]
Base.CB07.vall.4m                        [arq_base]
Masks.EmLines.NEW.gm                     [arq_masks]
StCv04.C11.config                        [arq_config]
   66                                    [N_base]
    0                                    [N_YAV_components = # of components with extra extinction!]
    0                                    [i_FitPowerLaw (1/0 = Yes/No)]
-9.99                                    [alpha_PowerLaw]
CCM                                      [red_law_option]
 1.458241                                [q_norm = A(l_norm)/A(V)]

## (Re)Sampling Parameters
 3741.00                                 [l_ini (A)]
 7218.00                                 [l_fin (A)]
    1.00                                 [dl    (A)]     (OBS: dl_cushion =    50.00 A)

## Normalization info
 4020.00                                 [l_norm (A) - for base]
 4010.00                                 [llow_norm (A) - window for f_obs]
 4060.00                                 [lupp_norm (A) - window for f_obs]
2.782030E-17                             [fobs_norm (in input units)]

## S/N
 3691.00                                 [llow_SN (A) - window for S/N]
 7268.00                                 [lupp_SN (A) - window for S/N]
   4.390                                 [S/N in S/N window]
   3.374                                 [S/N in norm. window]
   0.044                                 [S/N_err in S/N window]
   0.034                                 [S/N_err in norm. window]
  1.0000                                 [fscale_chi2]

## etc...
    -2007598                             [idum_orig]
  2432                                   [NOl_eff]
  2416                                   [Nl_eff]
    16    NSIGMA                         [Ntot_cliped & clip_method]
  2732310                                [Nglobal_steps]
   7                                     [N_chains]
  27                                     [NEX0s_base = N_base in EX0s-fits]
 0   0   1       16   2.0   4.609E+03    [Clip-Bug, RC-Crash & Burn-In warning-flags, n_censored_weights, wei_nsig_threshold & wei_limit]
    38     38.171     37.505      0.666  [idt_all, wdt_TotTime, wdt_UsrTime & wdt_SysTime (sec)]

## Synthesis Results - Best model ##

 1.63431E-05                             [chi2/Nl_eff]
     6.75178                             [adev (%)]

   110.48719                             [sum-of-x (%)]
 1.66078E-17                             [Flux_tot (units of input spectrum!)]
 1.73416E-12                             [Mini_tot (???)]
 8.78097E-13                             [Mcor_tot (???)]

 -92.99                                  [v0_min  (km/s)]
 197.24                                  [vd_min  (km/s)]
-0.4584                                  [AV_min  (mag)]
 0.0000                                  [YAV_min (mag)]

# j     x_j(%)      Mini_j(%)     Mcor_j(%)     age_j(yr)     Z_j      (L/M)_j    YAV?  Mstars   component_j        a/Fe...       SSP_chi2r SSP_adev(%)   SSP_AV   SSP_x(%)
  1      0.0000     0.0000E+00    0.0000E+00    1.000000E+06  0.00400  1.094E-02    0   1.0000   age020_m42            0.0000     5.9235E-05    14.0445   3.8159    91.3931
  2      0.0000     0.0000E+00    0.0000E+00    3.160000E+06  0.00400  4.007E-02    0   0.9999   age045_m42            0.0000     5.1080E-05    13.2938   3.0776    98.0225
  3      0.0000     0.0000E+00    0.0000E+00    5.010000E+06  0.00400  2.539E-02    0   0.9488   age055_m42            0.0000     5.5171E-05    13.6994   3.4043    95.4109
  4      0.0000     0.0000E+00    0.0000E+00    6.610000E+06  0.00400  2.620E-02    0   0.9220   age061_m42            0.0000     5.2260E-05    13.4544   3.0037    98.1859
  5      0.0000     0.0000E+00    0.0000E+00    1.000000E+07  0.00400  1.322E-02    0   0.8862   age070_m42            0.0000     6.2932E-05    15.1557   2.7333    99.4982
  6      0.0000     0.0000E+00    0.0000E+00    1.445000E+07  0.00400  7.883E-03    0   0.8571   age078_m42            0.0000     6.4099E-05    15.2096   3.0616    96.9892
  7      0.0000     0.0000E+00    0.0000E+00    2.512000E+07  0.00400  5.251E-03    0   0.8174   age090_m42            0.0000     6.4752E-05    15.4365   2.6045    99.9461
  8      0.0000     0.0000E+00    0.0000E+00    4.000000E+07  0.00400  3.649E-03    0   0.7851   age104_m42            0.0000     6.1505E-05    15.0631   2.3733   100.9770
  9      0.0000     0.0000E+00    0.0000E+00    5.500000E+07  0.00400  3.098E-03    0   0.7629   age110_m42            0.0000     5.5950E-05    14.2065   2.5196   101.3897
 10      0.0000     0.0000E+00    0.0000E+00    1.015200E+08  0.00400  2.228E-03    0   0.7207   age116_m42            0.0000     5.2782E-05    13.6705   2.5351   101.8343
 11      0.0000     0.0000E+00    0.0000E+00    2.861200E+08  0.00400  1.093E-03    0   0.6648   age125_m42            0.0000     5.6265E-05    14.3079   1.9577   104.8309
 12      0.0000     0.0000E+00    0.0000E+00    5.088000E+08  0.00400  6.597E-04    0   0.6365   age130_m42            0.0000     4.9574E-05    13.2933   1.9417   106.1723
 13      0.0000     0.0000E+00    0.0000E+00    1.434000E+09  0.00400  2.132E-04    0   0.5798   age139_m42            0.0000     3.8756E-05    11.9757   0.9665   108.7313
 14      8.5720     1.2604E+00    1.3384E+00    4.250000E+09  0.00400  5.895E-05    0   0.5377   age158_m42            0.0000     3.0432E-05    10.5336   0.5200   105.1416
 15      0.0000     0.0000E+00    0.0000E+00    7.500000E+09  0.00400  3.510E-05    0   0.5212   age171_m42            0.0000     2.7761E-05    10.0277   0.3266   104.7419
 16      0.0000     0.0000E+00    0.0000E+00    1.300000E+10  0.00400  2.005E-05    0   0.5034   age193_m42            0.0000     2.5926E-05     9.5883   0.1556   104.4436
 17      0.0000     0.0000E+00    0.0000E+00    1.800000E+10  0.00400  1.525E-05    0   0.4967   age213_m42            0.0000     2.6675E-05     9.7515   0.1341   103.9118
 18      0.0000     0.0000E+00    0.0000E+00    1.000000E+06  0.00800  1.238E-02    0   1.0000   age020_m52            0.0000     5.9205E-05    14.0355   3.8123    91.5777
 19      0.0000     0.0000E+00    0.0000E+00    3.160000E+06  0.00800  3.074E-02    0   0.9966   age045_m52            0.0000     5.8179E-05    13.9093   3.7346    92.4512
 20      0.0000     0.0000E+00    0.0000E+00    5.010000E+06  0.00800  2.668E-02    0   0.9443   age055_m52            0.0000     5.6403E-05    13.8443   3.4893    94.4907
 21      0.0000     0.0000E+00    0.0000E+00    6.610000E+06  0.00800  2.136E-02    0   0.9177   age061_m52            0.0000     5.7656E-05    14.6878   2.2336   100.8014
 22      0.0000     0.0000E+00    0.0000E+00    1.000000E+07  0.00800  1.215E-02    0   0.8827   age070_m52            0.0000     6.8171E-05    15.8393   2.9142    99.0675
 23      0.0000     0.0000E+00    0.0000E+00    1.445000E+07  0.00800  8.717E-03    0   0.8552   age078_m52            0.0000     6.3547E-05    15.1767   3.0266    98.3440
 24      0.0000     0.0000E+00    0.0000E+00    2.512000E+07  0.00800  5.592E-03    0   0.8162   age090_m52            0.0000     6.5305E-05    15.5080   2.6652   101.1776
 25      0.0000     0.0000E+00    0.0000E+00    4.000000E+07  0.00800  3.896E-03    0   0.7841   age104_m52            0.0000     6.1513E-05    15.0276   2.5721   102.2082
 26      0.0000     0.0000E+00    0.0000E+00    1.015200E+08  0.00800  2.148E-03    0   0.7226   age116_m52            0.0000     5.4915E-05    14.0803   2.5040   102.4725
 27      0.0000     0.0000E+00    0.0000E+00    2.861200E+08  0.00800  9.925E-04    0   0.6683   age125_m52            0.0000     4.9234E-05    13.2149   2.0052   107.2022
 28      0.0000     0.0000E+00    0.0000E+00    9.047900E+08  0.00800  3.141E-04    0   0.6138   age135_m52            0.0000     3.6433E-05    11.3906   1.1885   112.6868
 29      0.0000     0.0000E+00    0.0000E+00    1.434000E+09  0.00800  1.719E-04    0   0.5853   age139_m52            0.0000     3.3135E-05    11.0554   0.6078   110.4762
 30      0.0000     0.0000E+00    0.0000E+00    2.500000E+09  0.00800  7.872E-05    0   0.5600   age150_m52            0.0000     2.5345E-05     9.5593   0.3356   108.1267
 31      0.0000     0.0000E+00    0.0000E+00    4.250000E+09  0.00800  4.336E-05    0   0.5426   age158_m52            0.0000     2.5423E-05     9.5734   0.3201   107.1491
 32      0.0000     0.0000E+00    0.0000E+00    6.250000E+09  0.00800  3.159E-05    0   0.5319   age166_m52            0.0000     2.2260E-05     8.8029   0.1086   107.6584
 33      0.0000     0.0000E+00    0.0000E+00    1.300000E+10  0.00800  1.361E-05    0   0.5073   age193_m52            0.0000     1.9353E-05     7.8825  -0.3704   107.5738
 34      0.0000     0.0000E+00    0.0000E+00    1.800000E+10  0.00800  9.886E-06    0   0.4990   age213_m52            0.0000     1.7803E-05     7.2850  -0.4896   107.6205
 35      0.1523     8.5478E-05    1.6881E-04    1.000000E+06  0.02000  1.544E-02    0   1.0000   age020_m62            0.0000     5.9502E-05    14.0572   3.8086    91.7862
 36      0.0000     0.0000E+00    0.0000E+00    3.160000E+06  0.02000  3.762E-02    0   0.9858   age045_m62            0.0000     5.9166E-05    14.0021   3.7465    92.6423
 37      0.0000     0.0000E+00    0.0000E+00    5.010000E+06  0.02000  3.296E-02    0   0.9342   age055_m62            0.0000     5.2509E-05    13.3176   3.3600    96.7830
 38      0.0000     0.0000E+00    0.0000E+00    8.710000E+06  0.02000  1.154E-02    0   0.8861   age067_m62            0.0000     1.0120E-04    19.7640   2.3793   100.4051
 39      0.0000     0.0000E+00    0.0000E+00    1.445000E+07  0.02000  7.663E-03    0   0.8472   age078_m62            0.0000     7.6273E-05    16.9794   2.5588   101.0386
 40      0.0000     0.0000E+00    0.0000E+00    2.512000E+07  0.02000  4.532E-03    0   0.8099   age090_m62            0.0000     7.8565E-05    17.1995   2.5492   100.7157
 41      0.0000     0.0000E+00    0.0000E+00    5.500000E+07  0.02000  2.733E-03    0   0.7595   age110_m62            0.0000     6.1722E-05    15.0307   2.5557   101.4529
 42      0.0000     0.0000E+00    0.0000E+00    1.609000E+08  0.02000  1.369E-03    0   0.6985   age120_m62            0.0000     5.3481E-05    13.7932   2.3807   104.9464
 43      0.0000     0.0000E+00    0.0000E+00    2.861200E+08  0.02000  9.013E-04    0   0.6714   age125_m62            0.0000     4.8771E-05    13.0695   2.1212   108.4516
 44      0.0000     0.0000E+00    0.0000E+00    5.088000E+08  0.02000  5.028E-04    0   0.6449   age130_m62            0.0000     3.8575E-05    11.5001   1.7274   112.2750
 45      0.0000     0.0000E+00    0.0000E+00    9.047900E+08  0.02000  2.428E-04    0   0.6179   age135_m62            0.0000     3.0044E-05    10.3391   1.1318   112.2041
 46      0.0000     0.0000E+00    0.0000E+00    1.434000E+09  0.02000  1.263E-04    0   0.5908   age139_m62            0.0000     2.6626E-05     9.8574   0.6863   110.7691
 47      0.0000     0.0000E+00    0.0000E+00    2.500000E+09  0.02000  5.985E-05    0   0.5673   age150_m62            0.0000     2.1932E-05     8.7568   0.3112   109.8777
 48      0.0000     0.0000E+00    0.0000E+00    4.250000E+09  0.02000  3.271E-05    0   0.5468   age158_m62            0.0000     1.8189E-05     7.6226  -0.0071   109.7124
 49      0.0000     0.0000E+00    0.0000E+00    1.000000E+10  0.02000  1.360E-05    0   0.5167   age181_m62            0.0000     1.6917E-05     6.8882  -0.3750   110.2516
 50     37.7439     4.5923E+01    4.5465E+01    1.800000E+10  0.02000  7.124E-06    0   0.5013   age213_m62            0.0000     1.7203E-05     6.5595  -0.6018   110.1844
 51      0.0000     0.0000E+00    0.0000E+00    1.000000E+06  0.05000  2.592E-02    0   0.9998   age020_m72            0.0000     6.0867E-05    14.1956   3.8004    91.7976
 52      0.0000     0.0000E+00    0.0000E+00    3.160000E+06  0.05000  4.845E-02    0   0.9577   age045_m72            0.0000     5.5891E-05    13.6104   3.6245    94.0508
 53      0.0000     0.0000E+00    0.0000E+00    5.010000E+06  0.05000  3.072E-02    0   0.9147   age055_m72            0.0000     7.1680E-05    16.1216   3.1361    97.6460
 54      0.0000     0.0000E+00    0.0000E+00    6.610000E+06  0.05000  1.455E-02    0   0.8877   age061_m72            0.0000     1.3065E-04    22.7688   2.3976   101.0336
 55      0.0000     0.0000E+00    0.0000E+00    1.000000E+07  0.05000  9.074E-03    0   0.8524   age070_m72            0.0000     7.8727E-05    16.6985   3.2956    97.6538
 56      0.0000     0.0000E+00    0.0000E+00    2.512000E+07  0.05000  4.250E-03    0   0.7902   age090_m72            0.0000     7.2269E-05    16.1627   3.0074    99.3833
 57      0.0000     0.0000E+00    0.0000E+00    4.000000E+07  0.05000  3.087E-03    0   0.7618   age104_m72            0.0000     7.3280E-05    16.3461   2.7790   100.9901
 58      0.0000     0.0000E+00    0.0000E+00    1.015200E+08  0.05000  1.700E-03    0   0.7096   age116_m72            0.0000     5.8893E-05    14.5219   2.5241   104.2664
 59      0.0000     0.0000E+00    0.0000E+00    2.861200E+08  0.05000  7.384E-04    0   0.6633   age125_m72            0.0000     4.3327E-05    12.2628   1.9801   110.4694
 60      0.0000     0.0000E+00    0.0000E+00    5.088000E+08  0.05000  3.819E-04    0   0.6372   age130_m72            0.0000     3.2076E-05    10.5685   1.4767   113.1042
 61      5.5986     2.8954E-01    3.4938E-01    9.047900E+08  0.05000  1.676E-04    0   0.6110   age135_m72            0.0000     2.2230E-05     8.7699   0.7683   112.0650
 62      0.0000     0.0000E+00    0.0000E+00    1.434000E+09  0.05000  8.837E-05    0   0.5874   age139_m72            0.0000     2.1589E-05     8.6172   0.3035   111.8010
 63      7.5369     1.5433E+00    1.7062E+00    2.500000E+09  0.05000  4.233E-05    0   0.5598   age150_m72            0.0000     1.7338E-05     7.2945  -0.0159   111.0687
 64     31.6655     1.9127E+01    1.9828E+01    6.250000E+09  0.05000  1.435E-05    0   0.5249   age166_m72            0.0000     1.6389E-05     6.6571  -0.4794   110.1650
 65      8.4622     1.1262E+01    1.1201E+01    1.300000E+10  0.05000  6.513E-06    0   0.5036   age193_m72            0.0000     1.7801E-05     6.4763  -0.7775   112.0715
 66     10.7559     2.0594E+01    2.0112E+01    1.800000E+10  0.05000  4.527E-06    0   0.4945   age213_m72            0.0000     1.9694E-05     6.6010  -0.9500   112.3539


## Synthesis Results - Average & Chains ##

# j      x_j: min, <> & last-chain-values for 1 ...  7 chains
  1      0.0000      0.3775      0.2371      0.0605      0.1412      0.0000      0.0105      0.0273      0.1033
  2      0.0000      0.6267      0.2027      0.1190      0.0893      0.0947      0.0658      0.1267      0.0926
  3      0.0000      0.6938      0.0000      0.3079      0.3371      0.2278      0.1897      0.0395      0.0000
  4      0.0000      0.5995      0.0575      0.1319      0.2384      0.1417      0.1966      0.0274      0.3251
  5      0.0000      0.7700      0.0666      0.1673      0.1728      0.1444      0.1695      0.1471      0.5311
  6      0.0000      0.7515      0.7180      0.9341      0.8478      0.7798      0.8922      0.8907      0.7507
  7      0.0000      0.3746      0.0622      0.1250      0.1728      0.2439      0.2215      0.1488      0.1425
  8      0.0000      0.3867      0.3743      0.0425      0.0000      0.0132      0.0140      0.0415      0.0268
  9      0.0000      0.4445      0.1361      0.2150      0.1317      0.1324      0.1660      0.0126      0.1509
 10      0.0000      0.5341      0.2181      0.4239      0.3224      0.3924      0.1761      0.1056      0.5504
 11      0.0000      0.5901      0.0833      0.3806      0.0000      0.0544      0.1255      0.0000      0.2910
 12      0.0000      0.5407      0.1392      0.0838      0.1368      0.1342      0.2266      0.0000      0.0000
 13      0.0000      0.7899      0.0285      0.0604      0.0642      0.4024      0.3030      0.0000      0.0975
 14      8.5720      1.3073      1.4667      1.3668      1.0570      1.5810      1.4701      1.5176      0.9129
 15      0.0000      0.3989      0.0000      0.0000      0.2774      0.0326      0.1303      0.0411      0.3474
 16      0.0000      0.6810      0.5891      0.6112      0.4069      0.4681      0.1387      0.7896      0.5031
 17      0.0000      2.4117      2.7962      2.7154      3.1524      2.8386      2.3186      2.9327      2.8946
 18      0.0000      0.6578      0.3362      0.3077      0.3262      0.3372      0.0000      0.1266      0.2017
 19      0.0000      0.4327      0.4420      0.0621      0.1037      0.0608      0.2417      0.1386      0.0518
 20      0.0000      0.6287      0.2749      0.1281      0.2620      0.1969      0.2032      0.2715      0.0931
 21      0.0000      0.4892      0.0409      0.0982      0.0946      0.1309      0.6826      0.0000      0.0000
 22      0.0000      1.0918      0.0720      0.3043      0.0000      0.1017      0.0000      0.1114      0.1564
 23      0.0000      0.4797      0.0795      0.0000      0.1705      0.0955      0.1065      0.3831      0.3119
 24      0.0000      0.4171      0.0911      0.2204      0.1549      0.0434      0.0912      0.3474      0.0000
 25      0.0000      0.5919      0.1903      0.1751      0.2942      0.0000      0.0000      0.1977      0.1388
 26      0.0000      0.8104      0.0000      0.1440      0.0000      0.0950      0.0474      0.2457      0.0297
 27      0.0000      0.5542      0.1333      0.4252      0.2043      0.1202      0.1596      0.0979      0.1957
 28      0.0000      0.7913      0.0269      0.1504      0.3922      0.1454      0.0101      0.0000      0.3489
 29      0.0000     16.1818     22.5044     21.9882     21.9063     21.9926     21.1671     21.5373     22.1736
 30      0.0000     17.6956     24.6951     24.2022     24.3287     24.9589     23.3685     24.6600     23.9652
 31      0.0000      7.5401      9.5301      9.6749     10.1505      9.9295      9.6001     10.0497      9.8746
 32      0.0000      0.5018      0.0645      0.1060      0.0000      0.0967      0.0000      0.0446      0.0120
 33      0.0000      0.6482      0.0901      0.3269      0.0033      0.0000      0.3493      0.0167      0.0342
 34      0.0000      0.4604      0.0560      0.0856      0.3266      0.0743      0.1143      0.0000      0.1560
 35      0.1523      0.5415      0.0825      0.1434      0.1665      0.0000      0.4764      0.2958      0.0134
 36      0.0000      0.6099      0.1106      0.1062      0.0000      0.0969      0.1052      0.1425      0.3044
 37      0.0000      0.4258      0.1305      0.0256      0.1266      0.1254      0.0000      0.0000      0.1920
 38      0.0000      0.5800      0.0505      0.4496      0.0000      0.2033      0.3308      0.0000      0.1181
 39      0.0000      0.4451      0.0025      0.1412      0.1793      0.0743      0.1554      0.3643      0.1200
 40      0.0000      0.7046      0.1559      0.0118      0.0000      0.0636      0.1230      0.0261      0.2492
 41      0.0000      0.3719      0.1997      0.0195      0.2883      0.0000      0.1928      0.0000      0.1480
 42      0.0000      0.5040      0.2054      0.4008      0.0558      0.0000      0.0000      0.2066      0.0099
 43      0.0000      0.5920      0.5244      0.0000      0.2389      0.1781      0.2209      0.0703      0.2097
 44      0.0000      0.4795      0.0000      0.0000      0.1713      0.2776      0.3449      0.3525      0.0274
 45      0.0000      0.4421      0.0000      0.1011      0.0000      0.1903      0.6097      0.0000      0.2149
 46      0.0000      0.6638      0.1612      0.1578      0.1604      0.0725      0.0000      0.0000      0.2798
