###################################################################
## OUTPUT of StarlightChains_v04.for    [Cid@UFSC - 01/Apr/2007] ##
###################################################################

## Some input info
KUG0210-078._22_37.txt                   [arq_obs]
Base.CB07.vall.4m                        [arq_base]
Masks.EmLines.NEW.gm                     [arq_masks]
StCv04.C11.config                        [arq_config]
   66                                    [N_base]
    0                                    [N_YAV_components = # of components with extra extinction!]
    0                                    [i_FitPowerLaw (1/0 = Yes/No)]
-9.99                                    [alpha_PowerLaw]
CCM                                      [red_law_option]
 1.458241                                [q_norm = A(l_norm)/A(V)]

## (Re)Sampling Parameters
 3741.00                                 [l_ini (A)]
 7218.00                                 [l_fin (A)]
    1.00                                 [dl    (A)]     (OBS: dl_cushion =    50.00 A)

## Normalization info
 4020.00                                 [l_norm (A) - for base]
 4010.00                                 [llow_norm (A) - window for f_obs]
 4060.00                                 [lupp_norm (A) - window for f_obs]
8.948624E-18                             [fobs_norm (in input units)]

## S/N
 3691.00                                 [llow_SN (A) - window for S/N]
 7268.00                                 [lupp_SN (A) - window for S/N]
   4.056                                 [S/N in S/N window]
   4.890                                 [S/N in norm. window]
   0.010                                 [S/N_err in S/N window]
   0.012                                 [S/N_err in norm. window]
  1.0000                                 [fscale_chi2]

## etc...
    -2007251                             [idum_orig]
  2415                                   [NOl_eff]
  2044                                   [Nl_eff]
   371    NSIGMA                         [Ntot_cliped & clip_method]
 10614450                                [Nglobal_steps]
   7                                     [N_chains]
  38                                     [NEX0s_base = N_base in EX0s-fits]
 0   0   1      371   2.0   7.707E+03    [Clip-Bug, RC-Crash & Burn-In warning-flags, n_censored_weights, wei_nsig_threshold & wei_limit]
    94     92.818     91.822      0.995  [idt_all, wdt_TotTime, wdt_UsrTime & wdt_SysTime (sec)]

## Synthesis Results - Best model ##

 3.27877E-06                             [chi2/Nl_eff]
    12.00765                             [adev (%)]

   110.07177                             [sum-of-x (%)]
 8.85017E-18                             [Flux_tot (units of input spectrum!)]
 4.15484E-13                             [Mini_tot (???)]
 2.07035E-13                             [Mcor_tot (???)]

-253.79                                  [v0_min  (km/s)]
 298.14                                  [vd_min  (km/s)]
-0.0797                                  [AV_min  (mag)]
 0.0000                                  [YAV_min (mag)]

# j     x_j(%)      Mini_j(%)     Mcor_j(%)     age_j(yr)     Z_j      (L/M)_j    YAV?  Mstars   component_j        a/Fe...       SSP_chi2r SSP_adev(%)   SSP_AV   SSP_x(%)
  1      3.7830     6.6917E-03    1.3429E-02    1.000000E+06  0.00400  1.094E-02    0   1.0000   age020_m42            0.0000     4.0218E-06    14.6418   2.4656    96.3562
  2      5.4871     2.6500E-03    5.3176E-03    3.160000E+06  0.00400  4.007E-02    0   0.9999   age045_m42            0.0000     4.0000E-06    13.9774   1.8203    99.6562
  3      5.6488     4.3054E-03    8.1978E-03    5.010000E+06  0.00400  2.539E-02    0   0.9488   age055_m42            0.0000     3.9412E-06    14.1934   2.1020    98.7871
  4      0.0000     0.0000E+00    0.0000E+00    6.610000E+06  0.00400  2.620E-02    0   0.9220   age061_m42            0.0000     3.9174E-06    13.7897   1.7458   100.0026
  5      0.0000     0.0000E+00    0.0000E+00    1.000000E+07  0.00400  1.322E-02    0   0.8862   age070_m42            0.0000     3.6741E-06    12.9065   1.4479   103.5122
  6      3.3671     8.2658E-03    1.4218E-02    1.445000E+07  0.00400  7.883E-03    0   0.8571   age078_m42            0.0000     3.7056E-06    13.1416   1.7590   101.4612
  7      0.0000     0.0000E+00    0.0000E+00    2.512000E+07  0.00400  5.251E-03    0   0.8174   age090_m42            0.0000     3.6251E-06    12.6984   1.3260   103.9362
  8      0.0000     0.0000E+00    0.0000E+00    4.000000E+07  0.00400  3.649E-03    0   0.7851   age104_m42            0.0000     3.6388E-06    12.6915   1.1114   104.1552
  9      0.0000     0.0000E+00    0.0000E+00    5.500000E+07  0.00400  3.098E-03    0   0.7629   age110_m42            0.0000     3.7632E-06    12.9853   1.2825   103.0686
 10      0.0000     0.0000E+00    0.0000E+00    1.015200E+08  0.00400  2.228E-03    0   0.7207   age116_m42            0.0000     3.8239E-06    13.1329   1.3169   102.4926
 11      0.0000     0.0000E+00    0.0000E+00    2.861200E+08  0.00400  1.093E-03    0   0.6648   age125_m42            0.0000     3.7118E-06    12.6799   0.7540   105.3850
 12      0.9865     2.8938E-02    3.6964E-02    5.088000E+08  0.00400  6.597E-04    0   0.6365   age130_m42            0.0000     3.7919E-06    12.8957   0.7641   105.0915
 13      0.3051     2.7694E-02    3.2223E-02    1.434000E+09  0.00400  2.132E-04    0   0.5798   age139_m42            0.0000     3.6182E-06    12.6506  -0.1738   105.5512
 14      0.0000     0.0000E+00    0.0000E+00    4.250000E+09  0.00400  5.895E-05    0   0.5377   age158_m42            0.0000     3.6215E-06    13.2882  -0.6219   101.2017
 15      0.0000     0.0000E+00    0.0000E+00    7.500000E+09  0.00400  3.510E-05    0   0.5212   age171_m42            0.0000     3.6610E-06    13.4649  -0.8041   100.0697
 16      0.0000     0.0000E+00    0.0000E+00    1.300000E+10  0.00400  2.005E-05    0   0.5034   age193_m42            0.0000     3.7225E-06    13.6551  -0.9699    99.3449
 17      0.0000     0.0000E+00    0.0000E+00    1.800000E+10  0.00400  1.525E-05    0   0.4967   age213_m42            0.0000     3.7085E-06    13.6122  -0.9957    99.0436
 18      0.0000     0.0000E+00    0.0000E+00    1.000000E+06  0.00800  1.238E-02    0   1.0000   age020_m52            0.0000     4.0170E-06    14.6335   2.4634    96.4951
 19      0.0000     0.0000E+00    0.0000E+00    3.160000E+06  0.00800  3.074E-02    0   0.9966   age045_m52            0.0000     4.0007E-06    14.6105   2.3917    97.1285
 20      3.1322     2.2719E-03    4.3054E-03    5.010000E+06  0.00800  2.668E-02    0   0.9443   age055_m52            0.0000     3.9126E-06    14.1864   2.1751    98.3097
 21      0.0000     0.0000E+00    0.0000E+00    6.610000E+06  0.00800  2.136E-02    0   0.9177   age061_m52            0.0000     3.6081E-06    12.9547   0.9446   104.7171
 22      4.6930     7.4747E-03    1.3241E-02    1.000000E+07  0.00800  1.215E-02    0   0.8827   age070_m52            0.0000     3.6089E-06    12.7080   1.6156   103.9478
 23      0.0000     0.0000E+00    0.0000E+00    1.445000E+07  0.00800  8.717E-03    0   0.8552   age078_m52            0.0000     3.6786E-06    13.0107   1.7325   102.5814
 24      0.0000     0.0000E+00    0.0000E+00    2.512000E+07  0.00800  5.592E-03    0   0.8162   age090_m52            0.0000     3.6016E-06    12.5585   1.3963   104.8990
 25      0.0000     0.0000E+00    0.0000E+00    4.000000E+07  0.00800  3.896E-03    0   0.7841   age104_m52            0.0000     3.6347E-06    12.6033   1.3282   104.6756
 26      0.0000     0.0000E+00    0.0000E+00    1.015200E+08  0.00800  2.148E-03    0   0.7226   age116_m52            0.0000     3.7143E-06    12.8747   1.2830   103.4758
 27      0.0000     0.0000E+00    0.0000E+00    2.861200E+08  0.00800  9.925E-04    0   0.6683   age125_m52            0.0000     3.7594E-06    12.8088   0.8362   105.7959
 28      1.7145     1.0563E-01    1.3012E-01    9.047900E+08  0.00800  3.141E-04    0   0.6138   age135_m52            0.0000     3.7398E-06    12.7754   0.1033   106.6911
 29      0.4889     5.5036E-02    6.4645E-02    1.434000E+09  0.00800  1.719E-04    0   0.5853   age139_m52            0.0000     3.5433E-06    12.7576  -0.4977   105.2148
 30      0.0000     0.0000E+00    0.0000E+00    2.500000E+09  0.00800  7.872E-05    0   0.5600   age150_m52            0.0000     3.6370E-06    13.3237  -0.7553   101.5164
 31      0.0000     0.0000E+00    0.0000E+00    4.250000E+09  0.00800  4.336E-05    0   0.5426   age158_m52            0.0000     3.6474E-06    13.3921  -0.7713   100.5634
 32      0.0011     6.4982E-04    6.9364E-04    6.250000E+09  0.00800  3.159E-05    0   0.5319   age166_m52            0.0000     3.7135E-06    13.6244  -0.9629    99.8577
 33      0.0000     0.0000E+00    0.0000E+00    1.300000E+10  0.00800  1.361E-05    0   0.5073   age193_m52            0.0000     4.2572E-06    13.2595  -1.0000    86.2960
 34      0.0226     4.4162E-02    4.4224E-02    1.800000E+10  0.00800  9.886E-06    0   0.4990   age213_m52            0.0000     4.5897E-06    13.7244  -1.0000    82.5352
 35      7.6591     9.5996E-03    1.9265E-02    1.000000E+06  0.02000  1.544E-02    0   1.0000   age020_m62            0.0000     4.0233E-06    14.6654   2.4552    96.8635
 36      0.0000     0.0000E+00    0.0000E+00    3.160000E+06  0.02000  3.762E-02    0   0.9858   age045_m62            0.0000     4.0149E-06    14.6613   2.3948    97.6749
 37      0.4582     2.6901E-04    5.0434E-04    5.010000E+06  0.02000  3.296E-02    0   0.9342   age055_m62            0.0000     3.9586E-06    14.1710   2.0755    99.4021
 38      0.0000     0.0000E+00    0.0000E+00    8.710000E+06  0.02000  1.154E-02    0   0.8861   age067_m62            0.0000     3.2878E-06    11.8484   1.0098   110.9491
 39      0.0000     0.0000E+00    0.0000E+00    1.445000E+07  0.02000  7.663E-03    0   0.8472   age078_m62            0.0000     3.4890E-06    12.3018   1.2542   107.0201
 40      0.0225     9.6039E-05    1.5610E-04    2.512000E+07  0.02000  4.532E-03    0   0.8099   age090_m62            0.0000     3.4450E-06    12.2294   1.2478   106.7362
 41      1.6594     1.1750E-02    1.7908E-02    5.500000E+07  0.02000  2.733E-03    0   0.7595   age110_m62            0.0000     3.5804E-06    12.6094   1.2986   104.4379
 42      0.0000     0.0000E+00    0.0000E+00    1.609000E+08  0.02000  1.369E-03    0   0.6985   age120_m62            0.0000     3.7250E-06    12.7989   1.1780   105.1601
 43      0.0000     0.0000E+00    0.0000E+00    2.861200E+08  0.02000  9.013E-04    0   0.6714   age125_m62            0.0000     3.8004E-06    12.8068   0.9581   106.6699
 44      0.2521     9.7044E-03    1.2559E-02    5.088000E+08  0.02000  5.028E-04    0   0.6449   age130_m62            0.0000     3.9171E-06    13.0484   0.6307   106.7449
 45      3.3990     2.7091E-01    3.3593E-01    9.047900E+08  0.02000  2.428E-04    0   0.6179   age135_m62            0.0000     3.7005E-06    13.0295   0.0618   104.9878
 46      0.0000     0.0000E+00    0.0000E+00    1.434000E+09  0.02000  1.263E-04    0   0.5908   age139_m62            0.0000     3.5807E-06    13.1090  -0.3843   103.3084
 47      0.0000     0.0000E+00    0.0000E+00    2.500000E+09  0.02000  5.985E-05    0   0.5673   age150_m62            0.0000     3.6582E-06    13.5690  -0.7443   101.2393
 48      0.1061     6.2745E-02    6.8852E-02    4.250000E+09  0.02000  3.271E-05    0   0.5468   age158_m62            0.0000     3.7892E-06    13.7712  -1.0000    98.4090
 49      0.0000     0.0000E+00    0.0000E+00    1.000000E+10  0.02000  1.360E-05    0   0.5167   age181_m62            0.0000     4.2275E-06    13.2095  -1.0000    87.3036
 50      0.0000     0.0000E+00    0.0000E+00    1.800000E+10  0.02000  7.124E-06    0   0.5013   age213_m62            0.0000     4.7738E-06    13.8432  -1.0000    80.3687
 51      0.5644     4.2134E-04    8.4539E-04    1.000000E+06  0.05000  2.592E-02    0   0.9998   age020_m72            0.0000     4.0181E-06    14.6715   2.4419    97.0975
 52      0.0420     1.6782E-05    3.2255E-05    3.160000E+06  0.05000  4.845E-02    0   0.9577   age045_m72            0.0000     3.9799E-06    14.5358   2.3008    98.0093
 53      0.0000     0.0000E+00    0.0000E+00    5.010000E+06  0.05000  3.072E-02    0   0.9147   age055_m72            0.0000     3.6457E-06    13.0143   1.8257   102.9111
 54      4.7623     6.3340E-03    1.1284E-02    6.610000E+06  0.05000  1.455E-02    0   0.8877   age061_m72            0.0000     3.4953E-06    13.0434   1.0163   113.8585
 55     29.3919     6.2683E-02    1.0723E-01    1.000000E+07  0.05000  9.074E-03    0   0.8524   age070_m72            0.0000     3.7545E-06    13.6435   1.9947   102.8257
 56      0.0000     0.0000E+00    0.0000E+00    2.512000E+07  0.05000  4.250E-03    0   0.7902   age090_m72            0.0000     3.6476E-06    12.9727   1.7348   103.3898
 57      0.0000     0.0000E+00    0.0000E+00    4.000000E+07  0.05000  3.087E-03    0   0.7618   age104_m72            0.0000     3.6220E-06    12.7994   1.5188   104.7519
 58      0.0000     0.0000E+00    0.0000E+00    1.015200E+08  0.05000  1.700E-03    0   0.7096   age116_m72            0.0000     3.6877E-06    12.6515   1.3090   105.3958
 59      0.3931     1.0302E-02    1.3713E-02    2.861200E+08  0.05000  7.384E-04    0   0.6633   age125_m72            0.0000     3.8103E-06    12.8615   0.8596   106.3691
 60      0.0000     0.0000E+00    0.0000E+00    5.088000E+08  0.05000  3.819E-04    0   0.6372   age130_m72            0.0000     3.7470E-06    13.0610   0.4079   105.8557
 61      6.6714     7.7031E-01    9.4453E-01    9.047900E+08  0.05000  1.676E-04    0   0.6110   age135_m72            0.0000     3.6651E-06    13.5922  -0.2698   102.5931
 62      0.0000     0.0000E+00    0.0000E+00    1.434000E+09  0.05000  8.837E-05    0   0.5874   age139_m72            0.0000     3.6111E-06    13.4655  -0.7279   101.9554
 63      0.0000     0.0000E+00    0.0000E+00    2.500000E+09  0.05000  4.233E-05    0   0.5598   age150_m72            0.0000     3.7857E-06    13.9189  -1.0000    98.9323
 64      0.0000     0.0000E+00    0.0000E+00    6.250000E+09  0.05000  1.435E-05    0   0.5249   age166_m72            0.0000     4.4144E-06    13.4419  -1.0000    84.0542
 65      6.6260     1.9688E+01    1.9897E+01    1.300000E+10  0.05000  6.513E-06    0   0.5036   age193_m72            0.0000     5.3392E-06    14.8626  -1.0000    76.6310
 66     18.4346     7.8803E+01    7.8203E+01    1.800000E+10  0.05000  4.527E-06    0   0.4945   age213_m72            0.0000     5.9967E-06    15.9912  -1.0000    71.9260


## Synthesis Results - Average & Chains ##

# j      x_j: min, <> & last-chain-values for 1 ...  7 chains
  1      3.7830      2.4797      1.9808      1.4122      2.6068      3.8817      1.8875      3.5124      2.5621
  2      5.4871      0.2957      0.1953      0.1722      0.2421      0.0000      0.7563      1.3613      0.1545
  3      5.6488      0.3208      0.0826      0.5085      0.2712      0.0000      0.4645      2.0478      0.0687
  4      0.0000      0.2177      0.0626      1.4775      0.2742      0.0000      1.0266      0.0000      0.0000
  5      0.0000      0.2159      0.2136      1.3333      0.2163      0.0302      0.0613      0.0000      0.0111
  6      3.3671      0.2872      0.0000      0.0000      0.1548      0.0517      0.0000      1.2450      0.1687
  7      0.0000      0.2284      0.1401      0.0000      0.2116      0.0146      0.3039      0.0000      0.0000
  8      0.0000      0.2420      0.0275      1.0111      0.2039      0.0007      0.1923      0.1456      0.1581
  9      0.0000      0.3503      0.0733      0.6193      0.3926      0.0005      0.9323      0.0000      0.1177
 10      0.0000      8.3022      9.1696      6.8223      8.5575      1.0039      8.0874     11.3488      8.4205
 11      0.0000      0.2418      0.0434      0.0765      0.2524      0.0297      0.0651      1.0158      0.3934
 12      0.9865      0.2894      0.0000      0.5289      0.3002      0.0183      0.8156      2.5984      0.0000
 13      0.3051      0.2376      0.2190      0.7930      0.1133      0.0536      0.2725      0.8421      0.2872
 14      0.0000      0.2402      0.1204      1.0033      0.1585      0.0897      1.0498      0.2910      0.0000
 15      0.0000      0.2724      0.0302      0.0000      0.3128      0.1857      0.0000      0.0000      0.2745
 16      0.0000      0.2516      0.1892      0.1524      0.1344      0.0069      0.0922      0.2042      0.0000
 17      0.0000      0.3164      0.1428      0.6476      0.4064      0.0589      0.0000      0.6832      0.3991
 18      0.0000      0.4751      0.2814      0.3000      0.4032      1.2028      0.0000      0.0000      0.3635
 19      0.0000      0.2181      0.0000      0.0000      0.2455      0.0669      0.3673      0.0000      0.9286
 20      3.1322      0.3480      0.1923      2.8497      0.2112      0.1410      0.2599      0.3788      0.2461
 21      0.0000      0.3259      0.0245      0.2511      0.4904      0.0453      1.5666      0.0000      0.3319
 22      4.6930      0.2651      0.1174      0.2928      0.3187      0.0003      0.2264      2.7804      0.0000
 23      0.0000      0.2640      0.0000      0.0000      0.1601      0.1917      0.2241      1.5236      0.1700
 24      0.0000      0.2520      0.0380      0.1203      0.1864      0.0659      0.2066      0.2323      0.0282
 25      0.0000      0.3200      0.1412      0.0000      0.4135      0.0942      0.4091      1.4105      0.4803
 26      0.0000      0.2477      0.1889      0.9515      0.3453      0.0000      0.0000      0.1114      0.4731
 27      0.0000      0.3352      0.0295      0.0000      0.2300      0.0119      0.0000      0.0826      0.0000
 28      1.7145      0.2501      0.0000      0.0000      0.1297      0.0000      0.0000      0.5975      0.1919
 29      0.4889      0.2557      0.1279      0.0894      0.3009      0.0227      0.1647      0.6276      0.0000
 30      0.0000      0.2073      0.0687      0.3814      0.2783      0.0762      0.6648      0.1207      0.1314
 31      0.0000      0.3039      0.0187      0.5214      0.1667      0.0356      0.6036      0.0000      0.4921
 32      0.0011      0.2765      0.0641      0.5323      0.1381      0.1098      0.3205      3.2874      0.1304
 33      0.0000      0.2312      0.0555      1.3710      0.1892      0.1081      0.7178      0.0000      0.8589
 34      0.0226      0.2018      0.0394      2.0808      0.2077      0.0493      0.1772      2.0742      0.3305
 35      7.6591      0.2439      0.1319      1.8163      0.3033      0.0574      0.2226      1.0743      0.2397
 36      0.0000      0.2092      0.0322      1.1803      0.1546      0.0691      0.4030      1.4545      0.0000
 37      0.4582      0.2193      0.0013      0.7941      0.2729      0.0000      0.4972      0.4398      0.2007
 38      0.0000      0.2266      0.1468      0.0000      0.2573      0.0000      0.0000      0.0000      0.2189
 39      0.0000      0.1985      0.0673      0.0709      0.3377      0.0775      0.1631      0.3551      0.0000
 40      0.0225      0.2548      0.0984      1.1613      0.1095      0.1024      0.1970      0.5269      0.0000
 41      1.6594      0.2508      0.0000      0.0000      0.2393      0.0402      0.2952      0.8204      0.2844
 42      0.0000      0.3170      0.0245      0.3112      0.4503      0.0014      0.0373      0.3582      0.6407
 43      0.0000     43.8734     51.9280     31.3238     43.6812     57.7413     43.8022     23.3571     45.4507
 44      0.2521      0.2229      0.0271      0.7169      0.1979      0.0773      0.0592      0.3853      0.7067
 45      3.3990      0.2802      0.0453      0.0000      0.1370      0.0000      0.0000      0.6536      0.3298
 46      0.0000      0.2421      0.0030      0.0000      0.2001      0.0619      0.4612      0.0000      0.0000
