###################################################################
## OUTPUT of StarlightChains_v04.for    [Cid@UFSC - 01/Apr/2007] ##
###################################################################

## Some input info
KUG0210-078._40_29.txt                   [arq_obs]
Base.CB07.vall.4m                        [arq_base]
Masks.EmLines.NEW.gm                     [arq_masks]
StCv04.C11.config                        [arq_config]
   66                                    [N_base]
    0                                    [N_YAV_components = # of components with extra extinction!]
    0                                    [i_FitPowerLaw (1/0 = Yes/No)]
-9.99                                    [alpha_PowerLaw]
CCM                                      [red_law_option]
 1.458241                                [q_norm = A(l_norm)/A(V)]

## (Re)Sampling Parameters
 3741.00                                 [l_ini (A)]
 7218.00                                 [l_fin (A)]
    1.00                                 [dl    (A)]     (OBS: dl_cushion =    50.00 A)

## Normalization info
 4020.00                                 [l_norm (A) - for base]
 4010.00                                 [llow_norm (A) - window for f_obs]
 4060.00                                 [lupp_norm (A) - window for f_obs]
8.359290E-18                             [fobs_norm (in input units)]

## S/N
 3691.00                                 [llow_SN (A) - window for S/N]
 7268.00                                 [lupp_SN (A) - window for S/N]
   3.758                                 [S/N in S/N window]
   3.949                                 [S/N in norm. window]
   0.010                                 [S/N_err in S/N window]
   0.011                                 [S/N_err in norm. window]
  1.0000                                 [fscale_chi2]

## etc...
    -2007715                             [idum_orig]
  2400                                   [NOl_eff]
  2230                                   [Nl_eff]
   170    NSIGMA                         [Ntot_cliped & clip_method]
  6992160                                [Nglobal_steps]
   7                                     [N_chains]
  33                                     [NEX0s_base = N_base in EX0s-fits]
 0   0   1      170   2.0   4.805E+03    [Clip-Bug, RC-Crash & Burn-In warning-flags, n_censored_weights, wei_nsig_threshold & wei_limit]
    68     66.233     64.711      1.522  [idt_all, wdt_TotTime, wdt_UsrTime & wdt_SysTime (sec)]

## Synthesis Results - Best model ##

 1.29832E-05                             [chi2/Nl_eff]
    24.79148                             [adev (%)]

   107.57966                             [sum-of-x (%)]
 1.12153E-17                             [Flux_tot (units of input spectrum!)]
 1.60497E-13                             [Mini_tot (???)]
 8.43946E-14                             [Mcor_tot (???)]

-272.86                                  [v0_min  (km/s)]
 308.08                                  [vd_min  (km/s)]
 0.1644                                  [AV_min  (mag)]
 0.0000                                  [YAV_min (mag)]

# j     x_j(%)      Mini_j(%)     Mcor_j(%)     age_j(yr)     Z_j      (L/M)_j    YAV?  Mstars   component_j        a/Fe...       SSP_chi2r SSP_adev(%)   SSP_AV   SSP_x(%)
  1      0.0000     0.0000E+00    0.0000E+00    1.000000E+06  0.00400  1.094E-02    0   1.0000   age020_m42            0.0000     1.3876E-05    26.0948   2.8315    96.3437
  2      6.0513     9.8094E-03    1.8653E-02    3.160000E+06  0.00400  4.007E-02    0   0.9999   age045_m42            0.0000     1.3459E-05    25.5180   2.1610   100.6015
  3      0.0000     0.0000E+00    0.0000E+00    5.010000E+06  0.00400  2.539E-02    0   0.9488   age055_m42            0.0000     1.3673E-05    25.7488   2.4642    98.9254
  4      0.0000     0.0000E+00    0.0000E+00    6.610000E+06  0.00400  2.620E-02    0   0.9220   age061_m42            0.0000     1.3505E-05    25.4940   2.0984   100.4560
  5      0.0000     0.0000E+00    0.0000E+00    1.000000E+07  0.00400  1.322E-02    0   0.8862   age070_m42            0.0000     1.3502E-05    25.6492   1.8544   101.7050
  6      1.0353     8.5305E-03    1.3905E-02    1.445000E+07  0.00400  7.883E-03    0   0.8571   age078_m42            0.0000     1.3636E-05    25.7748   2.1596    99.9406
  7      0.0000     0.0000E+00    0.0000E+00    2.512000E+07  0.00400  5.251E-03    0   0.8174   age090_m42            0.0000     1.3482E-05    25.6536   1.7367   101.9181
  8      0.0677     1.2048E-03    1.7988E-03    4.000000E+07  0.00400  3.649E-03    0   0.7851   age104_m42            0.0000     1.3413E-05    25.5372   1.5137   102.5039
  9      0.0000     0.0000E+00    0.0000E+00    5.500000E+07  0.00400  3.098E-03    0   0.7629   age110_m42            0.0000     1.3413E-05    25.3681   1.6585   102.5290
 10      0.0000     0.0000E+00    0.0000E+00    1.015200E+08  0.00400  2.228E-03    0   0.7207   age116_m42            0.0000     1.3413E-05    25.2265   1.6791   102.5417
 11      6.1540     3.6572E-01    4.6237E-01    2.861200E+08  0.00400  1.093E-03    0   0.6648   age125_m42            0.0000     1.3238E-05    25.3267   1.1326   104.7064
 12      0.0000     0.0000E+00    0.0000E+00    5.088000E+08  0.00400  6.597E-04    0   0.6365   age130_m42            0.0000     1.3168E-05    24.9861   1.1131   105.6610
 13      0.0000     0.0000E+00    0.0000E+00    1.434000E+09  0.00400  2.132E-04    0   0.5798   age139_m42            0.0000     1.2931E-05    24.4844   0.1330   107.7995
 14      0.0000     0.0000E+00    0.0000E+00    4.250000E+09  0.00400  5.895E-05    0   0.5377   age158_m42            0.0000     1.3109E-05    24.5217  -0.3728   105.6370
 15      0.0000     0.0000E+00    0.0000E+00    7.500000E+09  0.00400  3.510E-05    0   0.5212   age171_m42            0.0000     1.3254E-05    24.5995  -0.5766   105.2907
 16      0.0000     0.0000E+00    0.0000E+00    1.300000E+10  0.00400  2.005E-05    0   0.5034   age193_m42            0.0000     1.3413E-05    24.7125  -0.7570   105.0623
 17     10.7443     4.5764E+01    4.3228E+01    1.800000E+10  0.00400  1.525E-05    0   0.4967   age213_m42            0.0000     1.3415E-05    24.7012  -0.7802   104.6476
 18      0.0000     0.0000E+00    0.0000E+00    1.000000E+06  0.00800  1.238E-02    0   1.0000   age020_m52            0.0000     1.3871E-05    26.0949   2.8279    96.5470
 19      0.0000     0.0000E+00    0.0000E+00    3.160000E+06  0.00800  3.074E-02    0   0.9966   age045_m52            0.0000     1.3858E-05    26.0536   2.7553    97.2375
 20      0.0000     0.0000E+00    0.0000E+00    5.010000E+06  0.00800  2.668E-02    0   0.9443   age055_m52            0.0000     1.3746E-05    25.8464   2.5374    98.4120
 21      0.0000     0.0000E+00    0.0000E+00    6.610000E+06  0.00800  2.136E-02    0   0.9177   age061_m52            0.0000     1.3282E-05    25.5022   1.3310   103.6622
 22      0.0000     0.0000E+00    0.0000E+00    1.000000E+07  0.00800  1.215E-02    0   0.8827   age070_m52            0.0000     1.3548E-05    25.8434   2.0340   101.7083
 23      0.0000     0.0000E+00    0.0000E+00    1.445000E+07  0.00800  8.717E-03    0   0.8552   age078_m52            0.0000     1.3574E-05    25.7150   2.1322   101.1011
 24      0.0000     0.0000E+00    0.0000E+00    2.512000E+07  0.00800  5.592E-03    0   0.8162   age090_m52            0.0000     1.3463E-05    25.6752   1.8033   103.0473
 25      0.0000     0.0000E+00    0.0000E+00    4.000000E+07  0.00800  3.896E-03    0   0.7841   age104_m52            0.0000     1.3417E-05    25.5634   1.7175   103.5789
 26      0.0000     0.0000E+00    0.0000E+00    1.015200E+08  0.00800  2.148E-03    0   0.7226   age116_m52            0.0000     1.3348E-05    25.3100   1.6498   103.3432
 27      0.0000     0.0000E+00    0.0000E+00    2.861200E+08  0.00800  9.925E-04    0   0.6683   age125_m52            0.0000     1.3236E-05    24.9615   1.1825   106.5049
 28      0.0000     0.0000E+00    0.0000E+00    9.047900E+08  0.00800  3.141E-04    0   0.6138   age135_m52            0.0000     1.2953E-05    24.4041   0.3533   111.5841
 29     17.6844     6.6824E+00    7.4381E+00    1.434000E+09  0.00800  1.719E-04    0   0.5853   age139_m52            0.0000     1.3049E-05    24.6015  -0.2467   109.8989
 30     10.0957     8.3304E+00    8.8716E+00    2.500000E+09  0.00800  7.872E-05    0   0.5600   age150_m52            0.0000     1.3327E-05    24.6830  -0.5573   108.1142
 31      0.0000     0.0000E+00    0.0000E+00    4.250000E+09  0.00800  4.336E-05    0   0.5426   age158_m52            0.0000     1.3380E-05    24.7148  -0.5817   107.4048
 32     15.0106     3.0865E+01    3.1221E+01    6.250000E+09  0.00800  3.159E-05    0   0.5319   age166_m52            0.0000     1.3612E-05    24.7988  -0.7991   107.6602
 33      0.0000     0.0000E+00    0.0000E+00    1.300000E+10  0.00800  1.361E-05    0   0.5073   age193_m52            0.0000     1.4413E-05    23.4869  -1.0000   100.2323
 34      0.0000     0.0000E+00    0.0000E+00    1.800000E+10  0.00800  9.886E-06    0   0.4990   age213_m52            0.0000     1.5172E-05    23.5995  -1.0000    96.8655
 35      0.3220     1.3547E-03    2.5763E-03    1.000000E+06  0.02000  1.544E-02    0   1.0000   age020_m62            0.0000     1.3870E-05    26.1240   2.8211    96.8719
 36      9.3908     1.6214E-02    3.0397E-02    3.160000E+06  0.02000  3.762E-02    0   0.9858   age045_m62            0.0000     1.3889E-05    26.1575   2.7589    97.7370
 37      0.0000     0.0000E+00    0.0000E+00    5.010000E+06  0.02000  3.296E-02    0   0.9342   age055_m62            0.0000     1.3657E-05    25.6972   2.4287    99.8765
 38      0.0000     0.0000E+00    0.0000E+00    8.710000E+06  0.02000  1.154E-02    0   0.8861   age067_m62            0.0000     1.3826E-05    27.2147   1.5256   104.1433
 39      0.0000     0.0000E+00    0.0000E+00    1.445000E+07  0.02000  7.663E-03    0   0.8472   age078_m62            0.0000     1.3511E-05    26.2422   1.6932   103.7849
 40      0.0000     0.0000E+00    0.0000E+00    2.512000E+07  0.02000  4.532E-03    0   0.8099   age090_m62            0.0000     1.3604E-05    26.3672   1.6978   103.0466
 41      6.7810     1.6116E-01    2.3278E-01    5.500000E+07  0.02000  2.733E-03    0   0.7595   age110_m62            0.0000     1.3468E-05    25.6205   1.6969   102.9713
 42      0.0000     0.0000E+00    0.0000E+00    1.609000E+08  0.02000  1.369E-03    0   0.6985   age120_m62            0.0000     1.3407E-05    25.2117   1.5448   105.0101
 43      0.0000     0.0000E+00    0.0000E+00    2.861200E+08  0.02000  9.013E-04    0   0.6714   age125_m62            0.0000     1.3335E-05    24.8931   1.3008   107.5349
 44      0.0000     0.0000E+00    0.0000E+00    5.088000E+08  0.02000  5.028E-04    0   0.6449   age130_m62            0.0000     1.3113E-05    24.5326   0.8938   111.0389
 45      0.0000     0.0000E+00    0.0000E+00    9.047900E+08  0.02000  2.428E-04    0   0.6179   age135_m62            0.0000     1.3023E-05    24.3998   0.2667   111.6627
 46      0.0000     0.0000E+00    0.0000E+00    1.434000E+09  0.02000  1.263E-04    0   0.5908   age139_m62            0.0000     1.3197E-05    24.4767  -0.2024   110.7693
 47      0.0035     3.8059E-03    4.1060E-03    2.500000E+09  0.02000  5.985E-05    0   0.5673   age150_m62            0.0000     1.3566E-05    24.7957  -0.6018   110.1059
 48      0.0000     0.0000E+00    0.0000E+00    4.250000E+09  0.02000  3.271E-05    0   0.5468   age158_m62            0.0000     1.4003E-05    25.1056  -0.9318   109.6344
 49      0.0000     0.0000E+00    0.0000E+00    1.000000E+10  0.02000  1.360E-05    0   0.5167   age181_m62            0.0000     1.5157E-05    23.4466  -1.0000   101.9426
 50      0.0000     0.0000E+00    0.0000E+00    1.800000E+10  0.02000  7.124E-06    0   0.5013   age213_m62            0.0000     1.6689E-05    23.7786  -1.0000    95.4676
 51      0.0000     0.0000E+00    0.0000E+00    1.000000E+06  0.05000  2.592E-02    0   0.9998   age020_m72            0.0000     1.3887E-05    26.1658   2.8092    97.0821
 52      0.0000     0.0000E+00    0.0000E+00    3.160000E+06  0.05000  4.845E-02    0   0.9577   age045_m72            0.0000     1.3843E-05    26.0099   2.6570    98.3647
 53      0.0000     0.0000E+00    0.0000E+00    5.010000E+06  0.05000  3.072E-02    0   0.9147   age055_m72            0.0000     1.3678E-05    26.2544   2.2364   101.1311
 54      3.9264     1.7529E-02    2.9591E-02    6.610000E+06  0.05000  1.455E-02    0   0.8877   age061_m72            0.0000     1.4261E-05    28.9383   1.5891   104.7572
 55      0.0000     0.0000E+00    0.0000E+00    1.000000E+07  0.05000  9.074E-03    0   0.8524   age070_m72            0.0000     1.3854E-05    26.7563   2.4227   100.6701
 56      0.0000     0.0000E+00    0.0000E+00    2.512000E+07  0.05000  4.250E-03    0   0.7902   age090_m72            0.0000     1.3694E-05    26.3131   2.1509   101.4206
 57      0.0000     0.0000E+00    0.0000E+00    4.000000E+07  0.05000  3.087E-03    0   0.7618   age104_m72            0.0000     1.3646E-05    26.3390   1.9417   102.4436
 58      1.8844     7.2000E-02    9.7162E-02    1.015200E+08  0.05000  1.700E-03    0   0.7096   age116_m72            0.0000     1.3451E-05    25.4610   1.6946   104.4651
 59      0.0000     0.0000E+00    0.0000E+00    2.861200E+08  0.05000  7.384E-04    0   0.6633   age125_m72            0.0000     1.3327E-05    24.7771   1.1551   109.2645
 60     17.1217     2.9121E+00    3.5289E+00    5.088000E+08  0.05000  3.819E-04    0   0.6372   age130_m72            0.0000     1.3107E-05    24.4930   0.6157   112.4673
 61      0.0000     0.0000E+00    0.0000E+00    9.047900E+08  0.05000  1.676E-04    0   0.6110   age135_m72            0.0000     1.3439E-05    24.7593  -0.1447   112.3719
 62      0.0000     0.0000E+00    0.0000E+00    1.434000E+09  0.05000  8.837E-05    0   0.5874   age139_m72            0.0000     1.3627E-05    24.7258  -0.6099   111.9473
 63      0.3763     5.7748E-01    6.1478E-01    2.500000E+09  0.05000  4.233E-05    0   0.5598   age150_m72            0.0000     1.4165E-05    25.2786  -0.9474   111.0008
 64      0.9305     4.2117E+00    4.2042E+00    6.250000E+09  0.05000  1.435E-05    0   0.5249   age166_m72            0.0000     1.5693E-05    23.5056  -1.0000    99.0010
 65      0.0000     0.0000E+00    0.0000E+00    1.300000E+10  0.05000  6.513E-06    0   0.5036   age193_m72            0.0000     1.8164E-05    24.8491  -1.0000    92.0702
 66      0.0000     0.0000E+00    0.0000E+00    1.800000E+10  0.05000  4.527E-06    0   0.4945   age213_m72            0.0000     2.0049E-05    26.1612  -1.0000    87.2510


## Synthesis Results - Average & Chains ##

# j      x_j: min, <> & last-chain-values for 1 ...  7 chains
  1      0.0000     13.0360     11.9863     12.7453     11.7560     12.4258     11.4344     12.0962     12.7948
  2      6.0513      0.1034      0.1052      0.0437      0.3203      0.2115      0.2566      0.1963      0.5314
  3      0.0000      0.1219      0.1523      0.0000      0.4160      0.2610      0.6799      0.1823      0.0726
  4      0.0000      0.0962      0.0000      0.2813      0.0000      0.0621      0.2865      0.2135      0.0641
  5      0.0000      0.1342      0.1474      0.3809      0.7793      0.0000      0.0258      0.3523      0.1480
  6      1.0353      0.1022      0.3248      0.0401      0.4287      0.2351      0.0672      0.1908      0.5466
  7      0.0000      0.1059      0.0000      0.0000      0.1011      0.3023      0.0000      0.0710      0.0000
  8      0.0677      0.1252      0.2583      0.1940      0.3772      0.5249      0.0150      0.3260      0.5795
  9      0.0000      0.1109      0.1475      0.3174      0.4690      0.0851      0.0000      0.4950      0.0000
 10      0.0000      0.1242      0.2194      0.0119      0.4895      0.4008      0.5111      0.1608      0.0000
 11      6.1540      0.1093      0.0000      0.0000      0.0124      0.1394      0.3042      0.3324      0.2814
 12      0.0000      0.1173      0.3372      0.1316      0.3530      0.4351      0.6844      0.2357      0.0789
 13      0.0000      0.1556      0.5079      0.3939      0.0318      0.0000      0.3236      0.0000      0.1711
 14      0.0000      0.1233      0.0746      0.2832      0.0000      0.4194      0.1088      0.0391      0.1667
 15      0.0000      0.0796      0.5440      0.0000      0.5871      0.0628      0.2755      0.0037      0.0000
 16      0.0000      0.1019      0.2877      0.5322      0.1317      0.2884      0.0157      0.0000      0.0000
 17     10.7443      0.1418      0.3388      0.3068      0.1821      0.3625      0.0000      0.5228      0.5769
 18      0.0000      0.9711      1.1160      1.0678      0.0500      0.9703      0.4605      0.8776      1.2668
 19      0.0000      0.1025      0.2478      0.1376      0.0000      0.0940      0.3205      0.2435      0.1594
 20      0.0000      0.0835      0.3308      0.0581      0.2150      0.0000      0.1395      0.3067      0.0548
 21      0.0000      0.0955      0.0000      0.0000      0.0000      0.0000      0.7500      0.2574      0.0000
 22      0.0000      0.1680      0.2400      0.6323      0.3241      0.1401      0.0088      0.1869      0.5079
 23      0.0000      0.0910      0.1446      0.1102      0.1503      0.2108      0.3149      0.2492      0.7343
 24      0.0000      0.0939      0.3359      0.0000      0.3158      0.0000      0.0000      0.0000      0.2312
 25      0.0000      0.0862      0.0000      0.3620      0.4203      0.0000      0.0259      0.2840      0.2384
 26      0.0000      0.1201      1.1159      0.0005      0.1890      0.5603      0.0000      0.0109      0.0000
 27      0.0000      0.1276      0.1884      0.1923      0.1498      0.1633      0.0000      0.0000      0.0837
 28      0.0000      0.0916      0.4219      0.0803      0.3542      0.0113      0.2712      0.1181      0.0305
 29     17.6844      0.1215      0.0000      0.1687      0.0523      0.0000      0.4697      0.2067      0.3068
 30     10.0957      0.1110      0.3263      0.1533      0.1146      0.0000      0.8216      0.0000      0.7476
 31      0.0000      0.0850      0.3319      0.0000      0.0000      0.0000      0.3598      0.0000      0.0000
 32     15.0106      0.1217      0.3935      0.0000      0.1609      0.2623      0.2355      0.0000      0.4703
 33      0.0000      0.1335      0.0598      0.5383      0.0870      0.2594      0.2602      0.3673      0.3939
 34      0.0000      0.0889      0.7194      0.1629      0.0000      0.1215      0.1653      0.0518      0.1262
 35      0.3220      0.1427      0.0597      0.4189      0.4860      0.4182      0.0483      0.1980      0.4052
 36      9.3908      0.1628      0.3220      0.0880      0.4058      0.0883      0.5463      0.1912      0.3606
 37      0.0000      0.1291      0.2613      0.2846      0.3528      0.0000      0.7421      0.0702      0.0595
 38      0.0000      0.1417      0.3599      0.3721      0.0000      0.4454      0.2706      0.0000      0.0000
 39      0.0000      0.1205      0.1177      0.3975      0.2637      0.1240      0.0612      0.0370      0.0674
 40      0.0000      0.1082      0.3362      0.0923      0.0537      0.1176      0.2570      0.2414      0.4364
 41      6.7810      0.1413      0.1536      0.4545      0.3685      0.9089      0.0000      0.2859      0.7147
 42      0.0000      0.0963      0.0064      0.2162      0.1705      0.1041      0.0000      0.0000      0.3370
 43      0.0000      0.1007      0.0694      0.2219      0.6319      0.0000      0.0000      0.0205      0.0000
 44      0.0000      0.1411      0.0946      0.0000      0.3593      0.1106      0.3067      0.0432      0.0661
 45      0.0000      0.1346      0.2140      0.1708      0.0773      0.0260      0.8097      0.0653      0.2025
 46      0.0000      0.1107      0.1208      0.3942      0.0058      0.4559      0.0000      0.1416      0.0160
