###################################################################
## OUTPUT of StarlightChains_v04.for    [Cid@UFSC - 01/Apr/2007] ##
###################################################################

## Some input info
KUG0210-078._27_41.txt                   [arq_obs]
Base.CB07.vall.4m                        [arq_base]
Masks.EmLines.NEW.gm                     [arq_masks]
StCv04.C11.config                        [arq_config]
   66                                    [N_base]
    0                                    [N_YAV_components = # of components with extra extinction!]
    0                                    [i_FitPowerLaw (1/0 = Yes/No)]
-9.99                                    [alpha_PowerLaw]
CCM                                      [red_law_option]
 1.458241                                [q_norm = A(l_norm)/A(V)]

## (Re)Sampling Parameters
 3741.00                                 [l_ini (A)]
 7218.00                                 [l_fin (A)]
    1.00                                 [dl    (A)]     (OBS: dl_cushion =    50.00 A)

## Normalization info
 4020.00                                 [l_norm (A) - for base]
 4010.00                                 [llow_norm (A) - window for f_obs]
 4060.00                                 [lupp_norm (A) - window for f_obs]
1.188954E-17                             [fobs_norm (in input units)]

## S/N
 3691.00                                 [llow_SN (A) - window for S/N]
 7268.00                                 [lupp_SN (A) - window for S/N]
   4.515                                 [S/N in S/N window]
   5.072                                 [S/N in norm. window]
   0.014                                 [S/N_err in S/N window]
   0.015                                 [S/N_err in norm. window]
  1.0000                                 [fscale_chi2]

## etc...
    -2007361                             [idum_orig]
  2429                                   [NOl_eff]
  2042                                   [Nl_eff]
   387    NSIGMA                         [Ntot_cliped & clip_method]
 10416350                                [Nglobal_steps]
   7                                     [N_chains]
  32                                     [NEX0s_base = N_base in EX0s-fits]
 0   0   1      387   2.0   1.043E+04    [Clip-Bug, RC-Crash & Burn-In warning-flags, n_censored_weights, wei_nsig_threshold & wei_limit]
    61     60.930     60.414      0.516  [idt_all, wdt_TotTime, wdt_UsrTime & wdt_SysTime (sec)]

## Synthesis Results - Best model ##

 3.30401E-06                             [chi2/Nl_eff]
     7.89764                             [adev (%)]

   116.28095                             [sum-of-x (%)]
 3.60892E-18                             [Flux_tot (units of input spectrum!)]
 1.57277E-13                             [Mini_tot (???)]
 8.11237E-14                             [Mcor_tot (???)]

-225.91                                  [v0_min  (km/s)]
 391.04                                  [vd_min  (km/s)]
-1.0000                                  [AV_min  (mag)]
 0.0000                                  [YAV_min (mag)]

# j     x_j(%)      Mini_j(%)     Mcor_j(%)     age_j(yr)     Z_j      (L/M)_j    YAV?  Mstars   component_j        a/Fe...       SSP_chi2r SSP_adev(%)   SSP_AV   SSP_x(%)
  1      0.0000     0.0000E+00    0.0000E+00    1.000000E+06  0.00400  1.094E-02    0   1.0000   age020_m42            0.0000     3.9501E-06     8.5608   2.3451   109.3657
  2      0.0000     0.0000E+00    0.0000E+00    3.160000E+06  0.00400  4.007E-02    0   0.9999   age045_m42            0.0000     4.0288E-06     8.3171   1.7020   113.0924
  3      0.0000     0.0000E+00    0.0000E+00    5.010000E+06  0.00400  2.539E-02    0   0.9488   age055_m42            0.0000     3.9377E-06     8.3251   1.9823   112.1377
  4      0.0000     0.0000E+00    0.0000E+00    6.610000E+06  0.00400  2.620E-02    0   0.9220   age061_m42            0.0000     3.9740E-06     8.1987   1.6289   113.4594
  5      0.0000     0.0000E+00    0.0000E+00    1.000000E+07  0.00400  1.322E-02    0   0.8862   age070_m42            0.0000     3.9494E-06     8.1077   1.3356   117.3402
  6      0.0000     0.0000E+00    0.0000E+00    1.445000E+07  0.00400  7.883E-03    0   0.8571   age078_m42            0.0000     3.9309E-06     8.0653   1.6453   115.0371
  7      0.0000     0.0000E+00    0.0000E+00    2.512000E+07  0.00400  5.251E-03    0   0.8174   age090_m42            0.0000     3.9863E-06     8.1921   1.2122   117.8840
  8      0.0000     0.0000E+00    0.0000E+00    4.000000E+07  0.00400  3.649E-03    0   0.7851   age104_m42            0.0000     3.9910E-06     8.1995   0.9985   118.1089
  9      0.0000     0.0000E+00    0.0000E+00    5.500000E+07  0.00400  3.098E-03    0   0.7629   age110_m42            0.0000     4.0327E-06     8.1630   1.1693   116.8611
 10      0.0000     0.0000E+00    0.0000E+00    1.015200E+08  0.00400  2.228E-03    0   0.7207   age116_m42            0.0000     4.0355E-06     8.1554   1.2009   116.3009
 11      0.0000     0.0000E+00    0.0000E+00    2.861200E+08  0.00400  1.093E-03    0   0.6648   age125_m42            0.0000     4.0012E-06     8.2812   0.6411   119.5562
 12      0.0000     0.0000E+00    0.0000E+00    5.088000E+08  0.00400  6.597E-04    0   0.6365   age130_m42            0.0000     3.9653E-06     8.1584   0.6498   119.2512
 13      3.5776     3.3114E-01    3.7222E-01    1.434000E+09  0.00400  2.132E-04    0   0.5798   age139_m42            0.0000     3.6647E-06     8.0138  -0.2958   120.0958
 14     11.9450     3.9986E+00    4.1684E+00    4.250000E+09  0.00400  5.895E-05    0   0.5377   age158_m42            0.0000     3.3732E-06     7.8712  -0.7515   115.4384
 15      0.0000     0.0000E+00    0.0000E+00    7.500000E+09  0.00400  3.510E-05    0   0.5212   age171_m42            0.0000     3.3261E-06     7.8797  -0.9369   114.2663
 16     12.2562     1.2063E+01    1.1773E+01    1.300000E+10  0.00400  2.005E-05    0   0.5034   age193_m42            0.0000     3.3857E-06     7.9560  -1.0000   110.0109
 17      1.9741     2.5545E+00    2.4599E+00    1.800000E+10  0.00400  1.525E-05    0   0.4967   age213_m42            0.0000     3.4047E-06     8.0618  -1.0000   108.8275
 18      0.0000     0.0000E+00    0.0000E+00    1.000000E+06  0.00800  1.238E-02    0   1.0000   age020_m52            0.0000     3.9475E-06     8.5621   2.3414   109.5680
 19      0.0000     0.0000E+00    0.0000E+00    3.160000E+06  0.00800  3.074E-02    0   0.9966   age045_m52            0.0000     3.9287E-06     8.5499   2.2706   110.2655
 20      0.0000     0.0000E+00    0.0000E+00    5.010000E+06  0.00800  2.668E-02    0   0.9443   age055_m52            0.0000     3.9103E-06     8.3248   2.0554   111.5894
 21      0.0000     0.0000E+00    0.0000E+00    6.610000E+06  0.00800  2.136E-02    0   0.9177   age061_m52            0.0000     3.7175E-06     7.9588   0.8271   118.9031
 22      0.0000     0.0000E+00    0.0000E+00    1.000000E+07  0.00800  1.215E-02    0   0.8827   age070_m52            0.0000     3.9626E-06     8.1636   1.5027   117.8677
 23      5.1527     1.1665E-02    1.9340E-02    1.445000E+07  0.00800  8.717E-03    0   0.8552   age078_m52            0.0000     3.9290E-06     8.0804   1.6179   116.3492
 24      0.0000     0.0000E+00    0.0000E+00    2.512000E+07  0.00800  5.592E-03    0   0.8162   age090_m52            0.0000     4.0084E-06     8.2648   1.2825   118.9949
 25      0.0000     0.0000E+00    0.0000E+00    4.000000E+07  0.00800  3.896E-03    0   0.7841   age104_m52            0.0000     4.0152E-06     8.2588   1.2150   118.7290
 26      0.0000     0.0000E+00    0.0000E+00    1.015200E+08  0.00800  2.148E-03    0   0.7226   age116_m52            0.0000     3.9738E-06     8.1470   1.1693   117.3778
 27      0.9723     1.9332E-02    2.5047E-02    2.861200E+08  0.00800  9.925E-04    0   0.6683   age125_m52            0.0000     3.9693E-06     8.1738   0.7207   120.1087
 28      0.0000     0.0000E+00    0.0000E+00    9.047900E+08  0.00800  3.141E-04    0   0.6138   age135_m52            0.0000     3.7746E-06     8.1068  -0.0157   121.2848
 29      0.0000     0.0000E+00    0.0000E+00    1.434000E+09  0.00800  1.719E-04    0   0.5853   age139_m52            0.0000     3.4443E-06     7.9505  -0.6219   119.8522
 30      0.0000     0.0000E+00    0.0000E+00    2.500000E+09  0.00800  7.872E-05    0   0.5600   age150_m52            0.0000     3.3377E-06     7.8869  -0.8869   115.8914
 31      0.0000     0.0000E+00    0.0000E+00    4.250000E+09  0.00800  4.336E-05    0   0.5426   age158_m52            0.0000     3.3097E-06     7.8697  -0.9044   114.8631
 32      0.0000     0.0000E+00    0.0000E+00    6.250000E+09  0.00800  3.159E-05    0   0.5319   age166_m52            0.0000     3.3659E-06     7.9754  -1.0000   110.8488
 33      6.0921     8.8330E+00    8.6874E+00    1.300000E+10  0.00800  1.361E-05    0   0.5073   age193_m52            0.0000     5.0551E-06    12.0554  -1.0000    94.2621
 34      0.0000     0.0000E+00    0.0000E+00    1.800000E+10  0.00800  9.886E-06    0   0.4990   age213_m52            0.0000     5.7265E-06    13.1026  -1.0000    90.0646
 35      0.0000     0.0000E+00    0.0000E+00    1.000000E+06  0.02000  1.544E-02    0   1.0000   age020_m62            0.0000     3.9462E-06     8.5682   2.3355   109.9116
 36      0.0000     0.0000E+00    0.0000E+00    3.160000E+06  0.02000  3.762E-02    0   0.9858   age045_m62            0.0000     3.9309E-06     8.5556   2.2734   110.8887
 37      0.0000     0.0000E+00    0.0000E+00    5.010000E+06  0.02000  3.296E-02    0   0.9342   age055_m62            0.0000     3.9524E-06     8.3238   1.9549   112.8675
 38      0.0000     0.0000E+00    0.0000E+00    8.710000E+06  0.02000  1.154E-02    0   0.8861   age067_m62            0.0000     4.2279E-06     9.3520   0.9039   125.7027
 39      0.0000     0.0000E+00    0.0000E+00    1.445000E+07  0.02000  7.663E-03    0   0.8472   age078_m62            0.0000     3.9988E-06     8.4862   1.1447   121.2972
 40      0.0000     0.0000E+00    0.0000E+00    2.512000E+07  0.02000  4.532E-03    0   0.8099   age090_m62            0.0000     4.0351E-06     8.6332   1.1396   120.9462
 41      0.0000     0.0000E+00    0.0000E+00    5.500000E+07  0.02000  2.733E-03    0   0.7595   age110_m62            0.0000     3.9068E-06     8.1430   1.1848   118.4873
 42      0.0000     0.0000E+00    0.0000E+00    1.609000E+08  0.02000  1.369E-03    0   0.6985   age120_m62            0.0000     3.9785E-06     8.1448   1.0642   119.3007
 43      0.0000     0.0000E+00    0.0000E+00    2.861200E+08  0.02000  9.013E-04    0   0.6714   age125_m62            0.0000     4.0444E-06     8.1914   0.8432   121.0553
 44      0.0000     0.0000E+00    0.0000E+00    5.088000E+08  0.02000  5.028E-04    0   0.6449   age130_m62            0.0000     4.0368E-06     8.1646   0.5152   121.1368
 45      0.0000     0.0000E+00    0.0000E+00    9.047900E+08  0.02000  2.428E-04    0   0.6179   age135_m62            0.0000     3.6150E-06     7.9434  -0.0621   119.5197
 46      0.0000     0.0000E+00    0.0000E+00    1.434000E+09  0.02000  1.263E-04    0   0.5908   age139_m62            0.0000     3.4003E-06     7.8454  -0.5128   117.8327
 47      0.0000     0.0000E+00    0.0000E+00    2.500000E+09  0.02000  5.985E-05    0   0.5673   age150_m62            0.0000     3.3096E-06     7.9589  -0.8804   115.7643
 48     32.3755     1.9532E+01    2.0706E+01    4.250000E+09  0.02000  3.271E-05    0   0.5468   age158_m62            0.0000     3.5127E-06     8.2926  -1.0000   107.9958
 49      4.9841     7.2319E+00    7.2445E+00    1.000000E+10  0.02000  1.360E-05    0   0.5167   age181_m62            0.0000     4.7759E-06    10.9878  -1.0000    95.4699
 50     11.3210     3.1359E+01    3.0478E+01    1.800000E+10  0.02000  7.124E-06    0   0.5013   age213_m62            0.0000     6.0678E-06    13.2350  -1.0000    87.7152
 51      0.0000     0.0000E+00    0.0000E+00    1.000000E+06  0.05000  2.592E-02    0   0.9998   age020_m72            0.0000     3.9356E-06     8.5744   2.3208   110.2277
 52      0.0845     3.4401E-05    6.3874E-05    3.160000E+06  0.05000  4.845E-02    0   0.9577   age045_m72            0.0000     3.9315E-06     8.4992   2.1788   111.3002
 53      1.8290     1.1749E-03    2.0835E-03    5.010000E+06  0.05000  3.072E-02    0   0.9147   age055_m72            0.0000     3.8963E-06     8.2341   1.7133   116.6779
 54      1.9169     2.5998E-03    4.4742E-03    6.610000E+06  0.05000  1.455E-02    0   0.8877   age061_m72            0.0000     4.8459E-06    11.1590   0.9198   128.7829
 55      0.0000     0.0000E+00    0.0000E+00    1.000000E+07  0.05000  9.074E-03    0   0.8524   age070_m72            0.0000     4.0548E-06     8.9240   1.8878   116.4398
 56      4.2718     1.9834E-02    3.0386E-02    2.512000E+07  0.05000  4.250E-03    0   0.7902   age090_m72            0.0000     4.0477E-06     8.6071   1.6261   117.1396
 57      0.0000     0.0000E+00    0.0000E+00    4.000000E+07  0.05000  3.087E-03    0   0.7618   age104_m72            0.0000     4.1173E-06     8.8010   1.4104   118.6966
 58      0.4330     5.0267E-03    6.9154E-03    1.015200E+08  0.05000  1.700E-03    0   0.7096   age116_m72            0.0000     4.0509E-06     8.3111   1.1967   119.5386
 59      0.0000     0.0000E+00    0.0000E+00    2.861200E+08  0.05000  7.384E-04    0   0.6633   age125_m72            0.0000     3.9831E-06     8.1742   0.7436   120.7818
 60      0.0000     0.0000E+00    0.0000E+00    5.088000E+08  0.05000  3.819E-04    0   0.6372   age130_m72            0.0000     3.7507E-06     8.0633   0.2852   120.4429
 61     12.9659     1.5266E+00    1.8084E+00    9.047900E+08  0.05000  1.676E-04    0   0.6110   age135_m72            0.0000     3.4090E-06     8.0374  -0.4042   117.2183
 62      0.0000     0.0000E+00    0.0000E+00    1.434000E+09  0.05000  8.837E-05    0   0.5874   age139_m72            0.0000     3.3270E-06     7.9859  -0.8658   116.6798
 63      0.0000     0.0000E+00    0.0000E+00    2.500000E+09  0.05000  4.233E-05    0   0.5598   age150_m72            0.0000     3.5005E-06     8.2884  -1.0000   108.6081
 64      0.0000     0.0000E+00    0.0000E+00    6.250000E+09  0.05000  1.435E-05    0   0.5249   age166_m72            0.0000     5.3368E-06    12.0837  -1.0000    91.8308
 65      4.1293     1.2511E+01    1.2215E+01    1.300000E+10  0.05000  6.513E-06    0   0.5036   age193_m72            0.0000     7.4254E-06    15.2928  -1.0000    83.5108
 66      0.0000     0.0000E+00    0.0000E+00    1.800000E+10  0.05000  4.527E-06    0   0.4945   age213_m72            0.0000     8.9101E-06    17.1506  -1.0000    78.2858


## Synthesis Results - Average & Chains ##

# j      x_j: min, <> & last-chain-values for 1 ...  7 chains
  1      0.0000      0.4694      0.8835      0.4892      0.0000      0.0000      0.0728      0.3265      0.2867
  2      0.0000      0.3412      0.3406      0.2731      0.0000      0.0000      0.1660      0.0679      0.3179
  3      0.0000      0.2716      0.3224      0.0329      0.1921      0.1178      0.6788      0.0735      0.0092
  4      0.0000      0.2782      0.0541      0.4618      0.0000      0.6918      0.0076      0.1621      0.0000
  5      0.0000      0.2326      0.0000      0.5713      0.0000      0.6496      0.1679      0.2587      0.0172
  6      0.0000      0.4851      0.3711      0.3620      1.3179      0.0000      0.0000      0.0000      0.0438
  7      0.0000      0.3509      0.0000      0.3014      0.0000      0.1961      0.4178      0.3111      0.1576
  8      0.0000      0.2878      0.1997      0.1817      0.5308      0.1064      0.0000      0.1107      0.2747
  9      0.0000      0.3298      0.3866      0.8120      0.0000      0.0000      0.0318      0.1364      0.6381
 10      0.0000      0.3524      0.5078      0.0000      0.0000      0.0000      0.0033      0.3179      0.0441
 11      0.0000      0.3570      0.0000      0.0000      0.2942      0.0614      0.1565      0.1375      0.1502
 12      0.0000      0.4205      0.0797      0.1235      0.8771      0.2162      0.1708      0.3399      0.1336
 13      3.5776     14.3956     14.5940      9.1208     14.1302     14.9899     14.8231     14.5406     14.6568
 14     11.9450      0.3467      0.4797      0.4201      0.8150      0.1211      0.0117      0.0000      0.2282
 15      0.0000      0.3804      0.0000      0.4454      0.0000      0.4990      0.0000      0.2058      0.3761
 16     12.2562      0.3117      1.0930      0.2261      0.7858      0.4487      0.1555      0.1669      0.0455
 17      1.9741      0.2691      0.0350      0.4048      0.3246      0.4236      0.1806      0.3672      0.3615
 18      0.0000      0.3029      0.1754      0.0624      0.0000      0.2298      0.3936      0.1621      0.2213
 19      0.0000      0.3139      0.2608      0.0000      0.9515      0.2656      0.3089      0.2201      0.3092
 20      0.0000      0.4307      0.0874      0.0000      0.0000      0.0000      0.0000      0.0729      0.0000
 21      0.0000      0.2198      0.0815      0.0129      0.0000      0.4155      0.0000      0.3086      0.1665
 22      0.0000      0.4119      0.0000      0.0235      0.2057      0.4887      0.5638      0.5925      0.0000
 23      5.1527      0.3621      1.1701      0.1232      0.8932      0.4007      0.6022      1.0582      0.2227
 24      0.0000      0.3057      0.1392      0.1432      0.7763      0.0441      0.3134      0.4848      0.0000
 25      0.0000      0.2273      0.0000      0.0000      0.0000      0.0000      0.8568      0.0000      0.0000
 26      0.0000      0.4522      0.3316      0.4425      0.0000      0.3980      0.5789      0.3658      0.0000
 27      0.9723      0.3295      0.0201      0.1704      0.3113      0.0000      0.0000      0.0000      0.1083
 28      0.0000      0.2264      0.0000      0.0000      0.1101      0.2231      0.2185      0.0455      0.0580
 29      0.0000      0.3758      0.0000      0.1292      0.0000      0.3877      0.9324      0.0000      0.6024
 30      0.0000      0.2548      0.1907      0.0316      0.0000      0.1593      0.2134      0.2813      0.0000
 31      0.0000      0.4528      0.0000      0.1588      0.0000      0.3022      0.6997      0.9173      0.2858
 32      0.0000      0.2757      0.0914      0.3118      0.9638      0.8886      0.3890      0.9897      0.0000
 33      6.0921      0.3066      0.1894      0.4428      1.2278      0.0000      0.5288      0.3938      0.0000
 34      0.0000      0.2859      0.0449      0.1112      0.5915      0.3725      0.4599      0.3442      0.5984
 35      0.0000      0.2847      0.5285      0.7497      0.2862      0.0000      0.4590      0.0000      0.1999
 36      0.0000      0.2902      0.5117      0.1904      0.3228      0.5242      0.0143      0.1622      0.0000
 37      0.0000      0.4045      0.1825      0.3050      0.0000      0.2947      0.2327      0.3318      0.1092
 38      0.0000      0.3724      0.2001      0.1240      0.0000      0.1782      0.0000      0.7180      0.2891
 39      0.0000      0.2659      0.1050      0.0830      0.0766      0.5053      0.1251      0.1626      0.4982
 40      0.0000      0.3926      0.0000      0.0000      0.6596      0.8896      0.0000      0.3223      0.0000
 41      0.0000      0.4283      0.0790      0.0000      0.0000      0.0092      0.6403      0.0704      0.1959
 42      0.0000      0.3084      0.8689      0.3747      0.4474      0.0871      0.7952      0.0000      0.1647
 43      0.0000      0.4222      0.0000      0.0452      0.3956      0.1790      0.0000      0.1577      0.2689
 44      0.0000     27.5370     28.3026     33.5740     25.4889     30.0933     27.7647     29.5086     29.5369
 45      0.0000      0.4216      0.3066      0.0000      0.0857      0.5678      0.3311      0.2041      0.2662
 46      0.0000      0.2606      0.2370      0.1555      0.1822      0.2369      0.5858      0.2486      0.0256
