###################################################################
## OUTPUT of StarlightChains_v04.for    [Cid@UFSC - 01/Apr/2007] ##
###################################################################

## Some input info
KUG0210-078._24_24.txt                   [arq_obs]
Base.CB07.vall.4m                        [arq_base]
Masks.EmLines.NEW.gm                     [arq_masks]
StCv04.C11.config                        [arq_config]
   66                                    [N_base]
    0                                    [N_YAV_components = # of components with extra extinction!]
    0                                    [i_FitPowerLaw (1/0 = Yes/No)]
-9.99                                    [alpha_PowerLaw]
CCM                                      [red_law_option]
 1.458241                                [q_norm = A(l_norm)/A(V)]

## (Re)Sampling Parameters
 3741.00                                 [l_ini (A)]
 7218.00                                 [l_fin (A)]
    1.00                                 [dl    (A)]     (OBS: dl_cushion =    50.00 A)

## Normalization info
 4020.00                                 [l_norm (A) - for base]
 4010.00                                 [llow_norm (A) - window for f_obs]
 4060.00                                 [lupp_norm (A) - window for f_obs]
1.362511E-17                             [fobs_norm (in input units)]

## S/N
 3691.00                                 [llow_SN (A) - window for S/N]
 7268.00                                 [lupp_SN (A) - window for S/N]
   5.229                                 [S/N in S/N window]
   5.282                                 [S/N in norm. window]
   0.017                                 [S/N_err in S/N window]
   0.018                                 [S/N_err in norm. window]
  1.0000                                 [fscale_chi2]

## etc...
    -2007275                             [idum_orig]
  2428                                   [NOl_eff]
  2218                                   [Nl_eff]
   210    NSIGMA                         [Ntot_cliped & clip_method]
 11598440                                [Nglobal_steps]
   7                                     [N_chains]
  43                                     [NEX0s_base = N_base in EX0s-fits]
 0   0   1      210   2.0   8.701E+03    [Clip-Bug, RC-Crash & Burn-In warning-flags, n_censored_weights, wei_nsig_threshold & wei_limit]
    87     86.534     85.855      0.679  [idt_all, wdt_TotTime, wdt_UsrTime & wdt_SysTime (sec)]

## Synthesis Results - Best model ##

 2.62121E-05                             [chi2/Nl_eff]
    11.48272                             [adev (%)]

   113.71835                             [sum-of-x (%)]
 4.02693E-17                             [Flux_tot (units of input spectrum!)]
 3.40513E-13                             [Mini_tot (???)]
 1.79589E-13                             [Mcor_tot (???)]

 205.83                                  [v0_min  (km/s)]
 483.74                                  [vd_min  (km/s)]
 0.7111                                  [AV_min  (mag)]
 0.0000                                  [YAV_min (mag)]

# j     x_j(%)      Mini_j(%)     Mcor_j(%)     age_j(yr)     Z_j      (L/M)_j    YAV?  Mstars   component_j        a/Fe...       SSP_chi2r SSP_adev(%)   SSP_AV   SSP_x(%)
  1      0.0073     6.9086E-05    1.3099E-04    1.000000E+06  0.00400  1.094E-02    0   1.0000   age020_m42            0.0000     2.9086E-05    15.5492   2.7302   103.4103
  2      8.1279     2.1095E-02    3.9993E-02    3.160000E+06  0.00400  4.007E-02    0   0.9999   age045_m42            0.0000     2.8346E-05    14.5777   2.1034   106.2944
  3      0.0000     0.0000E+00    0.0000E+00    5.010000E+06  0.00400  2.539E-02    0   0.9488   age055_m42            0.0000     2.8561E-05    14.9466   2.3770   105.6556
  4      0.3246     1.2884E-03    2.2524E-03    6.610000E+06  0.00400  2.620E-02    0   0.9220   age061_m42            0.0000     2.8150E-05    14.3525   2.0326   106.4793
  5      0.0000     0.0000E+00    0.0000E+00    1.000000E+07  0.00400  1.322E-02    0   0.8862   age070_m42            0.0000     2.7232E-05    13.0350   1.7754   108.4019
  6      2.4516     3.2343E-02    5.2561E-02    1.445000E+07  0.00400  7.883E-03    0   0.8571   age078_m42            0.0000     2.7491E-05    13.4604   2.0687   106.9790
  7      0.7966     1.5776E-02    2.4451E-02    2.512000E+07  0.00400  5.251E-03    0   0.8174   age090_m42            0.0000     2.7045E-05    12.7532   1.6557   108.6885
  8      0.0000     0.0000E+00    0.0000E+00    4.000000E+07  0.00400  3.649E-03    0   0.7851   age104_m42            0.0000     2.7014E-05    12.7128   1.4434   108.9179
  9      0.0000     0.0000E+00    0.0000E+00    5.500000E+07  0.00400  3.098E-03    0   0.7629   age110_m42            0.0000     2.7370E-05    13.1255   1.5995   108.4334
 10      1.3127     6.1271E-02    8.3727E-02    1.015200E+08  0.00400  2.228E-03    0   0.7207   age116_m42            0.0000     2.7596E-05    13.3476   1.6266   108.1481
 11      0.0000     0.0000E+00    0.0000E+00    2.861200E+08  0.00400  1.093E-03    0   0.6648   age125_m42            0.0000     2.7101E-05    12.4635   1.0936   109.8551
 12      0.0000     0.0000E+00    0.0000E+00    5.088000E+08  0.00400  6.597E-04    0   0.6365   age130_m42            0.0000     2.7299E-05    12.8209   1.0930   110.1344
 13      0.0000     0.0000E+00    0.0000E+00    1.434000E+09  0.00400  2.132E-04    0   0.5798   age139_m42            0.0000     2.6813E-05    12.7010   0.1462   111.2797
 14      0.0000     0.0000E+00    0.0000E+00    4.250000E+09  0.00400  5.895E-05    0   0.5377   age158_m42            0.0000     2.7497E-05    13.8438  -0.3483   108.9673
 15      0.0000     0.0000E+00    0.0000E+00    7.500000E+09  0.00400  3.510E-05    0   0.5212   age171_m42            0.0000     2.7750E-05    14.1402  -0.5449   108.4231
 16      0.0000     0.0000E+00    0.0000E+00    1.300000E+10  0.00400  2.005E-05    0   0.5034   age193_m42            0.0000     2.8016E-05    14.4246  -0.7171   107.9697
 17      0.0000     0.0000E+00    0.0000E+00    1.800000E+10  0.00400  1.525E-05    0   0.4967   age213_m42            0.0000     2.8000E-05    14.3793  -0.7424   107.6237
 18      0.0278     2.3337E-04    4.4249E-04    1.000000E+06  0.00800  1.238E-02    0   1.0000   age020_m52            0.0000     2.9086E-05    15.5633   2.7251   103.6741
 19      0.4277     1.4469E-03    2.7341E-03    3.160000E+06  0.00800  3.074E-02    0   0.9966   age045_m52            0.0000     2.9058E-05    15.5413   2.6548   104.3864
 20      0.0000     0.0000E+00    0.0000E+00    5.010000E+06  0.00800  2.668E-02    0   0.9443   age055_m52            0.0000     2.8607E-05    15.0105   2.4451   105.3628
 21      0.0000     2.2749E-07    3.9584E-07    6.610000E+06  0.00800  2.136E-02    0   0.9177   age061_m52            0.0000     2.7083E-05    13.1867   1.2675   110.0034
 22      0.0000     0.0000E+00    0.0000E+00    1.000000E+07  0.00800  1.215E-02    0   0.8827   age070_m52            0.0000     2.7071E-05    12.7730   1.9408   108.8643
 23      0.0000     0.0000E+00    0.0000E+00    1.445000E+07  0.00800  8.717E-03    0   0.8552   age078_m52            0.0000     2.7382E-05    13.2738   2.0445   108.0650
 24      0.0000     0.0000E+00    0.0000E+00    2.512000E+07  0.00800  5.592E-03    0   0.8162   age090_m52            0.0000     2.6963E-05    12.5153   1.7257   109.7272
 25      0.0000     0.0000E+00    0.0000E+00    4.000000E+07  0.00800  3.896E-03    0   0.7841   age104_m52            0.0000     2.6990E-05    12.5598   1.6503   109.8504
 26      0.0000     0.0000E+00    0.0000E+00    1.015200E+08  0.00800  2.148E-03    0   0.7226   age116_m52            0.0000     2.7249E-05    12.9779   1.5973   109.0482
 27      5.3791     5.6362E-01    7.1419E-01    2.861200E+08  0.00800  9.925E-04    0   0.6683   age125_m52            0.0000     2.7251E-05    12.7138   1.1597   111.1251
 28      1.5242     5.0463E-01    5.8729E-01    9.047900E+08  0.00800  3.141E-04    0   0.6138   age135_m52            0.0000     2.7095E-05    12.8077   0.3897   114.0647
 29     15.7847     9.5493E+00    1.0597E+01    1.434000E+09  0.00800  1.719E-04    0   0.5853   age139_m52            0.0000     2.6988E-05    13.0499  -0.2217   113.1356
 30      0.0000     0.0000E+00    0.0000E+00    2.500000E+09  0.00800  7.872E-05    0   0.5600   age150_m52            0.0000     2.7730E-05    14.0977  -0.5199   111.1461
 31      0.0000     0.0000E+00    0.0000E+00    4.250000E+09  0.00800  4.336E-05    0   0.5426   age158_m52            0.0000     2.7808E-05    14.2215  -0.5422   110.3651
 32      0.0000     0.0000E+00    0.0000E+00    6.250000E+09  0.00800  3.159E-05    0   0.5319   age166_m52            0.0000     2.8197E-05    14.6053  -0.7477   110.3114
 33      0.0000     0.0000E+00    0.0000E+00    1.300000E+10  0.00800  1.361E-05    0   0.5073   age193_m52            0.0000     2.9719E-05    14.4110  -1.0000   104.0220
 34      1.1548     1.2148E+01    1.1494E+01    1.800000E+10  0.00800  9.886E-06    0   0.4990   age213_m52            0.0000     3.1435E-05    14.9160  -1.0000   100.5962
 35      0.3027     2.0391E-03    3.8663E-03    1.000000E+06  0.02000  1.544E-02    0   1.0000   age020_m62            0.0000     2.9099E-05    15.5898   2.7192   104.0169
 36      0.0339     9.3703E-05    1.7514E-04    3.160000E+06  0.02000  3.762E-02    0   0.9858   age045_m62            0.0000     2.9117E-05    15.6438   2.6548   105.0475
 37      0.0000     0.0000E+00    0.0000E+00    5.010000E+06  0.02000  3.296E-02    0   0.9342   age055_m62            0.0000     2.8599E-05    14.9115   2.3496   106.3798
 38      0.0000     0.0000E+00    0.0000E+00    8.710000E+06  0.02000  1.154E-02    0   0.8861   age067_m62            0.0000     2.6182E-05    11.0969   1.4005   112.8529
 39      1.6354     2.2194E-02    3.5651E-02    1.445000E+07  0.02000  7.663E-03    0   0.8472   age078_m62            0.0000     2.6572E-05    11.9526   1.6015   111.0644
 40     16.6416     3.8187E-01    5.8641E-01    2.512000E+07  0.02000  4.532E-03    0   0.8099   age090_m62            0.0000     2.6503E-05    11.7875   1.5987   110.5693
 41      0.0000     0.0000E+00    0.0000E+00    5.500000E+07  0.02000  2.733E-03    0   0.7595   age110_m62            0.0000     2.6984E-05    12.6147   1.6238   109.5171
 42      0.0926     7.0371E-03    9.3200E-03    1.609000E+08  0.02000  1.369E-03    0   0.6985   age120_m62            0.0000     2.7303E-05    12.8373   1.4987   110.5382
 43      0.0379     4.3786E-03    5.5740E-03    2.861200E+08  0.02000  9.013E-04    0   0.6714   age125_m62            0.0000     2.7410E-05    12.8068   1.2780   112.2342
 44      0.0000     0.0000E+00    0.0000E+00    5.088000E+08  0.02000  5.028E-04    0   0.6449   age130_m62            0.0000     2.7601E-05    13.2097   0.9189   113.9386
 45      0.0000     0.0000E+00    0.0000E+00    9.047900E+08  0.02000  2.428E-04    0   0.6179   age135_m62            0.0000     2.7357E-05    13.4876   0.3128   114.0093
 46      0.0000     0.0000E+00    0.0000E+00    1.434000E+09  0.02000  1.263E-04    0   0.5908   age139_m62            0.0000     2.7529E-05    13.8512  -0.1576   113.4330
 47      0.0000     0.0000E+00    0.0000E+00    2.500000E+09  0.02000  5.985E-05    0   0.5673   age150_m62            0.0000     2.8278E-05    14.6327  -0.5484   112.7265
 48      0.0000     0.0000E+00    0.0000E+00    4.250000E+09  0.02000  3.271E-05    0   0.5468   age158_m62            0.0000     2.9138E-05    15.3374  -0.8704   112.1651
 49      9.7274     7.4382E+01    7.2872E+01    1.000000E+10  0.02000  1.360E-05    0   0.5167   age181_m62            0.0000     3.1207E-05    15.1777  -1.0000   105.9450
 50      0.0058     8.4124E-02    7.9959E-02    1.800000E+10  0.02000  7.124E-06    0   0.5013   age213_m62            0.0000     3.4899E-05    15.9364  -1.0000    99.4059
 51      0.0000     0.0000E+00    0.0000E+00    1.000000E+06  0.05000  2.592E-02    0   0.9998   age020_m72            0.0000     2.9160E-05    15.6436   2.7014   104.4480
 52      0.0000     0.0000E+00    0.0000E+00    3.160000E+06  0.05000  4.845E-02    0   0.9577   age045_m72            0.0000     2.9016E-05    15.4969   2.5602   105.4710
 53      0.7856     2.6594E-03    4.6123E-03    5.010000E+06  0.05000  3.072E-02    0   0.9147   age055_m72            0.0000     2.7298E-05    13.1289   2.1345   108.5194
 54     35.7910     2.5581E-01    4.3057E-01    6.610000E+06  0.05000  1.455E-02    0   0.8877   age061_m72            0.0000     2.6743E-05    11.9734   1.4315   114.2394
 55      0.0000     0.0000E+00    0.0000E+00    1.000000E+07  0.05000  9.074E-03    0   0.8524   age070_m72            0.0000     2.7510E-05    13.4835   2.3022   108.3593
 56      0.0000     0.0000E+00    0.0000E+00    2.512000E+07  0.05000  4.250E-03    0   0.7902   age090_m72            0.0000     2.7137E-05    12.7390   2.0509   108.6028
 57      0.0000     0.0000E+00    0.0000E+00    4.000000E+07  0.05000  3.087E-03    0   0.7618   age104_m72            0.0000     2.6987E-05    12.3474   1.8499   109.4014
 58      9.0889     5.5599E-01    7.4806E-01    1.015200E+08  0.05000  1.700E-03    0   0.7096   age116_m72            0.0000     2.7183E-05    12.5368   1.6357   110.4024
 59      0.0000     0.0000E+00    0.0000E+00    2.861200E+08  0.05000  7.384E-04    0   0.6633   age125_m72            0.0000     2.7586E-05    12.9540   1.1523   113.2945
 60      0.0000     0.0000E+00    0.0000E+00    5.088000E+08  0.05000  3.819E-04    0   0.6372   age130_m72            0.0000     2.7621E-05    13.4989   0.6554   115.0876
 61      2.2525     1.3977E+00    1.6192E+00    9.047900E+08  0.05000  1.676E-04    0   0.6110   age135_m72            0.0000     2.8266E-05    14.6228  -0.0856   114.6873
 62      0.0039     4.6195E-03    5.1450E-03    1.434000E+09  0.05000  8.837E-05    0   0.5874   age139_m72            0.0000     2.8351E-05    14.6168  -0.5490   114.3414
 63      0.0000     0.0000E+00    0.0000E+00    2.500000E+09  0.05000  4.233E-05    0   0.5598   age150_m72            0.0000     2.9510E-05    15.5659  -0.8792   113.4154
 64      0.0000     0.0000E+00    0.0000E+00    6.250000E+09  0.05000  1.435E-05    0   0.5249   age166_m72            0.0000     3.2704E-05    15.4444  -1.0000   102.9972
 65      0.0000     0.0000E+00    0.0000E+00    1.300000E+10  0.05000  6.513E-06    0   0.5036   age193_m72            0.0000     3.9012E-05    17.2189  -1.0000    96.0354
 66      0.0000     0.0000E+00    0.0000E+00    1.800000E+10  0.05000  4.527E-06    0   0.4945   age213_m72            0.0000     4.4139E-05    18.8011  -1.0000    91.1259


## Synthesis Results - Average & Chains ##

# j      x_j: min, <> & last-chain-values for 1 ...  7 chains
  1      0.0073     28.9077     24.5598     24.4690     35.2320     23.9723     25.6195     24.3717     20.2129
  2      8.1279      0.1842      0.1719      0.3385      0.2263      0.0000      0.3346      0.9669      1.5973
  3      0.0000      0.2235      0.0000      0.9321      0.0538      1.1420      0.0000      0.0764      1.5906
  4      0.3246      0.2115      0.2397      0.0770      0.0946      0.3603      0.4057      0.0302      3.0986
  5      0.0000      0.1840      0.3595      0.1388      0.0034      0.6888      0.0000      0.0000      0.5060
  6      2.4516      0.1813      0.5795      0.2295      0.0588      0.5039      0.3651      0.2616      0.9356
  7      0.7966      0.2099      0.4513      0.0000      0.2188      0.8267      0.4819      0.2502      1.1420
  8      0.0000      0.1626      0.0000      0.3440      0.0224      0.3263      0.7066      0.0000      0.2895
  9      0.0000      0.1650      0.0000      0.2661      0.0207      0.0000      0.6114      1.4000      0.0000
 10      1.3127      0.2528      0.3110      0.1709      0.2437      0.0000      1.1942      0.0000      0.5547
 11      0.0000      0.1503      0.0000      0.0000      0.0000      0.2178      0.1553      0.0000      0.4854
 12      0.0000      0.2197      0.0000      0.0000      0.0207      0.0000      1.1338      0.0000      0.7883
 13      0.0000      0.2417      0.1431      0.9566      0.0000      1.1351      1.5966      0.0000      0.0000
 14      0.0000      0.2311      0.9536      0.2171      0.0493      1.6613      0.6110      1.5706      0.0751
 15      0.0000      0.1743      0.3108      0.0974      0.1570      1.3928      0.9736      0.0000      1.4496
 16      0.0000      0.1964      0.1901      0.7189      0.1530      0.0725      0.9541      0.0000      0.0000
 17      0.0000      0.2340      0.0180      0.5728      0.1649      0.2301      0.4720      0.3790      0.8210
 18      0.0278      3.7490      4.3170      3.8431      2.0380      3.8635      3.4244      3.4791      5.6707
 19      0.4277      0.1826      0.8917      0.0000      0.1693      0.8281      0.0000      0.4518      0.5219
 20      0.0000      0.1714      0.0813      0.3166      0.0007      2.4720      0.5983      0.3462      0.0372
 21      0.0000      0.1626      0.0000      0.5750      0.0118      0.1105      0.7319      0.0000      0.6702
 22      0.0000      0.1851      0.4517      0.0762      0.0597      0.3053      0.5064      0.2397      0.0000
 23      0.0000      0.1896      0.5769      0.3934      0.0560      1.3714      0.0000      0.5066      0.1795
 24      0.0000      0.1962      0.1023      0.0000      0.0518      0.0000      0.4675      0.7520      0.4239
 25      0.0000      0.1526      0.0514      0.1626      0.0521      0.2788      0.0441      2.0463      0.3328
 26      0.0000      0.1803      0.0000      0.0710      0.2609      0.4062      0.9099      0.5941      0.1705
 27      5.3791      0.1830      0.3155      0.4739      0.0000      0.2342      0.0000      0.2918      0.6958
 28      1.5242      0.2053      0.4004      0.6452      0.0132      0.0000      0.0421      1.0362      2.8870
 29     15.7847      0.1604      0.0000      0.7272      0.3513      0.6711      0.2586      0.4298      0.8908
 30      0.0000      0.2147      0.6314      0.6132      0.0081      0.5080      1.5664      0.9432      0.5167
 31      0.0000      0.2284      0.7800      0.1202      0.0000      0.6193      0.0705      0.5924      0.0000
 32      0.0000      0.2886      0.5438      0.7329      0.0448      2.1225      0.2579      1.5021      0.3262
 33      0.0000      0.2140      0.8173      0.5460      0.0997      0.2112      1.2334      0.7510      0.3046
 34      1.1548     11.1011      9.6979     10.3975     11.6156      8.8727      9.8528     10.9247      7.2651
 35      0.3027      0.3255      0.0000      0.5676      0.2948      0.8785      0.3187      0.6403      3.1414
 36      0.0339      0.2724      0.1910      0.5251      0.1944      0.6871      0.0626      0.3145      0.6945
 37      0.0000      0.1613      0.3085      0.0308      0.1376      0.0641      0.0000      0.1993      0.1115
 38      0.0000      0.1871      0.6436      0.2525      0.1005      0.5430      0.2519      0.7455      0.5328
 39      1.6354      0.1729      0.1909      0.3180      0.0474      0.4694      0.0000      0.7875      1.5522
 40     16.6416      0.1809      0.9115      0.1066      0.0000      1.0680      0.0040      2.2541      1.0247
 41      0.0000      0.2291      1.6280      0.1500      0.2305      0.5407      0.0000      0.3073      0.0000
 42      0.0926      0.1988      0.0915      0.8442      0.3099      0.3235      0.5532      0.0000      0.4282
 43      0.0379      0.1996      0.5464      0.7648      0.0808      0.8093      0.5499      0.0443      0.6101
 44      0.0000      0.2616      0.0000      0.7588      0.0507      0.3724      0.3766      1.7339      0.0000
 45      0.0000      0.1808      0.1076      0.0678      0.0352      1.5177      0.5379      0.0929      0.1339
 46      0.0000      0.1953      0.3106      0.7691      0.0047      1.2762      0.0898      0.1437      0.2879
