###################################################################
## OUTPUT of StarlightChains_v04.for    [Cid@UFSC - 01/Apr/2007] ##
###################################################################

## Some input info
KUG0210-078._53_28.txt                   [arq_obs]
Base.CB07.vall.4m                        [arq_base]
Masks.EmLines.NEW.gm                     [arq_masks]
StCv04.C11.config                        [arq_config]
   66                                    [N_base]
    0                                    [N_YAV_components = # of components with extra extinction!]
    0                                    [i_FitPowerLaw (1/0 = Yes/No)]
-9.99                                    [alpha_PowerLaw]
CCM                                      [red_law_option]
 1.458241                                [q_norm = A(l_norm)/A(V)]

## (Re)Sampling Parameters
 3741.00                                 [l_ini (A)]
 7218.00                                 [l_fin (A)]
    1.00                                 [dl    (A)]     (OBS: dl_cushion =    50.00 A)

## Normalization info
 4020.00                                 [l_norm (A) - for base]
 4010.00                                 [llow_norm (A) - window for f_obs]
 4060.00                                 [lupp_norm (A) - window for f_obs]
6.273437E-18                             [fobs_norm (in input units)]

## S/N
 3691.00                                 [llow_SN (A) - window for S/N]
 7268.00                                 [lupp_SN (A) - window for S/N]
   2.398                                 [S/N in S/N window]
   2.228                                 [S/N in norm. window]
   0.010                                 [S/N_err in S/N window]
   0.010                                 [S/N_err in norm. window]
  1.0000                                 [fscale_chi2]

## etc...
    -2007991                             [idum_orig]
  2421                                   [NOl_eff]
  2135                                   [Nl_eff]
   286    NSIGMA                         [Ntot_cliped & clip_method]
 10062010                                [Nglobal_steps]
   7                                     [N_chains]
   7                                     [NEX0s_base = N_base in EX0s-fits]
 0   0   1      286   2.0   4.717E+03    [Clip-Bug, RC-Crash & Burn-In warning-flags, n_censored_weights, wei_nsig_threshold & wei_limit]
    68     68.263     67.594      0.669  [idt_all, wdt_TotTime, wdt_UsrTime & wdt_SysTime (sec)]

## Synthesis Results - Best model ##

 1.92726E-05                             [chi2/Nl_eff]
    50.59529                             [adev (%)]

   130.00000                             [sum-of-x (%)]
 1.75113E-16                             [Flux_tot (units of input spectrum!)]
 7.96898E-15                             [Mini_tot (???)]
 7.96799E-15                             [Mcor_tot (???)]

 266.85                                  [v0_min  (km/s)]
   7.16                                  [vd_min  (km/s)]
 2.2833                                  [AV_min  (mag)]
 0.0000                                  [YAV_min (mag)]

# j     x_j(%)      Mini_j(%)     Mcor_j(%)     age_j(yr)     Z_j      (L/M)_j    YAV?  Mstars   component_j        a/Fe...       SSP_chi2r SSP_adev(%)   SSP_AV   SSP_x(%)
  1      0.0000     0.0000E+00    0.0000E+00    1.000000E+06  0.00400  1.094E-02    0   1.0000   age020_m42            0.0000     1.8645E-05    49.6199   2.0125   146.0455
  2      0.0000     0.0000E+00    0.0000E+00    3.160000E+06  0.00400  4.007E-02    0   0.9999   age045_m42            0.0000     1.9724E-05    50.0865   1.2898   155.2466
  3      0.0000     0.0000E+00    0.0000E+00    5.010000E+06  0.00400  2.539E-02    0   0.9488   age055_m42            0.0000     1.9351E-05    50.0726   1.6083   151.8733
  4      0.0000     0.0000E+00    0.0000E+00    6.610000E+06  0.00400  2.620E-02    0   0.9220   age061_m42            0.0000     1.9971E-05    50.2453   1.2195   155.4838
  5      0.0000     0.0000E+00    0.0000E+00    1.000000E+07  0.00400  1.322E-02    0   0.8862   age070_m42            0.0000     1.9930E-05    51.7782   0.9592   158.3338
  6      0.0000     0.0000E+00    0.0000E+00    1.445000E+07  0.00400  7.883E-03    0   0.8571   age078_m42            0.0000     1.9630E-05    51.6076   1.2839   154.4521
  7      0.0000     0.0000E+00    0.0000E+00    2.512000E+07  0.00400  5.251E-03    0   0.8174   age090_m42            0.0000     2.0092E-05    52.2163   0.8404   158.7236
  8      0.0000     0.0000E+00    0.0000E+00    4.000000E+07  0.00400  3.649E-03    0   0.7851   age104_m42            0.0000     2.0221E-05    51.9727   0.6134   159.8729
  9      0.0000     0.0000E+00    0.0000E+00    5.500000E+07  0.00400  3.098E-03    0   0.7629   age110_m42            0.0000     2.0590E-05    51.2354   0.7582   159.8989
 10      0.0000     0.0000E+00    0.0000E+00    1.015200E+08  0.00400  2.228E-03    0   0.7207   age116_m42            0.0000     2.1003E-05    50.8946   0.7746   160.1189
 11      0.0000     0.0000E+00    0.0000E+00    2.861200E+08  0.00400  1.093E-03    0   0.6648   age125_m42            0.0000     2.1647E-05    52.5266   0.2203   163.7983
 12      0.0000     0.0000E+00    0.0000E+00    5.088000E+08  0.00400  6.597E-04    0   0.6365   age130_m42            0.0000     2.2189E-05    51.8061   0.2159   164.4041
 13      0.0000     0.0000E+00    0.0000E+00    1.434000E+09  0.00400  2.132E-04    0   0.5798   age139_m42            0.0000     2.1496E-05    50.6531  -0.7333   166.1748
 14      0.0000     0.0000E+00    0.0000E+00    4.250000E+09  0.00400  5.895E-05    0   0.5377   age158_m42            0.0000     2.0352E-05    51.8747  -1.0000   153.1099
 15      0.0000     0.0000E+00    0.0000E+00    7.500000E+09  0.00400  3.510E-05    0   0.5212   age171_m42            0.0000     2.0787E-05    54.9302  -1.0000   144.5762
 16      0.0000     0.0000E+00    0.0000E+00    1.300000E+10  0.00400  2.005E-05    0   0.5034   age193_m42            0.0000     2.1550E-05    58.0066  -1.0000   137.1240
 17      0.0000     0.0000E+00    0.0000E+00    1.800000E+10  0.00400  1.525E-05    0   0.4967   age213_m42            0.0000     2.1544E-05    58.6670  -1.0000   135.7572
 18      0.0000     0.0000E+00    0.0000E+00    1.000000E+06  0.00800  1.238E-02    0   1.0000   age020_m52            0.0000     1.8596E-05    49.5708   2.0052   146.5315
 19      0.0000     0.0000E+00    0.0000E+00    3.160000E+06  0.00800  3.074E-02    0   0.9966   age045_m52            0.0000     1.8626E-05    49.4783   1.9276   147.9167
 20      0.0000     0.0000E+00    0.0000E+00    5.010000E+06  0.00800  2.668E-02    0   0.9443   age055_m52            0.0000     1.9075E-05    49.7949   1.6859   150.8889
 21      0.0000     0.0000E+00    0.0000E+00    6.610000E+06  0.00800  2.136E-02    0   0.9177   age061_m52            0.0000     1.9244E-05    51.1994   0.4680   159.6895
 22      0.0000     0.0000E+00    0.0000E+00    1.000000E+07  0.00800  1.215E-02    0   0.8827   age070_m52            0.0000     1.9736E-05    52.6415   1.1442   157.8493
 23      0.0000     0.0000E+00    0.0000E+00    1.445000E+07  0.00800  8.717E-03    0   0.8552   age078_m52            0.0000     1.9728E-05    51.7148   1.2492   156.5721
 24      0.0000     0.0000E+00    0.0000E+00    2.512000E+07  0.00800  5.592E-03    0   0.8162   age090_m52            0.0000     2.0183E-05    52.5760   0.9030   160.5416
 25      0.0000     0.0000E+00    0.0000E+00    4.000000E+07  0.00800  3.896E-03    0   0.7841   age104_m52            0.0000     2.0476E-05    52.3419   0.8144   161.4433
 26      0.0000     0.0000E+00    0.0000E+00    1.015200E+08  0.00800  2.148E-03    0   0.7226   age116_m52            0.0000     2.0886E-05    51.4829   0.7495   160.9650
 27      0.0000     0.0000E+00    0.0000E+00    2.861200E+08  0.00800  9.925E-04    0   0.6683   age125_m52            0.0000     2.2013E-05    51.6429   0.2761   166.2806
 28      0.0000     0.0000E+00    0.0000E+00    9.047900E+08  0.00800  3.141E-04    0   0.6138   age135_m52            0.0000     2.1987E-05    50.9551  -0.4887   170.0594
 29      0.0000     0.0000E+00    0.0000E+00    1.434000E+09  0.00800  1.719E-04    0   0.5853   age139_m52            0.0000     2.0951E-05    51.8162  -1.0000   164.2158
 30      0.0000     0.0000E+00    0.0000E+00    2.500000E+09  0.00800  7.872E-05    0   0.5600   age150_m52            0.0000     2.1064E-05    54.4081  -1.0000   149.1586
 31      0.0000     0.0000E+00    0.0000E+00    4.250000E+09  0.00800  4.336E-05    0   0.5426   age158_m52            0.0000     2.0902E-05    54.5221  -1.0000   147.0862
 32      0.0000     0.0000E+00    0.0000E+00    6.250000E+09  0.00800  3.159E-05    0   0.5319   age166_m52            0.0000     2.2000E-05    57.8804  -1.0000   138.6467
 33      0.0000     0.0000E+00    0.0000E+00    1.300000E+10  0.00800  1.361E-05    0   0.5073   age193_m52            0.0000     2.5870E-05    66.9893  -1.0000   118.5304
 34      0.0000     0.0000E+00    0.0000E+00    1.800000E+10  0.00800  9.886E-06    0   0.4990   age213_m52            0.0000     2.7174E-05    68.4480  -1.0000   113.3708
 35     34.3904     3.7650E+01    3.7654E+01    1.000000E+06  0.02000  1.544E-02    0   1.0000   age020_m62            0.0000     1.8544E-05    49.5250   1.9970   147.0887
 36      0.0000     0.0000E+00    0.0000E+00    3.160000E+06  0.02000  3.762E-02    0   0.9858   age045_m62            0.0000     1.8598E-05    49.5047   1.9335   148.5296
 37      0.0000     0.0000E+00    0.0000E+00    5.010000E+06  0.02000  3.296E-02    0   0.9342   age055_m62            0.0000     1.9499E-05    49.6466   1.5575   154.2297
 38      0.0000     0.0000E+00    0.0000E+00    8.710000E+06  0.02000  1.154E-02    0   0.8861   age067_m62            0.0000     1.9859E-05    56.9788   0.6368   161.3532
 39      0.0000     0.0000E+00    0.0000E+00    1.445000E+07  0.02000  7.663E-03    0   0.8472   age078_m62            0.0000     1.9821E-05    54.3033   0.8057   160.7605
 40      0.0000     0.0000E+00    0.0000E+00    2.512000E+07  0.02000  4.532E-03    0   0.8099   age090_m62            0.0000     2.0090E-05    54.7717   0.7994   160.2279
 41      0.0000     0.0000E+00    0.0000E+00    5.500000E+07  0.02000  2.733E-03    0   0.7595   age110_m62            0.0000     2.0335E-05    52.1781   0.7938   160.6116
 42      0.0000     0.0000E+00    0.0000E+00    1.609000E+08  0.02000  1.369E-03    0   0.6985   age120_m62            0.0000     2.1492E-05    51.3180   0.6253   164.8043
 43      0.0000     0.0000E+00    0.0000E+00    2.861200E+08  0.02000  9.013E-04    0   0.6714   age125_m62            0.0000     2.2423E-05    50.8770   0.3873   168.4702
 44      0.0000     0.0000E+00    0.0000E+00    5.088000E+08  0.02000  5.028E-04    0   0.6449   age130_m62            0.0000     2.2688E-05    49.9497   0.0293   170.8838
 45      0.0000     0.0000E+00    0.0000E+00    9.047900E+08  0.02000  2.428E-04    0   0.6179   age135_m62            0.0000     2.1495E-05    49.4557  -0.5523   168.8991
 46      0.0000     0.0000E+00    0.0000E+00    1.434000E+09  0.02000  1.263E-04    0   0.5908   age139_m62            0.0000     2.0712E-05    48.8489  -1.0000   166.4550
 47      0.0000     0.0000E+00    0.0000E+00    2.500000E+09  0.02000  5.985E-05    0   0.5673   age150_m62            0.0000     2.1070E-05    53.4368  -1.0000   149.7438
 48      0.0000     0.0000E+00    0.0000E+00    4.250000E+09  0.02000  3.271E-05    0   0.5468   age158_m62            0.0000     2.2968E-05    58.2395  -1.0000   135.6748
 49      0.0000     0.0000E+00    0.0000E+00    1.000000E+10  0.02000  1.360E-05    0   0.5167   age181_m62            0.0000     2.6236E-05    64.4230  -1.0000   120.3601
 50      0.0000     0.0000E+00    0.0000E+00    1.800000E+10  0.02000  7.124E-06    0   0.5013   age213_m62            0.0000     2.8837E-05    67.9201  -1.0000   110.6327
 51     95.6096     6.2350E+01    6.2346E+01    1.000000E+06  0.05000  2.592E-02    0   0.9998   age020_m72            0.0000     1.8336E-05    49.5056   1.9846   147.4636
 52      0.0000     0.0000E+00    0.0000E+00    3.160000E+06  0.05000  4.845E-02    0   0.9577   age045_m72            0.0000     1.8966E-05    49.4203   1.8152   150.3594
 53      0.0000     0.0000E+00    0.0000E+00    5.010000E+06  0.05000  3.072E-02    0   0.9147   age055_m72            0.0000     1.9412E-05    53.7305   1.3666   155.4077
 54      0.0000     0.0000E+00    0.0000E+00    6.610000E+06  0.05000  1.455E-02    0   0.8877   age061_m72            0.0000     2.0759E-05    62.5574   0.6755   162.3558
 55      0.0000     0.0000E+00    0.0000E+00    1.000000E+07  0.05000  9.074E-03    0   0.8524   age070_m72            0.0000     1.9798E-05    56.2766   1.5338   155.0034
 56      0.0000     0.0000E+00    0.0000E+00    2.512000E+07  0.05000  4.250E-03    0   0.7902   age090_m72            0.0000     2.0299E-05    54.7433   1.2433   157.6682
 57      0.0000     0.0000E+00    0.0000E+00    4.000000E+07  0.05000  3.087E-03    0   0.7618   age104_m72            0.0000     2.0631E-05    55.1003   1.0213   160.1137
 58      0.0000     0.0000E+00    0.0000E+00    1.015200E+08  0.05000  1.700E-03    0   0.7096   age116_m72            0.0000     2.1452E-05    52.3046   0.7687   164.1769
 59      0.0000     0.0000E+00    0.0000E+00    2.861200E+08  0.05000  7.384E-04    0   0.6633   age125_m72            0.0000     2.2668E-05    50.3764   0.2705   169.4135
 60      0.0000     0.0000E+00    0.0000E+00    5.088000E+08  0.05000  3.819E-04    0   0.6372   age130_m72            0.0000     2.1966E-05    49.0005  -0.2130   170.9105
 61      0.0000     0.0000E+00    0.0000E+00    9.047900E+08  0.05000  1.676E-04    0   0.6110   age135_m72            0.0000     2.0807E-05    47.1608  -0.9182   167.4766
 62      0.0000     0.0000E+00    0.0000E+00    1.434000E+09  0.05000  8.837E-05    0   0.5874   age139_m72            0.0000     2.1335E-05    53.3573  -1.0000   151.5284
 63      0.0000     0.0000E+00    0.0000E+00    2.500000E+09  0.05000  4.233E-05    0   0.5598   age150_m72            0.0000     2.2909E-05    57.8926  -1.0000   136.7406
 64      0.0000     0.0000E+00    0.0000E+00    6.250000E+09  0.05000  1.435E-05    0   0.5249   age166_m72            0.0000     2.7169E-05    66.1804  -1.0000   115.9167
 65      0.0000     0.0000E+00    0.0000E+00    1.300000E+10  0.05000  6.513E-06    0   0.5036   age193_m72            0.0000     3.1081E-05    70.9459  -1.0000   105.2919
 66      0.0000     0.0000E+00    0.0000E+00    1.800000E+10  0.05000  4.527E-06    0   0.4945   age213_m72            0.0000     3.3523E-05    73.6180  -1.0000    98.5098


## Synthesis Results - Average & Chains ##

# j      x_j: min, <> & last-chain-values for 1 ...  7 chains
  1      0.0000      0.2024      0.0000      0.1148      0.0000      0.0000      0.0099      0.0338      0.0041
  2      0.0000      0.3279      0.0250      0.0605      0.0000      0.0011      0.0000      0.0368      0.0000
  3      0.0000      0.2425      0.0000      0.0438      0.0428      0.0029      0.0100      0.0000      0.0015
  4      0.0000      0.2534      0.0000      0.1422      0.0090      0.0118      0.0096      0.0000      0.0080
  5      0.0000      0.3158      0.0270      0.1790      0.0242      0.0000      0.0106      0.0189      0.0119
  6      0.0000      0.3069      0.0227      0.0140      0.0173      0.0253      0.0000      0.0308      0.0001
  7      0.0000      0.3016      0.0323      0.0497      0.0041      0.0098      0.0000      0.0075      0.0000
  8      0.0000      0.2574      0.0048      0.0193      0.0372      0.0209      0.0209      0.0000      0.0000
  9      0.0000      0.2652      0.0000      0.1121      0.0000      0.0244      0.0000      0.0018      0.0057
 10      0.0000      0.3201      0.0325      0.0451      0.0000      0.0214      0.0000      0.0000      0.0023
 11      0.0000      0.2282      0.0259      0.0000      0.0154      0.0196      0.0131      0.0000      0.0103
 12      0.0000      0.2740      0.0071      0.0271      0.0025      0.0000      0.0185      0.0029      0.0000
 13      0.0000      0.1619      0.0000      0.0138      0.0084      0.0243      0.0000      0.0000      0.0000
 14      0.0000      0.2735      0.0096      0.1069      0.0049      0.0096      0.0039      0.0468      0.0000
 15      0.0000      0.2695      0.0000      0.0124      0.0139      0.0000      0.0033      0.0215      0.0216
 16      0.0000      7.2903     16.9353      5.3961     12.6756      6.8571      0.3028      6.6253      3.6896
 17      0.0000     17.1190     11.8232     18.5910     16.5730     14.4623     29.3785     18.8032     20.2844
 18      0.0000      0.3672      0.0268      0.0428      0.0000      0.0000      0.0079      0.0599      0.0057
 19      0.0000      0.2508      0.0104      0.0161      0.0630      0.0274      0.0000      0.0171      0.0025
 20      0.0000      0.2611      0.0000      0.0658      0.0253      0.0410      0.0072      0.0185      0.0000
 21      0.0000      0.3382      0.0129      0.0113      0.0287      0.0014      0.0040      0.0909      0.0000
 22      0.0000      0.3321      0.0354      0.0000      0.0422      0.0000      0.0103      0.0000      0.0150
 23      0.0000      0.2948      0.0000      0.0985      0.0000      0.0016      0.0318      0.0134      0.0137
 24      0.0000      0.2836      0.0000      0.0169      0.0002      0.0102      0.0241      0.0143      0.0000
 25      0.0000      0.3326      0.0138      0.0557      0.0093      0.0019      0.0000      0.0500      0.0064
 26      0.0000      0.2831      0.0158      0.0552      0.0012      0.0000      0.0352      0.0000      0.0037
 27      0.0000      0.2804      0.0000      0.0167      0.0060      0.0000      0.0418      0.0301      0.0000
 28      0.0000      0.2548      0.0230      0.0506      0.0131      0.0247      0.0071      0.0005      0.0173
 29      0.0000      0.3136      0.0032      0.0388      0.0000      0.0000      0.0000      0.0345      0.0078
 30      0.0000      0.3324      0.0000      0.0580      0.0000      0.0111      0.0000      0.0144      0.0113
 31      0.0000      0.2378      0.0000      0.0416      0.0346      0.0046      0.0000      0.0312      0.0000
 32      0.0000      0.3267      0.0166      0.0519      0.0378      0.0512      0.0530      0.0000      0.0083
 33      0.0000      1.2139      0.2981      1.1468      0.4121      5.5164      0.5430      0.6953      0.0467
 34      0.0000      1.8217      0.8768      3.2722      0.3289      0.8030      0.5759      2.8467      4.5089
 35     34.3904      1.0277      5.2872      0.9801      0.1410      0.1797      0.0848      0.1488      0.0468
 36      0.0000      0.3542      0.0000      0.2243      0.0283      0.0210      0.0000      0.0115      0.0000
 37      0.0000      0.2400      0.0418      0.0907      0.0236      0.0000      0.0000      0.0615      0.0032
 38      0.0000      0.2963      0.0059      0.0791      0.0155      0.0045      0.0038      0.0183      0.0099
 39      0.0000      0.3420      0.0452      0.0000      0.0160      0.0000      0.0000      0.0162      0.0022
 40      0.0000      0.3224      0.0263      0.0000      0.0000      0.0000      0.0000      0.0106      0.0000
 41      0.0000      0.2233      0.0123      0.1442      0.0000      0.0019      0.0000      0.0000      0.0000
 42      0.0000      0.2578      0.0093      0.0714      0.0013      0.0025      0.0656      0.0040      0.0000
 43      0.0000      0.2922      0.0001      0.0000      0.0184      0.0047      0.0239      0.0314      0.0103
 44      0.0000      0.2632      0.0060      0.0000      0.0000      0.0301      0.0017      0.0787      0.0000
 45      0.0000      0.3702      0.0064      0.0234      0.0137      0.0096      0.0120      0.0163      0.0113
 46      0.0000      0.2526      0.0412      0.1036      0.0437      0.0000      0.0246      0.0293      0.0058
