###################################################################
## OUTPUT of StarlightChains_v04.for    [Cid@UFSC - 01/Apr/2007] ##
###################################################################

## Some input info
KUG0210-078._37_33.txt                   [arq_obs]
Base.CB07.vall.4m                        [arq_base]
Masks.EmLines.NEW.gm                     [arq_masks]
StCv04.C11.config                        [arq_config]
   66                                    [N_base]
    0                                    [N_YAV_components = # of components with extra extinction!]
    0                                    [i_FitPowerLaw (1/0 = Yes/No)]
-9.99                                    [alpha_PowerLaw]
CCM                                      [red_law_option]
 1.458241                                [q_norm = A(l_norm)/A(V)]

## (Re)Sampling Parameters
 3741.00                                 [l_ini (A)]
 7218.00                                 [l_fin (A)]
    1.00                                 [dl    (A)]     (OBS: dl_cushion =    50.00 A)

## Normalization info
 4020.00                                 [l_norm (A) - for base]
 4010.00                                 [llow_norm (A) - window for f_obs]
 4060.00                                 [lupp_norm (A) - window for f_obs]
3.049504E-17                             [fobs_norm (in input units)]

## S/N
 3691.00                                 [llow_SN (A) - window for S/N]
 7268.00                                 [lupp_SN (A) - window for S/N]
   5.398                                 [S/N in S/N window]
   5.441                                 [S/N in norm. window]
   0.039                                 [S/N_err in S/N window]
   0.040                                 [S/N_err in norm. window]
  1.0000                                 [fscale_chi2]

## etc...
    -2007627                             [idum_orig]
  2432                                   [NOl_eff]
  2394                                   [Nl_eff]
    38    NSIGMA                         [Ntot_cliped & clip_method]
 10072160                                [Nglobal_steps]
   7                                     [N_chains]
  10                                     [NEX0s_base = N_base in EX0s-fits]
 0   0   1       38   2.0   7.916E+03    [Clip-Bug, RC-Crash & Burn-In warning-flags, n_censored_weights, wei_nsig_threshold & wei_limit]
    70     68.950     68.353      0.597  [idt_all, wdt_TotTime, wdt_UsrTime & wdt_SysTime (sec)]

## Synthesis Results - Best model ##

 3.28409E-05                             [chi2/Nl_eff]
     6.44870                             [adev (%)]

   111.96863                             [sum-of-x (%)]
 8.94946E-18                             [Flux_tot (units of input spectrum!)]
 9.15142E-13                             [Mini_tot (???)]
 4.60160E-13                             [Mcor_tot (???)]

-261.14                                  [v0_min  (km/s)]
 412.25                                  [vd_min  (km/s)]
-0.9970                                  [AV_min  (mag)]
 0.0000                                  [YAV_min (mag)]

# j     x_j(%)      Mini_j(%)     Mcor_j(%)     age_j(yr)     Z_j      (L/M)_j    YAV?  Mstars   component_j        a/Fe...       SSP_chi2r SSP_adev(%)   SSP_AV   SSP_x(%)
  1      0.0000     0.0000E+00    0.0000E+00    1.000000E+06  0.00400  1.094E-02    0   1.0000   age020_m42            0.0000     1.0405E-04    14.3155   3.2396    88.7103
  2      0.0000     0.0000E+00    0.0000E+00    3.160000E+06  0.00400  4.007E-02    0   0.9999   age045_m42            0.0000     8.1379E-05    12.9992   2.4716    96.1150
  3      0.0000     0.0000E+00    0.0000E+00    5.010000E+06  0.00400  2.539E-02    0   0.9488   age055_m42            0.0000     9.1288E-05    13.6468   2.8123    93.1264
  4      0.0000     0.0000E+00    0.0000E+00    6.610000E+06  0.00400  2.620E-02    0   0.9220   age061_m42            0.0000     8.1341E-05    13.0713   2.3999    96.2475
  5      0.0000     0.0000E+00    0.0000E+00    1.000000E+07  0.00400  1.322E-02    0   0.8862   age070_m42            0.0000     9.1391E-05    14.6954   2.1655    96.6372
  6      0.0000     0.0000E+00    0.0000E+00    1.445000E+07  0.00400  7.883E-03    0   0.8571   age078_m42            0.0000     9.6419E-05    14.8555   2.4967    94.0842
  7      0.0000     0.0000E+00    0.0000E+00    2.512000E+07  0.00400  5.251E-03    0   0.8174   age090_m42            0.0000     9.1867E-05    14.9521   2.0413    96.9838
  8      0.0000     0.0000E+00    0.0000E+00    4.000000E+07  0.00400  3.649E-03    0   0.7851   age104_m42            0.0000     8.6542E-05    14.5017   1.8005    98.2288
  9      0.0000     0.0000E+00    0.0000E+00    5.500000E+07  0.00400  3.098E-03    0   0.7629   age110_m42            0.0000     7.9394E-05    13.5274   1.9253    99.2600
 10      0.0000     0.0000E+00    0.0000E+00    1.015200E+08  0.00400  2.228E-03    0   0.7207   age116_m42            0.0000     7.4944E-05    12.8652   1.9253   100.1404
 11      0.0000     0.0000E+00    0.0000E+00    2.861200E+08  0.00400  1.093E-03    0   0.6648   age125_m42            0.0000     7.3225E-05    13.0636   1.3593   102.7960
 12      0.0000     0.0000E+00    0.0000E+00    5.088000E+08  0.00400  6.597E-04    0   0.6365   age130_m42            0.0000     6.5804E-05    11.9657   1.3178   104.8166
 13     43.7711     1.7931E+00    2.0676E+00    1.434000E+09  0.00400  2.132E-04    0   0.5798   age139_m42            0.0000     5.2123E-05    10.7897   0.3304   107.4052
 14      0.0000     0.0000E+00    0.0000E+00    4.250000E+09  0.00400  5.895E-05    0   0.5377   age158_m42            0.0000     4.9027E-05     9.8108  -0.1227   103.6217
 15      0.0000     0.0000E+00    0.0000E+00    7.500000E+09  0.00400  3.510E-05    0   0.5212   age171_m42            0.0000     4.7094E-05     9.2543  -0.3251   103.3643
 16      0.0000     0.0000E+00    0.0000E+00    1.300000E+10  0.00400  2.005E-05    0   0.5034   age193_m42            0.0000     4.6143E-05     8.7963  -0.5023   103.1572
 17      0.0000     0.0000E+00    0.0000E+00    1.800000E+10  0.00400  1.525E-05    0   0.4967   age213_m42            0.0000     4.7100E-05     8.9669  -0.5197   102.5171
 18      0.0000     0.0000E+00    0.0000E+00    1.000000E+06  0.00800  1.238E-02    0   1.0000   age020_m52            0.0000     1.0411E-04    14.3161   3.2355    88.8995
 19      0.0000     0.0000E+00    0.0000E+00    3.160000E+06  0.00800  3.074E-02    0   0.9966   age045_m52            0.0000     1.0192E-04    14.1838   3.1551    89.8250
 20      0.0000     0.0000E+00    0.0000E+00    5.010000E+06  0.00800  2.668E-02    0   0.9443   age055_m52            0.0000     9.4476E-05    13.8832   2.9024    92.0839
 21      0.0000     0.0000E+00    0.0000E+00    6.610000E+06  0.00800  2.136E-02    0   0.9177   age061_m52            0.0000     8.7950E-05    14.3965   1.6695    97.5954
 22      0.0000     0.0000E+00    0.0000E+00    1.000000E+07  0.00800  1.215E-02    0   0.8827   age070_m52            0.0000     9.8120E-05    15.3991   2.3615    95.8379
 23      0.0000     0.0000E+00    0.0000E+00    1.445000E+07  0.00800  8.717E-03    0   0.8552   age078_m52            0.0000     9.4459E-05    14.8116   2.4606    95.4551
 24      0.0000     0.0000E+00    0.0000E+00    2.512000E+07  0.00800  5.592E-03    0   0.8162   age090_m52            0.0000     9.1051E-05    14.9698   2.1020    98.2135
 25      0.0000     0.0000E+00    0.0000E+00    4.000000E+07  0.00800  3.896E-03    0   0.7841   age104_m52            0.0000     8.4531E-05    14.3369   1.9956    99.5979
 26      0.0000     0.0000E+00    0.0000E+00    1.015200E+08  0.00800  2.148E-03    0   0.7226   age116_m52            0.0000     7.6344E-05    13.2995   1.9061   100.4347
 27      0.0000     0.0000E+00    0.0000E+00    2.861200E+08  0.00800  9.925E-04    0   0.6683   age125_m52            0.0000     6.5046E-05    11.9655   1.3807   105.8774
 28      0.0000     0.0000E+00    0.0000E+00    9.047900E+08  0.00800  3.141E-04    0   0.6138   age135_m52            0.0000     4.7821E-05     9.9803   0.5310   112.0529
 29      0.0000     0.0000E+00    0.0000E+00    1.434000E+09  0.00800  1.719E-04    0   0.5853   age139_m52            0.0000     4.6220E-05     9.8359  -0.0356   109.1451
 30      0.0000     0.0000E+00    0.0000E+00    2.500000E+09  0.00800  7.872E-05    0   0.5600   age150_m52            0.0000     4.1973E-05     8.5958  -0.3317   107.2229
 31      0.0000     0.0000E+00    0.0000E+00    4.250000E+09  0.00800  4.336E-05    0   0.5426   age158_m52            0.0000     4.3097E-05     8.6395  -0.3459   106.1539
 32      0.0000     0.0000E+00    0.0000E+00    6.250000E+09  0.00800  3.159E-05    0   0.5319   age166_m52            0.0000     4.0254E-05     7.8143  -0.5752   107.0434
 33      0.0000     0.0000E+00    0.0000E+00    1.300000E+10  0.00800  1.361E-05    0   0.5073   age193_m52            0.0000     3.8695E-05     7.9051  -1.0000   105.7178
 34      0.0000     0.0000E+00    0.0000E+00    1.800000E+10  0.00800  9.886E-06    0   0.4990   age213_m52            0.0000     4.2365E-05     9.5093  -1.0000   102.9680
 35      0.0000     0.0000E+00    0.0000E+00    1.000000E+06  0.02000  1.544E-02    0   1.0000   age020_m62            0.0000     1.0484E-04    14.3577   3.2326    89.0793
 36      0.0000     0.0000E+00    0.0000E+00    3.160000E+06  0.02000  3.762E-02    0   0.9858   age045_m62            0.0000     1.0405E-04    14.2862   3.1687    89.9655
 37      0.0000     0.0000E+00    0.0000E+00    5.010000E+06  0.02000  3.296E-02    0   0.9342   age055_m62            0.0000     8.6072E-05    13.2076   2.7575    94.7935
 38      0.0000     0.0000E+00    0.0000E+00    8.710000E+06  0.02000  1.154E-02    0   0.8861   age067_m62            0.0000     1.3305E-04    19.4219   1.8979    95.2889
 39      0.0000     0.0000E+00    0.0000E+00    1.445000E+07  0.02000  7.663E-03    0   0.8472   age078_m62            0.0000     1.0452E-04    16.3809   2.0295    97.1305
 40      0.0000     0.0000E+00    0.0000E+00    2.512000E+07  0.02000  4.532E-03    0   0.8099   age090_m62            0.0000     1.0491E-04    16.5083   2.0207    96.8441
 41      0.0000     0.0000E+00    0.0000E+00    5.500000E+07  0.02000  2.733E-03    0   0.7595   age110_m62            0.0000     8.5805E-05    14.4113   1.9837    98.7153
 42      0.0000     0.0000E+00    0.0000E+00    1.609000E+08  0.02000  1.369E-03    0   0.6985   age120_m62            0.0000     7.2503E-05    12.7687   1.7695   103.3127
 43      0.0000     0.0000E+00    0.0000E+00    2.861200E+08  0.02000  9.013E-04    0   0.6714   age125_m62            0.0000     6.5453E-05    11.8198   1.4863   107.4884
 44      0.0000     0.0000E+00    0.0000E+00    5.088000E+08  0.02000  5.028E-04    0   0.6449   age130_m62            0.0000     5.3299E-05    10.1226   1.0574   112.2114
 45      0.0000     0.0000E+00    0.0000E+00    9.047900E+08  0.02000  2.428E-04    0   0.6179   age135_m62            0.0000     4.3669E-05     9.1361   0.4595   111.8264
 46      0.0000     0.0000E+00    0.0000E+00    1.434000E+09  0.02000  1.263E-04    0   0.5908   age139_m62            0.0000     4.2214E-05     8.7994   0.0169   110.0363
 47      0.0000     0.0000E+00    0.0000E+00    2.500000E+09  0.02000  5.985E-05    0   0.5673   age150_m62            0.0000     3.9531E-05     7.8110  -0.3777   109.4757
 48      0.0000     0.0000E+00    0.0000E+00    4.250000E+09  0.02000  3.271E-05    0   0.5468   age158_m62            0.0000     3.6385E-05     6.7238  -0.7245   109.9561
 49      0.0000     0.0000E+00    0.0000E+00    1.000000E+10  0.02000  1.360E-05    0   0.5167   age181_m62            0.0000     3.7899E-05     7.3044  -1.0000   108.3529
 50      0.0000     0.0000E+00    0.0000E+00    1.800000E+10  0.02000  7.124E-06    0   0.5013   age213_m62            0.0000     5.2751E-05    11.1316  -1.0000   102.5891
 51      0.0000     0.0000E+00    0.0000E+00    1.000000E+06  0.05000  2.592E-02    0   0.9998   age020_m72            0.0000     1.0759E-04    14.5442   3.2290    88.9512
 52      0.0000     0.0000E+00    0.0000E+00    3.160000E+06  0.05000  4.845E-02    0   0.9577   age045_m72            0.0000     9.6216E-05    13.7718   3.0348    91.6939
 53      0.0000     0.0000E+00    0.0000E+00    5.010000E+06  0.05000  3.072E-02    0   0.9147   age055_m72            0.0000     1.0460E-04    15.4917   2.5949    94.1058
 54      0.0000     0.0000E+00    0.0000E+00    6.610000E+06  0.05000  1.455E-02    0   0.8877   age061_m72            0.0000     1.5602E-04    21.2798   1.9563    95.0147
 55      0.0000     0.0000E+00    0.0000E+00    1.000000E+07  0.05000  9.074E-03    0   0.8524   age070_m72            0.0000     1.0776E-04    15.5713   2.7635    93.9558
 56      0.0000     0.0000E+00    0.0000E+00    2.512000E+07  0.05000  4.250E-03    0   0.7902   age090_m72            0.0000     9.6961E-05    15.1128   2.4552    96.2338
 57      0.0000     0.0000E+00    0.0000E+00    4.000000E+07  0.05000  3.087E-03    0   0.7618   age104_m72            0.0000     9.4796E-05    15.1773   2.2263    97.8775
 58      0.0000     0.0000E+00    0.0000E+00    1.015200E+08  0.05000  1.700E-03    0   0.7096   age116_m72            0.0000     7.7949E-05    13.4850   1.9276   102.2793
 59      0.0000     0.0000E+00    0.0000E+00    2.861200E+08  0.05000  7.384E-04    0   0.6633   age125_m72            0.0000     5.8853E-05    10.9291   1.3260   110.0049
 60      0.0000     0.0000E+00    0.0000E+00    5.088000E+08  0.05000  3.819E-04    0   0.6372   age130_m72            0.0000     4.6286E-05     9.3695   0.7966   113.1375
 61      0.3711     1.9339E-02    2.3499E-02    9.047900E+08  0.05000  1.676E-04    0   0.6110   age135_m72            0.0000     3.8787E-05     7.8163   0.0683   112.1648
 62      0.0000     0.0000E+00    0.0000E+00    1.434000E+09  0.05000  8.837E-05    0   0.5874   age139_m72            0.0000     3.8611E-05     7.5859  -0.3927   111.6008
 63      0.0000     0.0000E+00    0.0000E+00    2.500000E+09  0.05000  4.233E-05    0   0.5598   age150_m72            0.0000     3.5648E-05     6.4417  -0.7465   111.6703
 64      0.0000     0.0000E+00    0.0000E+00    6.250000E+09  0.05000  1.435E-05    0   0.5249   age166_m72            0.0000     4.1946E-05     8.9377  -1.0000   105.6816
 65     55.5336     7.4471E+01    7.4585E+01    1.300000E+10  0.05000  6.513E-06    0   0.5036   age193_m72            0.0000     7.1846E-05    14.4926  -1.0000    99.5752
 66     12.2929     2.3717E+01    2.3324E+01    1.800000E+10  0.05000  4.527E-06    0   0.4945   age213_m72            0.0000     9.9791E-05    17.8484  -1.0000    94.9447


## Synthesis Results - Average & Chains ##

# j      x_j: min, <> & last-chain-values for 1 ...  7 chains
  1      0.0000      0.1676      0.1382      0.0000      0.0000      0.1620      0.0630      0.0000      0.0001
  2      0.0000      0.1740      0.0476      0.0330      0.0068      0.0000      0.0922      0.0000      0.0000
  3      0.0000      0.1392      0.2100      0.0447      0.0894      0.1158      0.0303      0.0000      0.0000
  4      0.0000      0.2025      0.1150      0.0178      0.0823      0.0198      0.2793      0.0000      0.0000
  5      0.0000      0.2262      0.0000      0.0291      0.0331      0.0000      0.1462      0.0000      0.0000
  6      0.0000      0.1281      0.1381      0.0000      0.0608      0.1440      0.0000      0.0001      0.0001
  7      0.0000      0.1833      0.0555      0.0215      0.0809      0.2141      0.0460      0.0000      0.0002
  8      0.0000      0.2009      0.1362      0.0981      0.0000      0.0000      0.1524      0.0000      0.0000
  9      0.0000      0.1456      0.0000      0.0232      0.0797      0.0000      0.0662      0.0000      0.0001
 10      0.0000      0.2263      0.0458      0.0695      0.0879      0.1525      0.7044      0.0000      0.0000
 11      0.0000      0.2335      0.0518      0.0000      0.0131      0.1388      0.3055      0.0001      0.0000
 12      0.0000      0.1867      0.2612      0.0305      0.1635      0.3867      0.0000      0.0000      0.0000
 13     43.7711      0.1606      0.1414      0.2411      0.0000      0.3462      0.0557      0.0000      0.0001
 14      0.0000      0.1949      0.0126      0.0428      0.0714      0.0788      0.4160      0.0001      0.0000
 15      0.0000      0.2268      0.0963      0.0580      0.0503      0.0257      0.0211      0.0000      0.0000
 16      0.0000      0.2290      0.0865      0.1077      0.0448      0.0579      0.2429      0.0001      0.0000
 17      0.0000      0.2483      0.3199      0.0000      0.0896      0.0822      0.0226      0.0001      0.0000
 18      0.0000      0.1653      0.1040      0.0000      0.0239      0.0000      0.3584      0.0000      0.0000
 19      0.0000      0.2444      0.1735      0.0426      0.0000      0.0000      0.0844      0.0000      0.0001
 20      0.0000      0.1830      0.0632      0.0595      0.0738      0.1998      0.0000      0.0000      0.0000
 21      0.0000      0.2069      0.1583      0.0521      0.0183      0.0000      0.2242      0.0000      0.0000
 22      0.0000      0.1807      0.0417      0.0545      0.0000      0.2056      0.0083      0.0000      0.0000
 23      0.0000      0.1796      0.0000      0.0049      0.0302      0.0000      0.0750      0.0000      0.0000
 24      0.0000      0.2143      0.0891      0.0000      0.0256      0.0149      0.0452      0.0000      0.0001
 25      0.0000      0.1585      0.0211      0.0000      0.1258      0.2507      0.1591      0.0000      0.0001
 26      0.0000      0.2259      0.2015      0.0240      0.0854      0.2998      0.4598      0.0000      0.0000
 27      0.0000      0.1667      0.3099      0.0000      0.0000      0.1102      0.0000      0.0000      0.0000
 28      0.0000      0.2632      0.0760      0.0910      0.0000      0.0000      0.2834      0.0000      0.0001
 29      0.0000      0.2318      0.5603      0.0925      0.0000      0.1070      0.0140      0.0000      0.0001
 30      0.0000      0.1929      0.1151      0.0480      0.0669      0.0737      0.0005      0.0000      0.0001
 31      0.0000      0.1425      0.0279      0.0000      0.1798      0.1856      0.3003      0.0001      0.0000
 32      0.0000      0.2301      0.2016      0.0515      0.0375      0.6273      0.2210      0.0000      0.0001
 33      0.0000      0.2208      0.0486      0.0454      0.1929      0.7688      0.0000      0.0001      0.0001
 34      0.0000      0.1483      0.1070      0.0486      0.0680      0.0015      0.0616      0.0028      0.0015
 35      0.0000      0.2344      0.1665      0.0000      0.1161      0.0000      0.1965      0.0000      0.0000
 36      0.0000      0.1921      0.0000      0.0132      0.0950      0.0000      0.0483      0.0000      0.0000
 37      0.0000      0.2080      0.0663      0.0485      0.0000      0.0000      0.0377      0.0000      0.0001
 38      0.0000      0.1367      0.0000      0.0000      0.0582      0.0000      0.0000      0.0000      0.0001
 39      0.0000      0.1544      0.0000      0.0000      0.0494      0.5218      0.0142      0.0001      0.0000
 40      0.0000      0.1713      0.1145      0.0173      0.0000      0.0000      0.2571      0.0000      0.0000
 41      0.0000      0.1827      0.0401      0.0271      0.0415      0.0408      0.0000      0.0000      0.0000
 42      0.0000      0.2319      0.0000      0.0000      0.0558      0.0618      0.0586      0.0000      0.0000
 43      0.0000      0.1642      0.0294      0.1028      0.0188      0.0000      0.0048      0.0001      0.0000
 44      0.0000      0.1642      0.0584      0.0478      0.0000      0.0624      0.0000      0.0001      0.0000
 45      0.0000      0.2038      0.0118      0.0000      0.0000      0.2649      0.5175      0.0000      0.0000
 46      0.0000      0.2151      0.4438      0.1434      0.0396      0.2023      0.2392      0.0000      0.0000
