###################################################################
## OUTPUT of StarlightChains_v04.for    [Cid@UFSC - 01/Apr/2007] ##
###################################################################

## Some input info
KUG0210-078._34_33.txt                   [arq_obs]
Base.CB07.vall.4m                        [arq_base]
Masks.EmLines.NEW.gm                     [arq_masks]
StCv04.C11.config                        [arq_config]
   66                                    [N_base]
    0                                    [N_YAV_components = # of components with extra extinction!]
    0                                    [i_FitPowerLaw (1/0 = Yes/No)]
-9.99                                    [alpha_PowerLaw]
CCM                                      [red_law_option]
 1.458241                                [q_norm = A(l_norm)/A(V)]

## (Re)Sampling Parameters
 3741.00                                 [l_ini (A)]
 7218.00                                 [l_fin (A)]
    1.00                                 [dl    (A)]     (OBS: dl_cushion =    50.00 A)

## Normalization info
 4020.00                                 [l_norm (A) - for base]
 4010.00                                 [llow_norm (A) - window for f_obs]
 4060.00                                 [lupp_norm (A) - window for f_obs]
7.069831E-17                             [fobs_norm (in input units)]

## S/N
 3691.00                                 [llow_SN (A) - window for S/N]
 7268.00                                 [lupp_SN (A) - window for S/N]
   4.252                                 [S/N in S/N window]
   3.324                                 [S/N in norm. window]
   0.147                                 [S/N_err in S/N window]
   0.115                                 [S/N_err in norm. window]
  1.0000                                 [fscale_chi2]

## etc...
    -2007538                             [idum_orig]
  2432                                   [NOl_eff]
  2426                                   [Nl_eff]
     6    NSIGMA                         [Ntot_cliped & clip_method]
  8051610                                [Nglobal_steps]
   7                                     [N_chains]
  42                                     [NEX0s_base = N_base in EX0s-fits]
 0   1   1        6   2.0   7.078E+03    [Clip-Bug, RC-Crash & Burn-In warning-flags, n_censored_weights, wei_nsig_threshold & wei_limit]
   305    302.936    301.994      0.942  [idt_all, wdt_TotTime, wdt_UsrTime & wdt_SysTime (sec)]

## Synthesis Results - Best model ##

 8.92139E-05                             [chi2/Nl_eff]
     5.47201                             [adev (%)]

   121.54503                             [sum-of-x (%)]
 2.24311E-17                             [Flux_tot (units of input spectrum!)]
 4.02248E-12                             [Mini_tot (???)]
 2.00004E-12                             [Mcor_tot (???)]

 -53.84                                  [v0_min  (km/s)]
 154.05                                  [vd_min  (km/s)]
-1.0000                                  [AV_min  (mag)]
 0.0000                                  [YAV_min (mag)]

# j     x_j(%)      Mini_j(%)     Mcor_j(%)     age_j(yr)     Z_j      (L/M)_j    YAV?  Mstars   component_j        a/Fe...       SSP_chi2r SSP_adev(%)   SSP_AV   SSP_x(%)
  1      0.0000     0.0000E+00    0.0000E+00    1.000000E+06  0.00400  1.094E-02    0   1.0000   age020_m42            0.0000     8.8803E-04    17.4008   3.5565   101.2243
  2      0.0000     0.0000E+00    0.0000E+00    3.160000E+06  0.00400  4.007E-02    0   0.9999   age045_m42            0.0000     7.7715E-04    16.4723   2.8197   108.6450
  3      0.0000     0.0000E+00    0.0000E+00    5.010000E+06  0.00400  2.539E-02    0   0.9488   age055_m42            0.0000     8.3076E-04    16.9514   3.1456   105.7418
  4      0.0000     0.0000E+00    0.0000E+00    6.610000E+06  0.00400  2.620E-02    0   0.9220   age061_m42            0.0000     7.8674E-04    16.5796   2.7457   108.8864
  5      0.0000     0.0000E+00    0.0000E+00    1.000000E+07  0.00400  1.322E-02    0   0.8862   age070_m42            0.0000     9.2762E-04    18.5143   2.4744   110.6671
  6      0.0000     0.0000E+00    0.0000E+00    1.445000E+07  0.00400  7.883E-03    0   0.8571   age078_m42            0.0000     9.4356E-04    18.5435   2.8027   107.8005
  7      0.0000     0.0000E+00    0.0000E+00    2.512000E+07  0.00400  5.251E-03    0   0.8174   age090_m42            0.0000     9.5196E-04    18.8436   2.3460   111.2224
  8      0.0000     0.0000E+00    0.0000E+00    4.000000E+07  0.00400  3.649E-03    0   0.7851   age104_m42            0.0000     9.0911E-04    18.4470   2.1162   112.2982
  9      0.0000     0.0000E+00    0.0000E+00    5.500000E+07  0.00400  3.098E-03    0   0.7629   age110_m42            0.0000     8.3060E-04    17.3892   2.2624   112.6479
 10      0.0000     0.0000E+00    0.0000E+00    1.015200E+08  0.00400  2.228E-03    0   0.7207   age116_m42            0.0000     7.8092E-04    16.6448   2.2770   113.1214
 11      0.0000     0.0000E+00    0.0000E+00    2.861200E+08  0.00400  1.093E-03    0   0.6648   age125_m42            0.0000     8.0858E-04    17.0309   1.7006   116.6150
 12      0.0000     0.0000E+00    0.0000E+00    5.088000E+08  0.00400  6.597E-04    0   0.6365   age130_m42            0.0000     7.1093E-04    15.7554   1.6845   117.9779
 13      0.0000     0.0000E+00    0.0000E+00    1.434000E+09  0.00400  2.132E-04    0   0.5798   age139_m42            0.0000     5.6916E-04    14.6143   0.7116   120.6144
 14      0.0000     0.0000E+00    0.0000E+00    4.250000E+09  0.00400  5.895E-05    0   0.5377   age158_m42            0.0000     4.5268E-04    13.1565   0.2686   116.1949
 15      0.0000     0.0000E+00    0.0000E+00    7.500000E+09  0.00400  3.510E-05    0   0.5212   age171_m42            0.0000     4.0281E-04    12.3801   0.0758   115.6404
 16      0.0000     0.0000E+00    0.0000E+00    1.300000E+10  0.00400  2.005E-05    0   0.5034   age193_m42            0.0000     3.6647E-04    11.7232  -0.0935   115.1785
 17      0.0000     0.0000E+00    0.0000E+00    1.800000E+10  0.00400  1.525E-05    0   0.4967   age213_m42            0.0000     3.7748E-04    11.9023  -0.1146   114.5909
 18      0.0000     0.0000E+00    0.0000E+00    1.000000E+06  0.00800  1.238E-02    0   1.0000   age020_m52            0.0000     8.8619E-04    17.3889   3.5528   101.4276
 19      0.0000     0.0000E+00    0.0000E+00    3.160000E+06  0.00800  3.074E-02    0   0.9966   age045_m52            0.0000     8.7152E-04    17.2647   3.4760   102.3642
 20      0.0000     0.0000E+00    0.0000E+00    5.010000E+06  0.00800  2.668E-02    0   0.9443   age055_m52            0.0000     8.4626E-04    17.1383   3.2299   104.7343
 21      0.0000     0.0000E+00    0.0000E+00    6.610000E+06  0.00800  2.136E-02    0   0.9177   age061_m52            0.0000     8.6328E-04    18.1521   1.9778   111.9121
 22      0.0000     0.0000E+00    0.0000E+00    1.000000E+07  0.00800  1.215E-02    0   0.8827   age070_m52            0.0000     9.9257E-04    19.2336   2.6556   110.2448
 23      0.0000     0.0000E+00    0.0000E+00    1.445000E+07  0.00800  8.717E-03    0   0.8552   age078_m52            0.0000     9.3500E-04    18.5476   2.7680   109.3171
 24      0.0000     0.0000E+00    0.0000E+00    2.512000E+07  0.00800  5.592E-03    0   0.8162   age090_m52            0.0000     9.5479E-04    18.9208   2.4081   112.5734
 25      0.0000     0.0000E+00    0.0000E+00    4.000000E+07  0.00800  3.896E-03    0   0.7841   age104_m52            0.0000     8.9949E-04    18.3024   2.3140   113.7209
 26      0.0000     0.0000E+00    0.0000E+00    1.015200E+08  0.00800  2.148E-03    0   0.7226   age116_m52            0.0000     8.0638E-04    17.1140   2.2455   113.9228
 27      0.0000     0.0000E+00    0.0000E+00    2.861200E+08  0.00800  9.925E-04    0   0.6683   age125_m52            0.0000     7.0677E-04    15.7670   1.7486   119.1191
 28      0.0000     0.0000E+00    0.0000E+00    9.047900E+08  0.00800  3.141E-04    0   0.6138   age135_m52            0.0000     5.1465E-04    13.6044   0.9364   124.8176
 29      0.0000     0.0000E+00    0.0000E+00    1.434000E+09  0.00800  1.719E-04    0   0.5853   age139_m52            0.0000     4.7603E-04    13.4334   0.3579   122.1927
 30      0.0934     5.4411E-03    6.1281E-03    2.500000E+09  0.00800  7.872E-05    0   0.5600   age150_m52            0.0000     3.5904E-04    11.7792   0.0872   119.2584
 31      0.0000     0.0000E+00    0.0000E+00    4.250000E+09  0.00800  4.336E-05    0   0.5426   age158_m52            0.0000     3.5548E-04    11.6869   0.0715   118.1667
 32      0.8893     1.2915E-01    1.3816E-01    6.250000E+09  0.00800  3.159E-05    0   0.5319   age166_m52            0.0000     2.9221E-04    10.5861  -0.1385   118.5627
 33      0.0000     0.0000E+00    0.0000E+00    1.300000E+10  0.00800  1.361E-05    0   0.5073   age193_m52            0.0000     2.2340E-04     9.2468  -0.6157   118.2565
 34      0.0000     0.0000E+00    0.0000E+00    1.800000E+10  0.00800  9.886E-06    0   0.4990   age213_m52            0.0000     1.7705E-04     8.1106  -0.7341   118.1628
 35      0.0000     0.0000E+00    0.0000E+00    1.000000E+06  0.02000  1.544E-02    0   1.0000   age020_m62            0.0000     8.8888E-04    17.4054   3.5492   101.6546
 36      0.0000     0.0000E+00    0.0000E+00    3.160000E+06  0.02000  3.762E-02    0   0.9858   age045_m62            0.0000     8.8298E-04    17.3387   3.4870   102.5935
 37      0.0000     0.0000E+00    0.0000E+00    5.010000E+06  0.02000  3.296E-02    0   0.9342   age055_m62            0.0000     7.9295E-04    16.5320   3.1018   107.2318
 38      0.0000     0.0000E+00    0.0000E+00    8.710000E+06  0.02000  1.154E-02    0   0.8861   age067_m62            0.0000     1.4108E-03    23.5519   2.1212   112.3102
 39      0.0000     0.0000E+00    0.0000E+00    1.445000E+07  0.02000  7.663E-03    0   0.8472   age078_m62            0.0000     1.0922E-03    20.4253   2.3022   112.5689
 40      0.0000     0.0000E+00    0.0000E+00    2.512000E+07  0.02000  4.532E-03    0   0.8099   age090_m62            0.0000     1.1158E-03    20.6211   2.2934   112.2466
 41      0.0000     0.0000E+00    0.0000E+00    5.500000E+07  0.02000  2.733E-03    0   0.7595   age110_m62            0.0000     8.9982E-04    18.3101   2.2994   112.8097
 42      0.0000     0.0000E+00    0.0000E+00    1.609000E+08  0.02000  1.369E-03    0   0.6985   age120_m62            0.0000     7.7341E-04    16.6011   2.1226   116.6838
 43      0.0000     0.0000E+00    0.0000E+00    2.861200E+08  0.02000  9.013E-04    0   0.6714   age125_m62            0.0000     6.9662E-04    15.5955   1.8626   120.5674
 44      0.0000     0.0000E+00    0.0000E+00    5.088000E+08  0.02000  5.028E-04    0   0.6449   age130_m62            0.0000     5.4780E-04    13.6518   1.4730   124.4286
 45      0.0000     0.0000E+00    0.0000E+00    9.047900E+08  0.02000  2.428E-04    0   0.6179   age135_m62            0.0000     4.2809E-04    12.5687   0.8816   124.0000
 46      0.0000     0.0000E+00    0.0000E+00    1.434000E+09  0.02000  1.263E-04    0   0.5908   age139_m62            0.0000     3.7609E-04    12.0414   0.4372   122.2572
 47      0.0000     0.0000E+00    0.0000E+00    2.500000E+09  0.02000  5.985E-05    0   0.5673   age150_m62            0.0000     2.9225E-04    10.6219   0.0641   120.9919
 48      0.0000     0.0000E+00    0.0000E+00    4.250000E+09  0.02000  3.271E-05    0   0.5468   age158_m62            0.0000     2.1090E-04     8.9875  -0.2519   120.5392
 49      1.6764     5.6552E-01    5.8769E-01    1.000000E+10  0.02000  1.360E-05    0   0.5167   age181_m62            0.0000     1.3968E-04     7.1438  -0.6176   120.8701
 50     56.5485     3.6418E+01    3.6717E+01    1.800000E+10  0.02000  7.124E-06    0   0.5013   age213_m62            0.0000     1.0156E-04     5.8072  -0.8412   120.5335
 51      0.0000     0.0000E+00    0.0000E+00    1.000000E+06  0.05000  2.592E-02    0   0.9998   age020_m72            0.0000     9.0338E-04    17.5552   3.5432   101.5985
 52      0.0000     0.0000E+00    0.0000E+00    3.160000E+06  0.05000  4.845E-02    0   0.9577   age045_m72            0.0000     8.3859E-04    16.9123   3.3673   104.0894
 53      0.0000     0.0000E+00    0.0000E+00    5.010000E+06  0.05000  3.072E-02    0   0.9147   age055_m72            0.0000     1.0204E-03    19.2794   2.8809   108.5067
 54      0.0000     0.0000E+00    0.0000E+00    6.610000E+06  0.05000  1.455E-02    0   0.8877   age061_m72            0.0000     1.7327E-03    26.0203   2.1441   113.2669
 55      0.0000     0.0000E+00    0.0000E+00    1.000000E+07  0.05000  9.074E-03    0   0.8524   age070_m72            0.0000     1.0856E-03    19.6264   3.0433   108.5258
 56      0.0000     0.0000E+00    0.0000E+00    2.512000E+07  0.05000  4.250E-03    0   0.7902   age090_m72            0.0000     1.0159E-03    19.1877   2.7516   110.5859
 57      0.0000     0.0000E+00    0.0000E+00    4.000000E+07  0.05000  3.087E-03    0   0.7618   age104_m72            0.0000     1.0262E-03    19.3373   2.5232   112.4631
 58      0.0000     0.0000E+00    0.0000E+00    1.015200E+08  0.05000  1.700E-03    0   0.7096   age116_m72            0.0000     8.4476E-04    17.3847   2.2660   116.0272
 59      0.0000     0.0000E+00    0.0000E+00    2.861200E+08  0.05000  7.384E-04    0   0.6633   age125_m72            0.0000     6.1111E-04    14.5613   1.7220   122.6826
 60      0.0000     0.0000E+00    0.0000E+00    5.088000E+08  0.05000  3.819E-04    0   0.6372   age130_m72            0.0000     4.5785E-04    12.8433   1.2232   125.1585
 61      0.0000     0.0000E+00    0.0000E+00    9.047900E+08  0.05000  1.676E-04    0   0.6110   age135_m72            0.0000     3.0233E-04    10.8045   0.5211   123.4177
 62      0.0000     0.0000E+00    0.0000E+00    1.434000E+09  0.05000  8.837E-05    0   0.5874   age139_m72            0.0000     2.7524E-04    10.3265   0.0572   123.0608
 63      0.0000     0.0000E+00    0.0000E+00    2.500000E+09  0.05000  4.233E-05    0   0.5598   age150_m72            0.0000     1.8747E-04     8.4188  -0.2600   121.9367
 64      0.0000     0.0000E+00    0.0000E+00    6.250000E+09  0.05000  1.435E-05    0   0.5249   age166_m72            0.0000     1.2610E-04     6.6707  -0.7202   120.6343
 65      0.9546     6.7247E-01    6.8111E-01    1.300000E+10  0.05000  6.513E-06    0   0.5036   age193_m72            0.0000     9.1481E-05     5.4031  -1.0000   121.8257
 66     61.3829     6.2209E+01    6.1870E+01    1.800000E+10  0.05000  4.527E-06    0   0.4945   age213_m72            0.0000     1.1390E-04     6.6619  -1.0000   115.2668


## Synthesis Results - Average & Chains ##

# j      x_j: min, <> & last-chain-values for 1 ...  7 chains
  1      0.0000      1.4635      0.0011      0.6261      0.0000      0.1988      0.4151      0.3234      0.0567
  2      0.0000      1.7185      0.5171      0.4515      0.0000      0.9159      0.0000      0.1318      0.6819
  3      0.0000      1.1947      0.4596      0.1775      0.0000      0.0000      0.0000      0.2425      0.0534
  4      0.0000      1.3842      0.2740      0.0000      0.4390      0.4688      0.2778      0.1473      0.4981
  5      0.0000      1.4856      0.0000      0.0000      0.0835      1.4651      1.1910      0.3630      0.5091
  6      0.0000      1.1546      0.0261      0.0000      0.6089      0.0000      0.1268      0.2740      0.2203
  7      0.0000      0.8990      0.0269      0.2458      0.5055      0.9577      0.6909      0.0000      0.0000
  8      0.0000      1.3181      0.7219      0.0000      2.4957      0.3408      0.5043      0.0000      0.0000
  9      0.0000      1.7397      0.5726      0.7270      1.8482      0.8730      0.0000      1.0988      1.0420
 10      0.0000      1.5297      0.0000      0.2088      0.0000      0.4593      0.0000      0.1223      0.0481
 11      0.0000      1.3029      0.1385      0.9323      0.4574      0.9400      0.0000      0.0000      0.0281
 12      0.0000      1.0697      0.0000      0.5950      1.4642      0.6422      1.8126      1.4896      1.5646
 13      0.0000      1.0391      0.5590      0.5862      0.5963      0.6308      1.2268      0.5116      0.0000
 14      0.0000      2.2957      5.3369      5.1349      3.8153      5.5071      5.3433      5.1736      5.6966
 15      0.0000      2.1534      3.9293      3.6178      4.6727      3.9299      4.4296      3.5860      3.5656
 16      0.0000      3.0498      5.4857      5.2311      5.6963      6.2495      6.0732      5.6618      5.3820
 17      0.0000      2.3537      4.4947      3.9809      4.6584      4.2867      4.9066      4.9593      5.2125
 18      0.0000      1.3827      0.3295      0.0000      0.0140      0.9234      0.0000      0.4876      0.4041
 19      0.0000      1.0728      0.4160      0.5485      0.0163      0.1253      0.0400      0.1421      0.0155
 20      0.0000      0.9372      0.2412      0.1901      0.6144      0.0003      0.6724      0.0000      0.0785
 21      0.0000      0.9766      0.1499      1.0311      0.0166      0.0498      0.1027      0.2967      0.2665
 22      0.0000      0.9214      0.7254      0.9695      0.7279      0.0000      0.4553      0.0000      0.4981
 23      0.0000      1.1800      0.7303      0.0000      0.1285      0.2293      0.0000      0.0000      0.3900
 24      0.0000      1.5101      1.0247      0.1455      0.2201      0.0000      0.0000      0.0860      0.0955
 25      0.0000      3.2027      9.3923      8.9646      9.3427      7.8985     10.3090     11.1501      9.4698
 26      0.0000      1.3160      3.0363      1.3050      1.4392      0.7268      1.3080      1.7360      1.2343
 27      0.0000      1.6388      1.8494      0.5744      0.0000      0.5278      1.5686      0.0000      0.0000
 28      0.0000      1.5216      1.5215      1.6970      2.2224      3.0131      0.7114      2.0117      0.4273
 29      0.0000      1.7609      0.9059      0.2782      0.5756      0.4078      0.4372      0.0000      1.3173
 30      0.0934      2.6694      4.9494      5.2628      5.1317      4.0190      4.8364      4.7973      4.5887
 31      0.0000      1.4898      1.3862      1.4490      1.1603      2.4582      1.5149      1.5962      2.6560
 32      0.8893      1.6983      2.8994      1.6915      3.3707      3.4607      3.2868      2.2482      2.7981
 33      0.0000      1.8967      3.5905      2.7203      2.4278      2.9910      2.5736      3.3132      2.3716
 34      0.0000      1.8246      2.4694      2.2192      1.7597      2.0698      2.1709      2.7262      2.5042
 35      0.0000      0.9921      0.0000      1.0138      1.1255      0.4528      0.0817      0.6565      0.6730
 36      0.0000      1.2732      0.5123      0.2983      0.1522      0.0446      0.3433      0.2004      0.9036
 37      0.0000      1.0694      1.6589      0.7352      1.2321      0.8092      1.5768      1.9098      0.8159
 38      0.0000      1.4399      0.0000      0.0089      0.0161      0.2084      0.0000      0.3378      0.1846
 39      0.0000      1.1802      0.0597      0.0810      0.6249      0.0000      0.3478      0.0000      0.4422
 40      0.0000      1.3895      0.0000      0.7868      0.6025      0.9026      0.2181      0.3241      0.6945
 41      0.0000      1.0008      0.5932      0.5281      0.0000      0.3469      0.0000      0.5613      0.3594
 42      0.0000      1.1680      0.0324      0.0000      0.0000      0.0268      0.1619      0.0000      0.6861
 43      0.0000      1.3436      0.0000      0.0698      0.0000      0.4058      0.0000      0.2313      0.2729
 44      0.0000      1.0022      0.3002      0.0671      0.5944      0.3581      0.0408      0.0617      0.1302
 45      0.0000      1.1930      1.5729      2.4792      1.4704      1.5215      1.6314      1.6604      1.4411
 46      0.0000      1.1057      0.4538      0.0000      0.4696      0.3563      0.1135      0.2812      0.3096
