###################################################################
## OUTPUT of StarlightChains_v04.for    [Cid@UFSC - 01/Apr/2007] ##
###################################################################

## Some input info
KUG0210-078._28_34.txt                   [arq_obs]
Base.CB07.vall.4m                        [arq_base]
Masks.EmLines.NEW.gm                     [arq_masks]
StCv04.C11.config                        [arq_config]
   66                                    [N_base]
    0                                    [N_YAV_components = # of components with extra extinction!]
    0                                    [i_FitPowerLaw (1/0 = Yes/No)]
-9.99                                    [alpha_PowerLaw]
CCM                                      [red_law_option]
 1.458241                                [q_norm = A(l_norm)/A(V)]

## (Re)Sampling Parameters
 3741.00                                 [l_ini (A)]
 7218.00                                 [l_fin (A)]
    1.00                                 [dl    (A)]     (OBS: dl_cushion =    50.00 A)

## Normalization info
 4020.00                                 [l_norm (A) - for base]
 4010.00                                 [llow_norm (A) - window for f_obs]
 4060.00                                 [lupp_norm (A) - window for f_obs]
8.299926E-17                             [fobs_norm (in input units)]

## S/N
 3691.00                                 [llow_SN (A) - window for S/N]
 7268.00                                 [lupp_SN (A) - window for S/N]
   4.856                                 [S/N in S/N window]
   3.345                                 [S/N in norm. window]
   0.232                                 [S/N_err in S/N window]
   0.160                                 [S/N_err in norm. window]
  1.0000                                 [fscale_chi2]

## etc...
    -2007382                             [idum_orig]
  2432                                   [NOl_eff]
  2048                                   [Nl_eff]
   384    NSIGMA                         [Ntot_cliped & clip_method]
 15586900                                [Nglobal_steps]
   7                                     [N_chains]
  44                                     [NEX0s_base = N_base in EX0s-fits]
 0   0   1      384   2.0   7.249E+04    [Clip-Bug, RC-Crash & Burn-In warning-flags, n_censored_weights, wei_nsig_threshold & wei_limit]
    98     97.622     96.668      0.954  [idt_all, wdt_TotTime, wdt_UsrTime & wdt_SysTime (sec)]

## Synthesis Results - Best model ##

 2.56835E-03                             [chi2/Nl_eff]
    11.03871                             [adev (%)]

   129.99998                             [sum-of-x (%)]
 8.42648E-15                             [Flux_tot (units of input spectrum!)]
 7.42041E-13                             [Mini_tot (???)]
 7.42040E-13                             [Mcor_tot (???)]

-486.71                                  [v0_min  (km/s)]
 216.10                                  [vd_min  (km/s)]
 3.2447                                  [AV_min  (mag)]
 0.0000                                  [YAV_min (mag)]

# j     x_j(%)      Mini_j(%)     Mcor_j(%)     age_j(yr)     Z_j      (L/M)_j    YAV?  Mstars   component_j        a/Fe...       SSP_chi2r SSP_adev(%)   SSP_AV   SSP_x(%)
  1    114.3162     9.1278E+01    9.1278E+01    1.000000E+06  0.00400  1.094E-02    0   1.0000   age020_m42            0.0000     2.0072E-03     5.9290   2.8462   153.7972
  2      0.0000     0.0000E+00    0.0000E+00    3.160000E+06  0.00400  4.007E-02    0   0.9999   age045_m42            0.0000     2.1890E-03     6.9902   2.2181   157.3980
  3      0.0000     0.0000E+00    0.0000E+00    5.010000E+06  0.00400  2.539E-02    0   0.9488   age055_m42            0.0000     2.0686E-03     6.4897   2.4899   156.9083
  4      0.0000     0.0000E+00    0.0000E+00    6.610000E+06  0.00400  2.620E-02    0   0.9220   age061_m42            0.0000     2.2010E-03     7.1375   2.1441   157.7809
  5      0.0000     0.0000E+00    0.0000E+00    1.000000E+07  0.00400  1.322E-02    0   0.8862   age070_m42            0.0000     2.3431E-03     8.5107   1.8536   162.2304
  6      0.0000     0.0000E+00    0.0000E+00    1.445000E+07  0.00400  7.883E-03    0   0.8571   age078_m42            0.0000     2.2527E-03     7.9635   2.1568   159.7587
  7      0.0000     0.0000E+00    0.0000E+00    2.512000E+07  0.00400  5.251E-03    0   0.8174   age090_m42            0.0000     2.3975E-03     8.9350   1.7311   162.6773
  8      0.0000     0.0000E+00    0.0000E+00    4.000000E+07  0.00400  3.649E-03    0   0.7851   age104_m42            0.0000     2.4262E-03     9.0357   1.5219   162.6408
  9      0.0000     0.0000E+00    0.0000E+00    5.500000E+07  0.00400  3.098E-03    0   0.7629   age110_m42            0.0000     2.3997E-03     8.5763   1.6941   161.0908
 10      0.0000     0.0000E+00    0.0000E+00    1.015200E+08  0.00400  2.228E-03    0   0.7207   age116_m42            0.0000     2.3732E-03     8.3047   1.7257   160.4619
 11      0.0000     0.0000E+00    0.0000E+00    2.861200E+08  0.00400  1.093E-03    0   0.6648   age125_m42            0.0000     2.5168E-03     9.0849   1.1721   163.8729
 12      0.0000     0.0000E+00    0.0000E+00    5.088000E+08  0.00400  6.597E-04    0   0.6365   age130_m42            0.0000     2.4959E-03     8.6981   1.1871   163.2779
 13      0.0000     0.0000E+00    0.0000E+00    1.434000E+09  0.00400  2.132E-04    0   0.5798   age139_m42            0.0000     2.4636E-03     8.9110   0.2540   163.5515
 14      0.0000     0.0000E+00    0.0000E+00    4.250000E+09  0.00400  5.895E-05    0   0.5377   age158_m42            0.0000     2.1359E-03     7.2721  -0.2266   159.5545
 15      0.0000     0.0000E+00    0.0000E+00    7.500000E+09  0.00400  3.510E-05    0   0.5212   age171_m42            0.0000     2.1321E-03     6.9317  -0.4106   157.9507
 16      0.0000     0.0000E+00    0.0000E+00    1.300000E+10  0.00400  2.005E-05    0   0.5034   age193_m42            0.0000     2.1449E-03     6.6643  -0.5734   156.7306
 17      0.0000     0.0000E+00    0.0000E+00    1.800000E+10  0.00400  1.525E-05    0   0.4967   age213_m42            0.0000     2.1206E-03     6.6447  -0.6030   156.4601
 18      0.0000     0.0000E+00    0.0000E+00    1.000000E+06  0.00800  1.238E-02    0   1.0000   age020_m52            0.0000     2.0056E-03     5.9336   2.8434   154.0558
 19      0.0000     0.0000E+00    0.0000E+00    3.160000E+06  0.00800  3.074E-02    0   0.9966   age045_m52            0.0000     1.9832E-03     5.9282   2.7717   155.0778
 20      0.0000     0.0000E+00    0.0000E+00    5.010000E+06  0.00800  2.668E-02    0   0.9443   age055_m52            0.0000     2.0477E-03     6.4157   2.5611   156.3210
 21      0.0000     0.0000E+00    0.0000E+00    6.610000E+06  0.00800  2.136E-02    0   0.9177   age061_m52            0.0000     2.2925E-03     8.3070   1.3511   164.1474
 22      0.0000     0.0000E+00    0.0000E+00    1.000000E+07  0.00800  1.215E-02    0   0.8827   age070_m52            0.0000     2.3762E-03     8.7558   2.0193   162.9026
 23      0.0000     0.0000E+00    0.0000E+00    1.445000E+07  0.00800  8.717E-03    0   0.8552   age078_m52            0.0000     2.2805E-03     8.1765   2.1308   161.3856
 24      0.0000     0.0000E+00    0.0000E+00    2.512000E+07  0.00800  5.592E-03    0   0.8162   age090_m52            0.0000     2.4372E-03     9.1817   1.8033   163.9816
 25      0.0000     0.0000E+00    0.0000E+00    4.000000E+07  0.00800  3.896E-03    0   0.7841   age104_m52            0.0000     2.4508E-03     9.1196   1.7348   163.6406
 26      0.0000     0.0000E+00    0.0000E+00    1.015200E+08  0.00800  2.148E-03    0   0.7226   age116_m52            0.0000     2.4052E-03     8.6657   1.6918   161.8724
 27      0.0000     0.0000E+00    0.0000E+00    2.861200E+08  0.00800  9.925E-04    0   0.6683   age125_m52            0.0000     2.5156E-03     8.8880   1.2537   164.6702
 28      0.0000     0.0000E+00    0.0000E+00    9.047900E+08  0.00800  3.141E-04    0   0.6138   age135_m52            0.0000     2.4601E-03     8.7430   0.5141   166.5174
 29      0.0000     0.0000E+00    0.0000E+00    1.434000E+09  0.00800  1.719E-04    0   0.5853   age139_m52            0.0000     2.3096E-03     8.1318  -0.0980   165.1210
 30      0.0000     0.0000E+00    0.0000E+00    2.500000E+09  0.00800  7.872E-05    0   0.5600   age150_m52            0.0000     2.0601E-03     6.9527  -0.3841   161.7511
 31      0.0000     0.0000E+00    0.0000E+00    4.250000E+09  0.00800  4.336E-05    0   0.5426   age158_m52            0.0000     2.0545E-03     6.8241  -0.4006   160.2948
 32      0.0000     0.0000E+00    0.0000E+00    6.250000E+09  0.00800  3.159E-05    0   0.5319   age166_m52            0.0000     2.0411E-03     6.4807  -0.5975   159.6604
 33      0.0000     0.0000E+00    0.0000E+00    1.300000E+10  0.00800  1.361E-05    0   0.5073   age193_m52            0.0000     2.0011E-03     7.1559  -1.0000   155.5250
 34      0.0000     0.0000E+00    0.0000E+00    1.800000E+10  0.00800  9.886E-06    0   0.4990   age213_m52            0.0000     2.0276E-03     8.6369  -1.0000   149.9803
 35     15.0232     8.4995E+00    8.4995E+00    1.000000E+06  0.02000  1.544E-02    0   1.0000   age020_m62            0.0000     1.9973E-03     5.8939   2.8366   154.6042
 36      0.0000     0.0000E+00    0.0000E+00    3.160000E+06  0.02000  3.762E-02    0   0.9858   age045_m62            0.0000     1.9596E-03     5.8045   2.7739   156.0385
 37      0.0000     0.0000E+00    0.0000E+00    5.010000E+06  0.02000  3.296E-02    0   0.9342   age055_m62            0.0000     2.0936E-03     6.5364   2.4648   157.7528
 38      0.0000     0.0000E+00    0.0000E+00    8.710000E+06  0.02000  1.154E-02    0   0.8861   age067_m62            0.0000     2.7787E-03    11.5607   1.4273   171.5153
 39      0.0000     0.0000E+00    0.0000E+00    1.445000E+07  0.02000  7.663E-03    0   0.8472   age078_m62            0.0000     2.5093E-03     9.7254   1.6630   166.8687
 40      0.0000     0.0000E+00    0.0000E+00    2.512000E+07  0.02000  4.532E-03    0   0.8099   age090_m62            0.0000     2.5459E-03     9.9583   1.6548   166.3848
 41      0.0000     0.0000E+00    0.0000E+00    5.500000E+07  0.02000  2.733E-03    0   0.7595   age110_m62            0.0000     2.3840E-03     8.9228   1.7028   163.5680
 42      0.0000     0.0000E+00    0.0000E+00    1.609000E+08  0.02000  1.369E-03    0   0.6985   age120_m62            0.0000     2.4100E-03     8.7179   1.5826   164.7157
 43      0.0000     0.0000E+00    0.0000E+00    2.861200E+08  0.02000  9.013E-04    0   0.6714   age125_m62            0.0000     2.4821E-03     8.9265   1.3703   166.5136
 44      0.0000     0.0000E+00    0.0000E+00    5.088000E+08  0.02000  5.028E-04    0   0.6449   age130_m62            0.0000     2.4489E-03     8.5432   1.0409   166.9020
 45      0.0000     0.0000E+00    0.0000E+00    9.047900E+08  0.02000  2.428E-04    0   0.6179   age135_m62            0.0000     2.2477E-03     7.9343   0.4502   165.7944
 46      0.0000     0.0000E+00    0.0000E+00    1.434000E+09  0.02000  1.263E-04    0   0.5908   age139_m62            0.0000     2.0961E-03     7.4197  -0.0151   164.6826
 47      0.0000     0.0000E+00    0.0000E+00    2.500000E+09  0.02000  5.985E-05    0   0.5673   age150_m62            0.0000     1.9246E-03     6.4603  -0.4033   163.5951
 48      0.0000     0.0000E+00    0.0000E+00    4.250000E+09  0.02000  3.271E-05    0   0.5468   age158_m62            0.0000     1.9020E-03     5.9613  -0.7075   161.7080
 49      0.0000     0.0000E+00    0.0000E+00    1.000000E+10  0.02000  1.360E-05    0   0.5167   age181_m62            0.0000     1.8205E-03     6.4535  -1.0000   158.2984
 50      0.0000     0.0000E+00    0.0000E+00    1.800000E+10  0.02000  7.124E-06    0   0.5013   age213_m62            0.0000     1.9222E-03     9.7896  -1.0000   147.9877
 51      0.6606     2.2261E-01    2.2257E-01    1.000000E+06  0.05000  2.592E-02    0   0.9998   age020_m72            0.0000     1.9732E-03     5.8324   2.8188   155.2767
 52      0.0000     0.0000E+00    0.0000E+00    3.160000E+06  0.05000  4.845E-02    0   0.9577   age045_m72            0.0000     1.9693E-03     5.9527   2.6799   156.5028
 53      0.0000     0.0000E+00    0.0000E+00    5.010000E+06  0.05000  3.072E-02    0   0.9147   age055_m72            0.0000     2.2720E-03     7.9949   2.2144   162.4429
 54      0.0000     0.0000E+00    0.0000E+00    6.610000E+06  0.05000  1.455E-02    0   0.8877   age061_m72            0.0000     3.1976E-03    13.6371   1.4406   174.7088
 55      0.0000     0.0000E+00    0.0000E+00    1.000000E+07  0.05000  9.074E-03    0   0.8524   age070_m72            0.0000     2.3624E-03     8.1805   2.3835   162.2163
 56      0.0000     0.0000E+00    0.0000E+00    2.512000E+07  0.05000  4.250E-03    0   0.7902   age090_m72            0.0000     2.4233E-03     8.7729   2.1308   162.3783
 57      0.0000     0.0000E+00    0.0000E+00    4.000000E+07  0.05000  3.087E-03    0   0.7618   age104_m72            0.0000     2.5293E-03     9.4065   1.9202   163.8603
 58      0.0000     0.0000E+00    0.0000E+00    1.015200E+08  0.05000  1.700E-03    0   0.7096   age116_m72            0.0000     2.4938E-03     9.0881   1.7175   164.6295
 59      0.0000     0.0000E+00    0.0000E+00    2.861200E+08  0.05000  7.384E-04    0   0.6633   age125_m72            0.0000     2.4639E-03     8.8030   1.2661   166.4751
 60      0.0000     0.0000E+00    0.0000E+00    5.088000E+08  0.05000  3.819E-04    0   0.6372   age130_m72            0.0000     2.2901E-03     8.2261   0.7961   167.2094
 61      0.0000     0.0000E+00    0.0000E+00    9.047900E+08  0.05000  1.676E-04    0   0.6110   age135_m72            0.0000     1.9893E-03     6.8679   0.0776   165.3407
 62      0.0000     0.0000E+00    0.0000E+00    1.434000E+09  0.05000  8.837E-05    0   0.5874   age139_m72            0.0000     2.0010E-03     6.7323  -0.3851   164.5198
 63      0.0000     0.0000E+00    0.0000E+00    2.500000E+09  0.05000  4.233E-05    0   0.5598   age150_m72            0.0000     1.8184E-03     5.8435  -0.7147   163.4357
 64      0.0000     0.0000E+00    0.0000E+00    6.250000E+09  0.05000  1.435E-05    0   0.5249   age166_m72            0.0000     1.8487E-03     8.0726  -1.0000   153.4965
 65      0.0000     0.0000E+00    0.0000E+00    1.300000E+10  0.05000  6.513E-06    0   0.5036   age193_m72            0.0000     2.2122E-03    12.7963  -1.0000   142.6660
 66      0.0000     0.0000E+00    0.0000E+00    1.800000E+10  0.05000  4.527E-06    0   0.4945   age213_m72            0.0000     2.6298E-03    15.5059  -1.0000   135.1732


## Synthesis Results - Average & Chains ##

# j      x_j: min, <> & last-chain-values for 1 ...  7 chains
  1    114.3162      3.0848      3.6424      3.8064      0.4298      0.0140      2.7872      3.2034      8.1135
  2      0.0000      0.3654      0.0000      1.3794      1.2263      2.4648      0.0000      0.3176      0.6593
  3      0.0000      0.3587      3.0040      0.0000      0.8921      2.2355      0.0000      1.0622      1.0851
  4      0.0000      0.4116      2.0798      3.6655      0.7889      1.6475      0.0168      0.0508      0.6398
  5      0.0000      0.3050      2.3537      0.7331      0.5352      1.3074      0.3208      1.5736      0.8222
  6      0.0000      0.4124      1.3714      0.0005      0.0843      0.0000      0.6751      0.0000      0.0000
  7      0.0000      0.3903      1.4899      1.6255      0.0000      1.3479      1.7543      1.1213      1.0155
  8      0.0000      0.3649      1.3180      0.0000      0.3513      2.8083      0.3474      0.0000      0.5372
  9      0.0000      0.3771      0.7737      0.0000      0.0000      0.7740      0.0000      0.1837      1.6672
 10      0.0000      0.2245      1.1720      1.3635      4.1485      0.0561      0.7499      0.0000      0.7562
 11      0.0000      0.4899      1.7977      3.0436      0.7364      1.5157      2.8555      0.5922      0.1824
 12      0.0000      0.3484      3.9760      0.8225      3.3267      0.0000      0.6426      0.0000      0.3677
 13      0.0000      0.3430      0.0000      2.8756      1.5829      1.9027      0.6432      0.3585      0.2584
 14      0.0000      0.3064      0.1203      1.1155      2.5999      0.9537      0.3110      0.6070      0.8300
 15      0.0000      0.3272      0.3450      0.0000      0.0000      0.3681      0.2418      0.0000      4.0432
 16      0.0000      0.2621      0.0927      0.0000      0.0000      3.8015      0.2858      0.0158      0.9823
 17      0.0000      0.3352      2.3945      3.1406      0.0000      0.0000      0.6899      0.0000      1.7325
 18      0.0000      7.0517      1.9229      6.0117      5.7176      6.1142      8.5282      5.2257      2.9944
 19      0.0000      0.3219      0.5479      0.2928      1.8460      1.4741      1.6492      0.6537      0.7613
 20      0.0000      0.4541      1.0619      1.5307      1.1496      1.3388      1.6016      0.8826      1.5044
 21      0.0000      0.3017      0.5778      0.0000      0.0000      0.0000      0.5431      0.0000      0.0000
 22      0.0000      0.4626      2.2173      1.2413      0.0000      0.0000      0.2009      0.2646      1.5052
 23      0.0000      0.3550      2.2611      0.4238      1.5094      1.0603      0.0000      0.5341      0.0000
 24      0.0000      0.3876      2.0325      0.0000      4.9374      1.0741      1.0609      0.0000      0.2443
 25      0.0000      0.3440      1.9602      0.0000      0.0000      0.0000      0.4439      1.9259      1.0942
 26      0.0000      0.4706      1.4200      2.1531      0.7280      0.0333      0.8990      0.0710      1.9386
 27      0.0000      0.3471      0.2983      0.2074      1.3161      0.7093      2.9840      1.8005      0.0000
 28      0.0000      0.3463      0.7125      0.0000      0.0760      2.0411      0.0000      0.0000      3.7914
 29      0.0000      0.4111      1.1193      0.7074      3.9296      3.1897      0.1756      0.2904      3.3621
 30      0.0000      0.3048      1.0247      0.8757      1.9056      0.0000      0.2538      1.0866      0.0000
 31      0.0000      0.3546      0.7559      0.0511      1.8250      0.0000      0.1214      1.3129      1.7263
 32      0.0000      0.3967      0.9127      0.4784      2.6671      0.0855      0.6377      1.0140      0.3868
 33      0.0000      0.3376      3.1871      2.0064      0.1823      0.0000      0.1637      0.0000      0.1364
 34      0.0000      0.2837      0.0738      2.8971      0.6496      0.0000      0.0000      0.5272      1.2001
 35     15.0232      9.6393      7.0595      8.9857      8.0476     12.8480      9.5947     10.2854      6.7171
 36      0.0000      0.9621      2.2008      0.0000      5.3051      2.0265      0.2428      1.7707      2.0000
 37      0.0000      0.3648      1.7416      0.0000      0.3271      2.5541      0.0000      0.5527      0.0000
 38      0.0000      0.3357      0.7871      0.0000      1.7916      0.0000      0.1089      0.0000      1.3004
 39      0.0000      0.3792      0.0270      1.5514      1.6801      0.2967      0.7931      1.1583      1.7001
 40      0.0000      0.3434      1.3516      1.1206      0.0000      0.0000      0.4195      0.2371      2.1694
 41      0.0000      0.5220      0.0000      0.7266      2.4361      1.4865      2.3617      0.6923      1.5571
 42      0.0000      0.4945      1.8366      1.2817      1.1397      4.8121      1.0043      0.2636      0.0000
 43      0.0000      0.4450      2.7544      4.5259      0.0000      2.5091      1.3403      0.1253      1.2722
 44      0.0000      0.4466      1.9797      3.1890      0.0069      0.0000      0.2912      0.2572      0.0000
 45      0.0000      0.3512      3.2062      0.0806      2.7344      0.9109      0.4380      0.0000      0.8533
 46      0.0000      0.3062      0.4068      0.0000      0.0000      0.0000      0.0000      0.4730      0.7554
