###################################################################
## OUTPUT of StarlightChains_v04.for    [Cid@UFSC - 01/Apr/2007] ##
###################################################################

## Some input info
KUG0210-078._50_39.txt                   [arq_obs]
Base.CB07.vall.4m                        [arq_base]
Masks.EmLines.NEW.gm                     [arq_masks]
StCv04.C11.config                        [arq_config]
   66                                    [N_base]
    0                                    [N_YAV_components = # of components with extra extinction!]
    0                                    [i_FitPowerLaw (1/0 = Yes/No)]
-9.99                                    [alpha_PowerLaw]
CCM                                      [red_law_option]
 1.458241                                [q_norm = A(l_norm)/A(V)]

## (Re)Sampling Parameters
 3741.00                                 [l_ini (A)]
 7218.00                                 [l_fin (A)]
    1.00                                 [dl    (A)]     (OBS: dl_cushion =    50.00 A)

## Normalization info
 4020.00                                 [l_norm (A) - for base]
 4010.00                                 [llow_norm (A) - window for f_obs]
 4060.00                                 [lupp_norm (A) - window for f_obs]
3.253915E-18                             [fobs_norm (in input units)]

## S/N
 3691.00                                 [llow_SN (A) - window for S/N]
 7268.00                                 [lupp_SN (A) - window for S/N]
   2.560                                 [S/N in S/N window]
   1.521                                 [S/N in norm. window]
   0.006                                 [S/N_err in S/N window]
   0.004                                 [S/N_err in norm. window]
  1.0000                                 [fscale_chi2]

## etc...
    -2007957                             [idum_orig]
  2369                                   [NOl_eff]
  2197                                   [Nl_eff]
   172    NSIGMA                         [Ntot_cliped & clip_method]
  5830930                                [Nglobal_steps]
   7                                     [N_chains]
   7                                     [NEX0s_base = N_base in EX0s-fits]
 0   0   1      172   2.0   1.895E+03    [Clip-Bug, RC-Crash & Burn-In warning-flags, n_censored_weights, wei_nsig_threshold & wei_limit]
    58     56.940     56.339      0.601  [idt_all, wdt_TotTime, wdt_UsrTime & wdt_SysTime (sec)]

## Synthesis Results - Best model ##

 1.29734E-05                             [chi2/Nl_eff]
    36.23640                             [adev (%)]

   130.00000                             [sum-of-x (%)]
 4.60137E-16                             [Flux_tot (units of input spectrum!)]
 4.20600E-14                             [Mini_tot (???)]
 4.20600E-14                             [Mcor_tot (???)]

-387.44                                  [v0_min  (km/s)]
   6.58                                  [vd_min  (km/s)]
 3.4914                                  [AV_min  (mag)]
 0.0000                                  [YAV_min (mag)]

# j     x_j(%)      Mini_j(%)     Mcor_j(%)     age_j(yr)     Z_j      (L/M)_j    YAV?  Mstars   component_j        a/Fe...       SSP_chi2r SSP_adev(%)   SSP_AV   SSP_x(%)
  1    130.0000     1.0000E+02    1.0000E+02    1.000000E+06  0.00400  1.094E-02    0   1.0000   age020_m42            0.0000     8.2373E-06    29.2324   2.4013   209.8849
  2      0.0000     0.0000E+00    0.0000E+00    3.160000E+06  0.00400  4.007E-02    0   0.9999   age045_m42            0.0000     8.3866E-06    30.1582   1.7658   215.8057
  3      0.0000     0.0000E+00    0.0000E+00    5.010000E+06  0.00400  2.539E-02    0   0.9488   age055_m42            0.0000     8.2958E-06    29.7997   2.0445   214.3429
  4      0.0000     0.0000E+00    0.0000E+00    6.610000E+06  0.00400  2.620E-02    0   0.9220   age061_m42            0.0000     8.3911E-06    30.4053   1.6992   215.8482
  5      0.0000     0.0000E+00    0.0000E+00    1.000000E+07  0.00400  1.322E-02    0   0.8862   age070_m42            0.0000     8.6704E-06    31.9453   1.4397   219.4587
  6      0.0000     0.0000E+00    0.0000E+00    1.445000E+07  0.00400  7.883E-03    0   0.8571   age078_m42            0.0000     8.5650E-06    31.4746   1.7362   216.6175
  7      0.0000     0.0000E+00    0.0000E+00    2.512000E+07  0.00400  5.251E-03    0   0.8174   age090_m42            0.0000     8.7441E-06    32.3911   1.3228   219.7645
  8      0.0000     0.0000E+00    0.0000E+00    4.000000E+07  0.00400  3.649E-03    0   0.7851   age104_m42            0.0000     8.7412E-06    32.3799   1.1080   220.2526
  9      0.0000     0.0000E+00    0.0000E+00    5.500000E+07  0.00400  3.098E-03    0   0.7629   age110_m42            0.0000     8.6585E-06    31.8048   1.2624   219.6004
 10      0.0000     0.0000E+00    0.0000E+00    1.015200E+08  0.00400  2.228E-03    0   0.7207   age116_m42            0.0000     8.5975E-06    31.4849   1.2876   219.2065
 11      0.0000     0.0000E+00    0.0000E+00    2.861200E+08  0.00400  1.093E-03    0   0.6648   age125_m42            0.0000     8.7405E-06    32.4246   0.7559   222.1781
 12      0.0000     0.0000E+00    0.0000E+00    5.088000E+08  0.00400  6.597E-04    0   0.6365   age130_m42            0.0000     8.6165E-06    31.8542   0.7545   222.8933
 13      0.0000     0.0000E+00    0.0000E+00    1.434000E+09  0.00400  2.132E-04    0   0.5798   age139_m42            0.0000     8.3835E-06    31.5425  -0.1934   224.7655
 14      0.0000     0.0000E+00    0.0000E+00    4.250000E+09  0.00400  5.895E-05    0   0.5377   age158_m42            0.0000     7.9511E-06    29.7619  -0.6835   219.5667
 15      0.0000     0.0000E+00    0.0000E+00    7.500000E+09  0.00400  3.510E-05    0   0.5212   age171_m42            0.0000     7.8322E-06    29.2106  -0.8800   218.3534
 16      0.0000     0.0000E+00    0.0000E+00    1.300000E+10  0.00400  2.005E-05    0   0.5034   age193_m42            0.0000     7.7905E-06    29.6293  -1.0000   214.8237
 17      0.0000     0.0000E+00    0.0000E+00    1.800000E+10  0.00400  1.525E-05    0   0.4967   age213_m42            0.0000     7.7714E-06    30.1088  -1.0000   212.9622
 18      0.0000     0.0000E+00    0.0000E+00    1.000000E+06  0.00800  1.238E-02    0   1.0000   age020_m52            0.0000     8.2115E-06    29.1207   2.3925   210.6346
 19      0.0000     0.0000E+00    0.0000E+00    3.160000E+06  0.00800  3.074E-02    0   0.9966   age045_m52            0.0000     8.1816E-06    29.0853   2.3186   212.2536
 20      0.0000     0.0000E+00    0.0000E+00    5.010000E+06  0.00800  2.668E-02    0   0.9443   age055_m52            0.0000     8.2518E-06    29.6829   2.1130   213.8171
 21      0.0000     0.0000E+00    0.0000E+00    6.610000E+06  0.00800  2.136E-02    0   0.9177   age061_m52            0.0000     8.5069E-06    31.4296   0.9327   222.4670
 22      0.0000     0.0000E+00    0.0000E+00    1.000000E+07  0.00800  1.215E-02    0   0.8827   age070_m52            0.0000     8.6868E-06    32.1965   1.6060   220.4405
 23      0.0000     0.0000E+00    0.0000E+00    1.445000E+07  0.00800  8.717E-03    0   0.8552   age078_m52            0.0000     8.5825E-06    31.6425   1.7110   218.8825
 24      0.0000     0.0000E+00    0.0000E+00    2.512000E+07  0.00800  5.592E-03    0   0.8162   age090_m52            0.0000     8.7531E-06    32.5972   1.3917   221.9876
 25      0.0000     0.0000E+00    0.0000E+00    4.000000E+07  0.00800  3.896E-03    0   0.7841   age104_m52            0.0000     8.7193E-06    32.4058   1.3127   222.3809
 26      0.0000     0.0000E+00    0.0000E+00    1.015200E+08  0.00800  2.148E-03    0   0.7226   age116_m52            0.0000     8.6055E-06    31.8217   1.2588   220.8126
 27      0.0000     0.0000E+00    0.0000E+00    2.861200E+08  0.00800  9.925E-04    0   0.6683   age125_m52            0.0000     8.6469E-06    31.9410   0.8195   224.9583
 28      0.0000     0.0000E+00    0.0000E+00    9.047900E+08  0.00800  3.141E-04    0   0.6138   age135_m52            0.0000     8.3534E-06    31.1580   0.0398   231.3045
 29      0.0000     0.0000E+00    0.0000E+00    1.434000E+09  0.00800  1.719E-04    0   0.5853   age139_m52            0.0000     8.1272E-06    30.6434  -0.5642   228.4608
 30      0.0000     0.0000E+00    0.0000E+00    2.500000E+09  0.00800  7.872E-05    0   0.5600   age150_m52            0.0000     7.7945E-06    29.1815  -0.8596   224.1390
 31      0.0000     0.0000E+00    0.0000E+00    4.250000E+09  0.00800  4.336E-05    0   0.5426   age158_m52            0.0000     7.7334E-06    28.9947  -0.8797   222.4372
 32      0.0000     0.0000E+00    0.0000E+00    6.250000E+09  0.00800  3.159E-05    0   0.5319   age166_m52            0.0000     7.6500E-06    29.8050  -1.0000   218.0009
 33      0.0000     0.0000E+00    0.0000E+00    1.300000E+10  0.00800  1.361E-05    0   0.5073   age193_m52            0.0000     8.3680E-06    37.9627  -1.0000   192.2042
 34      0.0000     0.0000E+00    0.0000E+00    1.800000E+10  0.00800  9.886E-06    0   0.4990   age213_m52            0.0000     8.6488E-06    39.5268  -1.0000   185.2780
 35      0.0000     0.0000E+00    0.0000E+00    1.000000E+06  0.02000  1.544E-02    0   1.0000   age020_m62            0.0000     8.1958E-06    29.0047   2.3821   211.5881
 36      0.0000     0.0000E+00    0.0000E+00    3.160000E+06  0.02000  3.762E-02    0   0.9858   age045_m62            0.0000     8.1657E-06    28.9632   2.3186   213.7514
 37      0.0000     0.0000E+00    0.0000E+00    5.010000E+06  0.02000  3.296E-02    0   0.9342   age055_m62            0.0000     8.2990E-06    29.7278   2.0125   216.0963
 38      0.0000     0.0000E+00    0.0000E+00    8.710000E+06  0.02000  1.154E-02    0   0.8861   age067_m62            0.0000     9.2485E-06    35.2063   1.0660   227.8632
 39      0.0000     0.0000E+00    0.0000E+00    1.445000E+07  0.02000  7.663E-03    0   0.8472   age078_m62            0.0000     8.8667E-06    33.1890   1.2633   224.7616
 40      0.0000     0.0000E+00    0.0000E+00    2.512000E+07  0.02000  4.532E-03    0   0.8099   age090_m62            0.0000     8.9256E-06    33.5518   1.2661   223.2444
 41      0.0000     0.0000E+00    0.0000E+00    5.500000E+07  0.02000  2.733E-03    0   0.7595   age110_m62            0.0000     8.6709E-06    32.2866   1.2890   221.4262
 42      0.0000     0.0000E+00    0.0000E+00    1.609000E+08  0.02000  1.369E-03    0   0.6985   age120_m62            0.0000     8.6626E-06    31.9685   1.1611   223.7230
 43      0.0000     0.0000E+00    0.0000E+00    2.861200E+08  0.02000  9.013E-04    0   0.6714   age125_m62            0.0000     8.7068E-06    31.9448   0.9364   227.3415
 44      0.0000     0.0000E+00    0.0000E+00    5.088000E+08  0.02000  5.028E-04    0   0.6449   age130_m62            0.0000     8.5287E-06    31.1303   0.5705   231.3440
 45      0.0000     0.0000E+00    0.0000E+00    9.047900E+08  0.02000  2.428E-04    0   0.6179   age135_m62            0.0000     8.1028E-06    30.1441  -0.0394   231.2896
 46      0.0000     0.0000E+00    0.0000E+00    1.434000E+09  0.02000  1.263E-04    0   0.5908   age139_m62            0.0000     7.8557E-06    29.5324  -0.5035   229.4505
 47      0.0000     0.0000E+00    0.0000E+00    2.500000E+09  0.02000  5.985E-05    0   0.5673   age150_m62            0.0000     7.6668E-06    28.4845  -0.8897   227.4154
 48      0.0000     0.0000E+00    0.0000E+00    4.250000E+09  0.02000  3.271E-05    0   0.5468   age158_m62            0.0000     7.5749E-06    30.9757  -1.0000   215.3940
 49      0.0000     0.0000E+00    0.0000E+00    1.000000E+10  0.02000  1.360E-05    0   0.5167   age181_m62            0.0000     8.1417E-06    36.7641  -1.0000   195.7415
 50      0.0000     0.0000E+00    0.0000E+00    1.800000E+10  0.02000  7.124E-06    0   0.5013   age213_m62            0.0000     8.8418E-06    40.2316  -1.0000   182.6009
 51      0.0000     0.0000E+00    0.0000E+00    1.000000E+06  0.05000  2.592E-02    0   0.9998   age020_m72            0.0000     8.1631E-06    28.9175   2.3651   212.4542
 52      0.0000     0.0000E+00    0.0000E+00    3.160000E+06  0.05000  4.845E-02    0   0.9577   age045_m72            0.0000     8.1934E-06    29.1578   2.2263   214.2817
 53      0.0000     0.0000E+00    0.0000E+00    5.010000E+06  0.05000  3.072E-02    0   0.9147   age055_m72            0.0000     8.5500E-06    31.5611   1.7951   220.2100
 54      0.0000     0.0000E+00    0.0000E+00    6.610000E+06  0.05000  1.455E-02    0   0.8877   age061_m72            0.0000     9.7063E-06    36.4997   1.0998   230.3521
 55      0.0000     0.0000E+00    0.0000E+00    1.000000E+07  0.05000  9.074E-03    0   0.8524   age070_m72            0.0000     8.6109E-06    31.5563   1.9623   219.9487
 56      0.0000     0.0000E+00    0.0000E+00    2.512000E+07  0.05000  4.250E-03    0   0.7902   age090_m72            0.0000     8.7239E-06    32.2994   1.7184   219.6256
 57      0.0000     0.0000E+00    0.0000E+00    4.000000E+07  0.05000  3.087E-03    0   0.7618   age104_m72            0.0000     8.8395E-06    32.8879   1.5168   221.0566
 58      0.0000     0.0000E+00    0.0000E+00    1.015200E+08  0.05000  1.700E-03    0   0.7096   age116_m72            0.0000     8.7597E-06    32.4303   1.3000   223.2619
 59      0.0000     0.0000E+00    0.0000E+00    2.861200E+08  0.05000  7.384E-04    0   0.6633   age125_m72            0.0000     8.5228E-06    31.4658   0.8034   230.0173
 60      0.0000     0.0000E+00    0.0000E+00    5.088000E+08  0.05000  3.819E-04    0   0.6372   age130_m72            0.0000     8.1756E-06    30.3267   0.2978   234.1432
 61      0.0000     0.0000E+00    0.0000E+00    9.047900E+08  0.05000  1.676E-04    0   0.6110   age135_m72            0.0000     7.7563E-06    28.6847  -0.4334   232.2017
 62      0.0000     0.0000E+00    0.0000E+00    1.434000E+09  0.05000  8.837E-05    0   0.5874   age139_m72            0.0000     7.6432E-06    28.4304  -0.8955   230.8875
 63      0.0000     0.0000E+00    0.0000E+00    2.500000E+09  0.05000  4.233E-05    0   0.5598   age150_m72            0.0000     7.5323E-06    30.9037  -1.0000   217.2954
 64      0.0000     0.0000E+00    0.0000E+00    6.250000E+09  0.05000  1.435E-05    0   0.5249   age166_m72            0.0000     8.4238E-06    38.5550  -1.0000   189.7536
 65      0.0000     0.0000E+00    0.0000E+00    1.300000E+10  0.05000  6.513E-06    0   0.5036   age193_m72            0.0000     9.6300E-06    43.1345  -1.0000   175.5481
 66      0.0000     0.0000E+00    0.0000E+00    1.800000E+10  0.05000  4.527E-06    0   0.4945   age213_m72            0.0000     1.0523E-05    45.6749  -1.0000   165.9359


## Synthesis Results - Average & Chains ##

# j      x_j: min, <> & last-chain-values for 1 ...  7 chains
  1    130.0000    122.2160    126.8535    126.2929    126.2613    127.1850    127.1093    129.0278    127.2707
  2      0.0000      0.0882      0.0251      0.0421      0.0501      0.0193      0.0127      0.0051      0.0105
  3      0.0000      0.0860      0.0017      0.0204      0.0000      0.0292      0.0007      0.0165      0.0000
  4      0.0000      0.0909      0.0060      0.0000      0.0453      0.0037      0.0006      0.0006      0.0031
  5      0.0000      0.0751      0.0028      0.0065      0.0000      0.0152      0.0000      0.0152      0.0039
  6      0.0000      0.1037      0.0000      0.0000      0.0000      0.0000      0.0035      0.0091      0.0101
  7      0.0000      0.0985      0.0505      0.0150      0.0112      0.0000      0.0256      0.0000      0.0034
  8      0.0000      0.0964      0.0229      0.0393      0.0264      0.0000      0.0103      0.0110      0.0000
  9      0.0000      0.0890      0.0096      0.0000      0.0132      0.0000      0.0133      0.0029      0.0055
 10      0.0000      0.0700      0.0002      0.0719      0.0071      0.0075      0.0086      0.0163      0.0050
 11      0.0000      0.0972      0.0311      0.0129      0.0673      0.0000      0.0504      0.0090      0.0000
 12      0.0000      0.0657      0.0059      0.0665      0.0188      0.0243      0.0000      0.0000      0.0176
 13      0.0000      0.1280      0.0088      0.0258      0.0426      0.0197      0.0022      0.0115      0.0029
 14      0.0000      0.0893      0.0144      0.0087      0.0257      0.0000      0.0018      0.0133      0.0230
 15      0.0000      0.0969      0.0084      0.0000      0.0281      0.0040      0.0230      0.0054      0.0082
 16      0.0000      0.0814      0.0000      0.0356      0.0469      0.0277      0.0051      0.0030      0.0000
 17      0.0000      0.0757      0.0225      0.0000      0.0229      0.0032      0.0090      0.0000      0.0152
 18      0.0000      0.0989      0.0215      0.0000      0.0093      0.0034      0.0175      0.0122      0.0073
 19      0.0000      0.0668      0.0024      0.0716      0.0165      0.0054      0.0000      0.0000      0.0081
 20      0.0000      0.1011      0.0000      0.0229      0.0871      0.0000      0.0282      0.0000      0.0049
 21      0.0000      0.0812      0.0141      0.0129      0.0779      0.0000      0.0000      0.0000      0.0015
 22      0.0000      0.1117      0.0295      0.0303      0.0037      0.0000      0.0485      0.0000      0.0032
 23      0.0000      0.1017      0.0000      0.0156      0.0000      0.0208      0.0027      0.0010      0.0000
 24      0.0000      0.0691      0.0181      0.0164      0.0000      0.0134      0.0062      0.0021      0.0213
 25      0.0000      0.0819      0.0000      0.0416      0.0389      0.0240      0.0097      0.0000      0.0026
 26      0.0000      0.1381      0.0000      0.0000      0.0162      0.0000      0.0134      0.0173      0.0104
 27      0.0000      0.0770      0.0294      0.0185      0.0185      0.0109      0.0000      0.0138      0.0140
 28      0.0000      0.1064      0.0051      0.0629      0.0436      0.0004      0.0033      0.0118      0.0024
 29      0.0000      0.1137      0.0221      0.0236      0.0075      0.0007      0.0000      0.0058      0.0003
 30      0.0000      0.1039      0.0000      0.0042      0.0832      0.0034      0.0076      0.0000      0.0107
 31      0.0000      0.1295      0.0000      0.0663      0.0370      0.0000      0.0000      0.0000      0.0000
 32      0.0000      0.0655      0.0190      0.0000      0.0106      0.0000      0.0054      0.0035      0.0351
 33      0.0000      0.0727      0.0042      0.0000      0.0334      0.0147      0.0001      0.0000      0.0154
 34      0.0000      0.0734      0.0000      0.0000      0.0167      0.0000      0.0000      0.0003      0.0032
 35      0.0000      0.0786      0.0462      0.0366      0.0000      0.0170      0.0228      0.0061      0.0004
 36      0.0000      0.1060      0.0120      0.0000      0.0370      0.0250      0.0000      0.0035      0.0047
 37      0.0000      0.0801      0.0131      0.0077      0.0111      0.0328      0.0143      0.0013      0.0140
 38      0.0000      0.0958      0.0000      0.0451      0.0317      0.0079      0.0083      0.0077      0.0010
 39      0.0000      0.0809      0.0465      0.0319      0.0030      0.0250      0.0063      0.0024      0.0000
 40      0.0000      0.0993      0.0308      0.0197      0.0319      0.0191      0.0370      0.0067      0.0080
 41      0.0000      0.0654      0.0295      0.0149      0.0241      0.0031      0.0236      0.0061      0.0070
 42      0.0000      0.0972      0.0061      0.0137      0.0000      0.0104      0.0029      0.0000      0.0016
 43      0.0000      0.1033      0.0020      0.0481      0.0000      0.0082      0.0089      0.0048      0.0021
 44      0.0000      0.0716      0.0269      0.0807      0.0106      0.0049      0.0000      0.0000      0.0071
 45      0.0000      0.0648      0.0202      0.0000      0.0000      0.0012      0.0000      0.0044      0.0072
 46      0.0000      0.0978      0.0192      0.0000      0.0261      0.0033      0.0060      0.0042      0.0040
