###################################################################
## OUTPUT of StarlightChains_v04.for    [Cid@UFSC - 01/Apr/2007] ##
###################################################################

## Some input info
KUG0210-078._25_22.txt                   [arq_obs]
Base.CB07.vall.4m                        [arq_base]
Masks.EmLines.NEW.gm                     [arq_masks]
StCv04.C11.config                        [arq_config]
   66                                    [N_base]
    0                                    [N_YAV_components = # of components with extra extinction!]
    0                                    [i_FitPowerLaw (1/0 = Yes/No)]
-9.99                                    [alpha_PowerLaw]
CCM                                      [red_law_option]
 1.458241                                [q_norm = A(l_norm)/A(V)]

## (Re)Sampling Parameters
 3741.00                                 [l_ini (A)]
 7218.00                                 [l_fin (A)]
    1.00                                 [dl    (A)]     (OBS: dl_cushion =    50.00 A)

## Normalization info
 4020.00                                 [l_norm (A) - for base]
 4010.00                                 [llow_norm (A) - window for f_obs]
 4060.00                                 [lupp_norm (A) - window for f_obs]
1.309577E-17                             [fobs_norm (in input units)]

## S/N
 3691.00                                 [llow_SN (A) - window for S/N]
 7268.00                                 [lupp_SN (A) - window for S/N]
   4.915                                 [S/N in S/N window]
   5.089                                 [S/N in norm. window]
   0.016                                 [S/N_err in S/N window]
   0.016                                 [S/N_err in norm. window]
  1.0000                                 [fscale_chi2]

## etc...
    -2007295                             [idum_orig]
  2424                                   [NOl_eff]
  2400                                   [Nl_eff]
    24    NSIGMA                         [Ntot_cliped & clip_method]
  4373390                                [Nglobal_steps]
   7                                     [N_chains]
  50                                     [NEX0s_base = N_base in EX0s-fits]
 0   1   1       25   2.0   2.738E+03    [Clip-Bug, RC-Crash & Burn-In warning-flags, n_censored_weights, wei_nsig_threshold & wei_limit]
    79     78.380     77.830      0.551  [idt_all, wdt_TotTime, wdt_UsrTime & wdt_SysTime (sec)]

## Synthesis Results - Best model ##

 2.93847E-05                             [chi2/Nl_eff]
    19.09238                             [adev (%)]

    99.01787                             [sum-of-x (%)]
 2.59909E-17                             [Flux_tot (units of input spectrum!)]
 7.18441E-13                             [Mini_tot (???)]
 3.65613E-13                             [Mcor_tot (???)]

   0.00                                  [v0_min  (km/s)]
 473.55                                  [vd_min  (km/s)]
 0.5177                                  [AV_min  (mag)]
 0.0000                                  [YAV_min (mag)]

# j     x_j(%)      Mini_j(%)     Mcor_j(%)     age_j(yr)     Z_j      (L/M)_j    YAV?  Mstars   component_j        a/Fe...       SSP_chi2r SSP_adev(%)   SSP_AV   SSP_x(%)
  1      9.0931     3.0368E-02    5.9673E-02    1.000000E+06  0.00400  1.094E-02    0   1.0000   age020_m42            0.0000     2.9229E-05    19.5683   3.1773    85.1411
  2      3.4628     3.1573E-03    6.2036E-03    3.160000E+06  0.00400  4.007E-02    0   0.9999   age045_m42            0.0000     3.0204E-05    19.0385   2.4487    91.4333
  3      0.0000     0.0000E+00    0.0000E+00    5.010000E+06  0.00400  2.539E-02    0   0.9488   age055_m42            0.0000     3.0012E-05    19.2821   2.7731    88.9649
  4      1.4631     2.0403E-03    3.6966E-03    6.610000E+06  0.00400  2.620E-02    0   0.9220   age061_m42            0.0000     3.0652E-05    19.0349   2.3770    91.5898
  5      1.7008     4.7003E-03    8.1852E-03    1.000000E+07  0.00400  1.322E-02    0   0.8862   age070_m42            0.0000     3.1209E-05    19.8883   2.1116    92.5128
  6      0.5890     2.7296E-03    4.5973E-03    1.445000E+07  0.00400  7.883E-03    0   0.8571   age078_m42            0.0000     3.0914E-05    19.9514   2.4419    90.1375
  7      0.0000     0.0000E+00    0.0000E+00    2.512000E+07  0.00400  5.251E-03    0   0.8174   age090_m42            0.0000     3.1495E-05    20.0709   1.9815    92.8733
  8      1.0069     1.0081E-02    1.5553E-02    4.000000E+07  0.00400  3.649E-03    0   0.7851   age104_m42            0.0000     3.1395E-05    19.8227   1.7463    93.9206
  9      0.6681     7.8794E-03    1.1812E-02    5.500000E+07  0.00400  3.098E-03    0   0.7629   age110_m42            0.0000     3.1670E-05    19.3035   1.8942    94.4280
 10      0.0000     0.0000E+00    0.0000E+00    1.015200E+08  0.00400  2.228E-03    0   0.7207   age116_m42            0.0000     3.2238E-05    18.9605   1.9098    94.9617
 11      0.3167     1.0585E-02    1.3828E-02    2.861200E+08  0.00400  1.093E-03    0   0.6648   age125_m42            0.0000     3.3988E-05    19.4220   1.3711    97.7404
 12      1.7823     9.8710E-02    1.2346E-01    5.088000E+08  0.00400  6.597E-04    0   0.6365   age130_m42            0.0000     3.4155E-05    18.6842   1.3438    99.0566
 13      0.0988     1.6935E-02    1.9295E-02    1.434000E+09  0.00400  2.132E-04    0   0.5798   age139_m42            0.0000     3.1813E-05    17.9099   0.3252   101.7372
 14      3.7303     2.3119E+00    2.4428E+00    4.250000E+09  0.00400  5.895E-05    0   0.5377   age158_m42            0.0000     2.8364E-05    17.4094  -0.1387    98.9188
 15      0.8996     9.3636E-01    9.5900E-01    7.500000E+09  0.00400  3.510E-05    0   0.5212   age171_m42            0.0000     2.7935E-05    17.2212  -0.3329    98.6400
 16      1.9037     3.4689E+00    3.4314E+00    1.300000E+10  0.00400  2.005E-05    0   0.5034   age193_m42            0.0000     2.7692E-05    17.1221  -0.5035    98.5118
 17      3.1056     7.4404E+00    7.2620E+00    1.800000E+10  0.00400  1.525E-05    0   0.4967   age213_m42            0.0000     2.7705E-05    17.1421  -0.5228    98.0057
 18      0.0000     0.0000E+00    0.0000E+00    1.000000E+06  0.00800  1.238E-02    0   1.0000   age020_m52            0.0000     2.9210E-05    19.5416   3.1737    85.2860
 19      2.9251     3.4766E-03    6.8083E-03    3.160000E+06  0.00800  3.074E-02    0   0.9966   age045_m52            0.0000     2.9362E-05    19.4684   3.0941    86.0606
 20      0.0000     0.0000E+00    0.0000E+00    5.010000E+06  0.00800  2.668E-02    0   0.9443   age055_m52            0.0000     2.9789E-05    19.3266   2.8529    88.0591
 21      0.8048     1.3767E-03    2.4825E-03    6.610000E+06  0.00800  2.136E-02    0   0.9177   age061_m52            0.0000     2.9212E-05    19.5439   1.5950    93.7219
 22      0.4480     1.3472E-03    2.3368E-03    1.000000E+07  0.00800  1.215E-02    0   0.8827   age070_m52            0.0000     3.1607E-05    20.3523   2.3022    92.0815
 23      0.0000     0.0000E+00    0.0000E+00    1.445000E+07  0.00800  8.717E-03    0   0.8552   age078_m52            0.0000     3.1088E-05    19.9054   2.4021    91.4984
 24      0.8511     5.5605E-03    8.9182E-03    2.512000E+07  0.00800  5.592E-03    0   0.8162   age090_m52            0.0000     3.1931E-05    20.1270   2.0459    94.0888
 25      0.9277     8.6998E-03    1.3404E-02    4.000000E+07  0.00800  3.896E-03    0   0.7841   age104_m52            0.0000     3.2012E-05    19.8294   1.9549    95.1541
 26      0.5063     8.6122E-03    1.2229E-02    1.015200E+08  0.00800  2.148E-03    0   0.7226   age116_m52            0.0000     3.2011E-05    19.1719   1.8824    95.4946
 27      2.6081     9.6009E-02    1.2608E-01    2.861200E+08  0.00800  9.925E-04    0   0.6683   age125_m52            0.0000     3.3618E-05    18.5377   1.3923    99.9508
 28      1.1771     1.3692E-01    1.6515E-01    9.047900E+08  0.00800  3.141E-04    0   0.6138   age135_m52            0.0000     3.2230E-05    17.5472   0.5623   105.5360
 29      0.3841     8.1647E-02    9.3905E-02    1.434000E+09  0.00800  1.719E-04    0   0.5853   age139_m52            0.0000     3.0660E-05    17.5721  -0.0204   103.7868
 30      0.2839     1.3174E-01    1.4497E-01    2.500000E+09  0.00800  7.872E-05    0   0.5600   age150_m52            0.0000     2.8556E-05    17.0743  -0.3262   101.9356
 31      1.9954     1.6814E+00    1.7927E+00    4.250000E+09  0.00800  4.336E-05    0   0.5426   age158_m52            0.0000     2.8123E-05    17.0416  -0.3392   100.9932
 32      0.0005     6.1127E-04    6.3890E-04    6.250000E+09  0.00800  3.159E-05    0   0.5319   age166_m52            0.0000     2.8257E-05    16.8781  -0.5577   101.7452
 33      0.4234     1.1365E+00    1.1330E+00    1.300000E+10  0.00800  1.361E-05    0   0.5073   age193_m52            0.0000     2.8840E-05    16.4010  -1.0000    99.3163
 34      1.2702     4.6943E+00    4.6030E+00    1.800000E+10  0.00800  9.886E-06    0   0.4990   age213_m52            0.0000     3.0790E-05    15.5342  -1.0000    93.6840
 35      1.1054     2.6157E-03    5.1399E-03    1.000000E+06  0.02000  1.544E-02    0   1.0000   age020_m62            0.0000     2.9234E-05    19.5394   3.1700    85.4696
 36      0.0000     0.0000E+00    0.0000E+00    3.160000E+06  0.02000  3.762E-02    0   0.9858   age045_m62            0.0000     2.9383E-05    19.5044   3.1102    86.2108
 37      0.0000     0.0000E+00    0.0000E+00    5.010000E+06  0.02000  3.296E-02    0   0.9342   age055_m62            0.0000     3.0121E-05    19.0364   2.7228    90.3176
 38      2.7720     8.7763E-03    1.5281E-02    8.710000E+06  0.02000  1.154E-02    0   0.8861   age067_m62            0.0000     3.5321E-05    23.3733   1.7901    92.8280
 39      0.0000     0.0000E+00    0.0000E+00    1.445000E+07  0.02000  7.663E-03    0   0.8472   age078_m62            0.0000     3.2719E-05    21.2654   1.9659    93.8033
 40      0.0000     0.0000E+00    0.0000E+00    2.512000E+07  0.02000  4.532E-03    0   0.8099   age090_m62            0.0000     3.3688E-05    21.5027   1.9631    93.5702
 41      0.0000     0.0000E+00    0.0000E+00    5.500000E+07  0.02000  2.733E-03    0   0.7595   age110_m62            0.0000     3.1973E-05    19.7969   1.9372    94.4176
 42      3.8389     1.0245E-01    1.4062E-01    1.609000E+08  0.02000  1.369E-03    0   0.6985   age120_m62            0.0000     3.3202E-05    18.8782   1.7599    97.8349
 43      3.8030     1.5416E-01    2.0339E-01    2.861200E+08  0.02000  9.013E-04    0   0.6714   age125_m62            0.0000     3.4390E-05    18.2901   1.4945   101.0389
 44      0.8498     6.1751E-02    7.8254E-02    5.088000E+08  0.02000  5.028E-04    0   0.6449   age130_m62            0.0000     3.3985E-05    17.5143   1.0956   104.8379
 45      4.1117     6.1872E-01    7.5124E-01    9.047900E+08  0.02000  2.428E-04    0   0.6179   age135_m62            0.0000     3.0586E-05    17.1574   0.4806   105.3260
 46      1.0493     3.0353E-01    3.5239E-01    1.434000E+09  0.02000  1.263E-04    0   0.5908   age139_m62            0.0000     2.8723E-05    17.0486   0.0181   104.2768
 47      1.8271     1.1153E+00    1.2433E+00    2.500000E+09  0.02000  5.985E-05    0   0.5673   age150_m62            0.0000     2.7928E-05    16.9389  -0.3709   103.9175
 48      0.0000     0.0000E+00    0.0000E+00    4.250000E+09  0.02000  3.271E-05    0   0.5468   age158_m62            0.0000     2.8591E-05    16.9254  -0.6977   104.0001
 49      0.8749     2.3503E+00    2.3864E+00    1.000000E+10  0.02000  1.360E-05    0   0.5167   age181_m62            0.0000     3.0554E-05    16.3274  -1.0000   101.1955
 50      1.5881     8.1444E+00    8.0228E+00    1.800000E+10  0.02000  7.124E-06    0   0.5013   age213_m62            0.0000     3.5308E-05    15.0382  -1.0000    90.4079
 51      4.3820     6.1766E-03    1.2135E-02    1.000000E+06  0.05000  2.592E-02    0   0.9998   age020_m72            0.0000     2.9299E-05    19.5721   3.1627    85.3552
 52      0.0000     0.0000E+00    0.0000E+00    3.160000E+06  0.05000  4.845E-02    0   0.9577   age045_m72            0.0000     2.9695E-05    19.2970   2.9878    87.6100
 53      4.4225     5.2598E-03    9.4540E-03    5.010000E+06  0.05000  3.072E-02    0   0.9147   age055_m72            0.0000     3.2233E-05    20.8252   2.5647    90.7334
 54      0.9443     2.3713E-03    4.1364E-03    6.610000E+06  0.05000  1.455E-02    0   0.8877   age061_m72            0.0000     4.6809E-05    26.8967   1.9476    94.1884
 55      0.0000     0.0000E+00    0.0000E+00    1.000000E+07  0.05000  9.074E-03    0   0.8524   age070_m72            0.0000     3.4493E-05    21.8885   2.7863    90.7320
 56      1.1438     9.8329E-03    1.5268E-02    2.512000E+07  0.05000  4.250E-03    0   0.7902   age090_m72            0.0000     3.4317E-05    21.1392   2.4574    92.5825
 57      0.2008     2.3768E-03    3.5580E-03    4.000000E+07  0.05000  3.087E-03    0   0.7618   age104_m72            0.0000     3.5552E-05    21.2700   2.2322    94.1591
 58      2.3589     5.0697E-02    7.0691E-02    1.015200E+08  0.05000  1.700E-03    0   0.7096   age116_m72            0.0000     3.4018E-05    19.3937   1.9194    97.1693
 59      2.9081     1.4389E-01    1.8755E-01    2.861200E+08  0.05000  7.384E-04    0   0.6633   age125_m72            0.0000     3.4509E-05    17.8130   1.3466   103.1130
 60      0.0000     0.0000E+00    0.0000E+00    5.088000E+08  0.05000  3.819E-04    0   0.6372   age130_m72            0.0000     3.1959E-05    17.2686   0.8149   106.0240
 61      4.4435     9.6865E-01    1.1630E+00    9.047900E+08  0.05000  1.676E-04    0   0.6110   age135_m72            0.0000     2.8720E-05    17.0319   0.0751   105.8040
 62      0.2004     8.2847E-02    9.5627E-02    1.434000E+09  0.05000  8.837E-05    0   0.5874   age139_m72            0.0000     2.8365E-05    16.8655  -0.3805   105.7676
 63      0.0000     0.0000E+00    0.0000E+00    2.500000E+09  0.05000  4.233E-05    0   0.5598   age150_m72            0.0000     2.8837E-05    16.9477  -0.7089   105.4524
 64      3.3379     8.4984E+00    8.7656E+00    6.250000E+09  0.05000  1.435E-05    0   0.5249   age166_m72            0.0000     3.1883E-05    15.6478  -1.0000    95.8252
 65      5.2794     2.9616E+01    2.9307E+01    1.300000E+10  0.05000  6.513E-06    0   0.5036   age193_m72            0.0000     4.0421E-05    14.8319  -1.0000    84.2816
 66      3.1495     2.5419E+01    2.4700E+01    1.800000E+10  0.05000  4.527E-06    0   0.4945   age213_m72            0.0000     4.7048E-05    15.1447  -1.0000    77.6419


## Synthesis Results - Average & Chains ##

# j      x_j: min, <> & last-chain-values for 1 ...  7 chains
  1      9.0931      8.8382      8.1372      8.8327      8.5442      8.8530      8.8220      8.9501      8.8011
  2      3.4628      3.7740      3.5097      3.2260      3.4317      3.4843      3.6914      3.9364      3.4678
  3      0.0000      0.0678      0.5104      0.0765      0.0199      0.1813      0.0000      0.2282      0.0939
  4      1.4631      1.2952      1.9787      1.4288      1.1056      1.1425      1.3465      1.2969      1.1927
  5      1.7008      1.9314      2.2810      1.4789      1.7857      2.3487      1.8143      1.9943      1.9856
  6      0.5890      0.7298      0.7355      0.6176      0.7685      0.6611      0.7915      0.3957      1.0125
  7      0.0000      0.1217      0.1187      0.0000      0.0000      0.0000      0.2153      0.0000      0.0000
  8      1.0069      0.9893      0.2068      1.2737      1.2844      0.8548      0.5238      0.8950      0.8539
  9      0.6681      1.1008      1.1554      1.1292      1.1735      1.1280      0.8705      1.0896      0.8156
 10      0.0000      0.2370      0.1876      0.4011      0.0708      0.1429      0.0000      1.0196      0.2361
 11      0.3167      0.4951      0.2710      0.5043      0.4817      0.7969      0.7869      0.4663      1.0167
 12      1.7823      1.7268      2.3215      2.0940      1.7475      1.5052      1.2428      1.5755      1.2097
 13      0.0988      1.3435      0.6362      0.8697      0.0000      1.0838      1.0548      0.9582      1.0119
 14      3.7303      3.2102      3.3094      3.6429      3.1544      3.1521      3.1060      2.9400      3.3828
 15      0.8996      0.1801      0.0792      0.0577      0.8913      0.5612      0.0000      0.3258      0.3098
 16      1.9037      1.8087      1.8208      1.8647      1.6293      1.7905      1.8687      1.5655      1.7136
 17      3.1056      3.4733      3.4647      3.4770      3.4779      3.2700      3.5773      3.2205      3.7392
 18      0.0000      0.2354      0.3321      0.0000      0.1774      0.3572      0.1808      0.1139      0.1941
 19      2.9251      2.8925      2.9179      2.5805      2.8619      3.0687      2.8428      3.1396      2.9077
 20      0.0000      0.0903      0.0000      0.0000      0.0603      0.0000      0.0000      0.0000      0.2563
 21      0.8048      1.1273      1.1935      0.9123      0.7643      0.1239      0.8613      0.7900      0.8492
 22      0.4480      0.6971      0.7985      0.7384      0.4738      0.7990      0.6497      0.6354      0.5407
 23      0.0000      0.0874      0.0000      0.1298      0.2192      0.0589      0.0000      0.3555      0.1186
 24      0.8511      0.7268      0.8310      0.5545      0.8690      0.9721      0.4377      0.7942      0.7490
 25      0.9277      0.5351      0.6456      0.5128      0.4145      0.6491      0.6431      0.5344      1.4753
 26      0.5063      0.2644      0.4391      0.1948      0.3316      0.1858      0.6854      0.0000      0.5075
 27      2.6081      2.3598      2.5589      2.2507      2.5081      1.7880      2.4488      1.9679      2.4366
 28      1.1771      0.9840      0.7074      1.3304      2.8539      0.6379      1.6056      1.1961      0.4185
 29      0.3841      0.6051      0.6351      0.7414      0.5781      0.4470      0.2114      0.9262      0.4047
 30      0.2839      1.0190      1.0007      0.7948      0.9376      1.1607      0.9463      1.1095      0.9744
 31      1.9954      1.6366      1.6927      1.7894      1.2951      1.5438      1.6494      1.0551      1.6649
 32      0.0005      0.0897      0.0000      0.0000      0.0953      0.0127      0.3114      0.4029      0.2920
 33      0.4234      0.2667      0.2375      0.2947      0.3119      0.2133      0.2937      0.3921      0.4463
 34      1.2702      1.3580      1.4674      1.3378      1.3440      1.2424      1.3685      1.4361      1.3726
 35      1.1054      1.0199      1.0860      0.8389      1.0926      1.1879      1.0760      0.7832      1.1793
 36      0.0000      0.0781      0.2313      0.0000      0.0000      0.0000      0.1367      0.0000      0.1108
 37      0.0000      0.2310      0.0469      0.3091      0.0171      0.0849      0.2174      0.2394      0.0906
 38      2.7720      2.5539      2.0300      2.4920      2.6714      2.8086      2.0002      2.6132      2.5311
 39      0.0000      0.3056      0.4169      0.3488      0.0169      0.3237      0.7186      0.0000      0.0000
 40      0.0000      0.1515      0.0125      0.2811      0.0000      0.1434      0.3229      0.0000      0.2851
 41      0.0000      0.2728      0.1862      0.2507      0.4364      0.9910      0.0000      0.3343      0.0000
 42      3.8389      3.8241      3.7809      3.7754      3.4987      3.9761      3.7969      3.6749      3.7513
 43      3.8030      4.3607      4.5312      4.4597      4.3823      4.2170      4.3635      4.4522      4.4375
 44      0.8498      0.5771      0.0000      0.7393      1.2173      0.3461      0.9038      0.5693      0.3541
 45      4.1117      1.7185      3.0796      3.3299      2.3655      1.7573      1.9818      2.3892      2.6033
 46      1.0493      0.5568      0.1902      0.3217      0.8148      0.7338      0.5211      0.0000      0.3951
