###################################################################
## OUTPUT of StarlightChains_v04.for    [Cid@UFSC - 01/Apr/2007] ##
###################################################################

## Some input info
KUG0210-078._33_32.txt                   [arq_obs]
Base.CB07.vall.4m                        [arq_base]
Masks.EmLines.NEW.gm                     [arq_masks]
StCv04.C11.config                        [arq_config]
   66                                    [N_base]
    0                                    [N_YAV_components = # of components with extra extinction!]
    0                                    [i_FitPowerLaw (1/0 = Yes/No)]
-9.99                                    [alpha_PowerLaw]
CCM                                      [red_law_option]
 1.458241                                [q_norm = A(l_norm)/A(V)]

## (Re)Sampling Parameters
 3741.00                                 [l_ini (A)]
 7218.00                                 [l_fin (A)]
    1.00                                 [dl    (A)]     (OBS: dl_cushion =    50.00 A)

## Normalization info
 4020.00                                 [l_norm (A) - for base]
 4010.00                                 [llow_norm (A) - window for f_obs]
 4060.00                                 [lupp_norm (A) - window for f_obs]
9.837433E-17                             [fobs_norm (in input units)]

## S/N
 3691.00                                 [llow_SN (A) - window for S/N]
 7268.00                                 [lupp_SN (A) - window for S/N]
   5.356                                 [S/N in S/N window]
   4.936                                 [S/N in norm. window]
   0.173                                 [S/N_err in S/N window]
   0.160                                 [S/N_err in norm. window]
  1.0000                                 [fscale_chi2]

## etc...
    -2007507                             [idum_orig]
  2432                                   [NOl_eff]
  2298                                   [Nl_eff]
   134    NSIGMA                         [Ntot_cliped & clip_method]
 15029210                                [Nglobal_steps]
   7                                     [N_chains]
  10                                     [NEX0s_base = N_base in EX0s-fits]
 0   0   1      134   2.0   4.953E+04    [Clip-Bug, RC-Crash & Burn-In warning-flags, n_censored_weights, wei_nsig_threshold & wei_limit]
    95     94.433     93.660      0.773  [idt_all, wdt_TotTime, wdt_UsrTime & wdt_SysTime (sec)]

## Synthesis Results - Best model ##

 2.73275E-05                             [chi2/Nl_eff]
     1.92903                             [adev (%)]

   109.97572                             [sum-of-x (%)]
 3.33197E-17                             [Flux_tot (units of input spectrum!)]
 2.29712E-12                             [Mini_tot (???)]
 1.19855E-12                             [Mcor_tot (???)]

 -46.32                                  [v0_min  (km/s)]
 210.13                                  [vd_min  (km/s)]
-0.8769                                  [AV_min  (mag)]
 0.0000                                  [YAV_min (mag)]

# j     x_j(%)      Mini_j(%)     Mcor_j(%)     age_j(yr)     Z_j      (L/M)_j    YAV?  Mstars   component_j        a/Fe...       SSP_chi2r SSP_adev(%)   SSP_AV   SSP_x(%)
  1      0.0000     0.0000E+00    0.0000E+00    1.000000E+06  0.00400  1.094E-02    0   1.0000   age020_m42            0.0000     6.9589E-04     8.3533   3.3363    92.0325
  2      0.0000     0.0000E+00    0.0000E+00    3.160000E+06  0.00400  4.007E-02    0   0.9999   age045_m42            0.0000     6.5829E-04     8.6558   2.6525    96.3946
  3      0.0000     0.0000E+00    0.0000E+00    5.010000E+06  0.00400  2.539E-02    0   0.9488   age055_m42            0.0000     6.9755E-04     8.6607   2.9631    94.5022
  4      0.0000     0.0000E+00    0.0000E+00    6.610000E+06  0.00400  2.620E-02    0   0.9220   age061_m42            0.0000     6.8580E-04     8.9008   2.5913    96.0729
  5      0.0000     0.0000E+00    0.0000E+00    1.000000E+07  0.00400  1.322E-02    0   0.8862   age070_m42            0.0000     8.1198E-04    10.2153   2.3231    97.4073
  6      0.0000     0.0000E+00    0.0000E+00    1.445000E+07  0.00400  7.883E-03    0   0.8571   age078_m42            0.0000     8.1394E-04     9.9926   2.6356    95.5827
  7      0.0000     0.0000E+00    0.0000E+00    2.512000E+07  0.00400  5.251E-03    0   0.8174   age090_m42            0.0000     8.3941E-04    10.5530   2.1980    97.7076
  8      0.0000     0.0000E+00    0.0000E+00    4.000000E+07  0.00400  3.649E-03    0   0.7851   age104_m42            0.0000     8.0127E-04    10.3678   1.9733    98.4186
  9      0.0000     0.0000E+00    0.0000E+00    5.500000E+07  0.00400  3.098E-03    0   0.7629   age110_m42            0.0000     7.5034E-04     9.8619   2.1294    98.3186
 10      0.0000     0.0000E+00    0.0000E+00    1.015200E+08  0.00400  2.228E-03    0   0.7207   age116_m42            0.0000     7.1889E-04     9.5632   2.1537    98.3333
 11      0.0000     0.0000E+00    0.0000E+00    2.861200E+08  0.00400  1.093E-03    0   0.6648   age125_m42            0.0000     7.2854E-04    10.1979   1.5817   101.0733
 12      0.0000     0.0000E+00    0.0000E+00    5.088000E+08  0.00400  6.597E-04    0   0.6365   age130_m42            0.0000     6.3889E-04     9.4151   1.5704   102.0730
 13      0.0000     0.0000E+00    0.0000E+00    1.434000E+09  0.00400  2.132E-04    0   0.5798   age139_m42            0.0000     4.2571E-04     8.0324   0.5783   105.3360
 14      0.0000     0.0000E+00    0.0000E+00    4.250000E+09  0.00400  5.895E-05    0   0.5377   age158_m42            0.0000     2.3986E-04     5.7214   0.0839   103.9044
 15      0.0000     0.0000E+00    0.0000E+00    7.500000E+09  0.00400  3.510E-05    0   0.5212   age171_m42            0.0000     1.8409E-04     4.9465  -0.1210   103.9728
 16      0.0000     0.0000E+00    0.0000E+00    1.300000E+10  0.00400  2.005E-05    0   0.5034   age193_m42            0.0000     1.4210E-04     4.3257  -0.3032   104.1519
 17      0.0000     0.0000E+00    0.0000E+00    1.800000E+10  0.00400  1.525E-05    0   0.4967   age213_m42            0.0000     1.4688E-04     4.4104  -0.3273   103.7470
 18      0.0000     0.0000E+00    0.0000E+00    1.000000E+06  0.00800  1.238E-02    0   1.0000   age020_m52            0.0000     6.9605E-04     8.3447   3.3340    92.1735
 19      0.0000     0.0000E+00    0.0000E+00    3.160000E+06  0.00800  3.074E-02    0   0.9966   age045_m52            0.0000     6.9358E-04     8.3308   3.2623    92.8068
 20      0.0000     0.0000E+00    0.0000E+00    5.010000E+06  0.00800  2.668E-02    0   0.9443   age055_m52            0.0000     7.0666E-04     8.6241   3.0415    93.8504
 21      0.0000     0.0000E+00    0.0000E+00    6.610000E+06  0.00800  2.136E-02    0   0.9177   age061_m52            0.0000     6.6490E-04     9.2517   1.7974    99.8330
 22      0.0000     0.0000E+00    0.0000E+00    1.000000E+07  0.00800  1.215E-02    0   0.8827   age070_m52            0.0000     8.5971E-04    10.5926   2.4944    97.4430
 23      0.0000     0.0000E+00    0.0000E+00    1.445000E+07  0.00800  8.717E-03    0   0.8552   age078_m52            0.0000     8.1012E-04    10.0283   2.6054    96.7118
 24      0.0000     0.0000E+00    0.0000E+00    2.512000E+07  0.00800  5.592E-03    0   0.8162   age090_m52            0.0000     8.4695E-04    10.6651   2.2632    98.7365
 25      0.0000     0.0000E+00    0.0000E+00    4.000000E+07  0.00800  3.896E-03    0   0.7841   age104_m52            0.0000     8.0508E-04    10.4252   2.1774    99.3754
 26      0.0000     0.0000E+00    0.0000E+00    1.015200E+08  0.00800  2.148E-03    0   0.7226   age116_m52            0.0000     7.2624E-04     9.7514   2.1176    99.1953
 27      0.0000     0.0000E+00    0.0000E+00    2.861200E+08  0.00800  9.925E-04    0   0.6683   age125_m52            0.0000     6.4505E-04     9.4021   1.6416   102.7251
 28      0.0000     0.0000E+00    0.0000E+00    9.047900E+08  0.00800  3.141E-04    0   0.6138   age135_m52            0.0000     3.7642E-04     7.5780   0.8020   109.0527
 29      0.0000     0.0000E+00    0.0000E+00    1.434000E+09  0.00800  1.719E-04    0   0.5853   age139_m52            0.0000     2.9734E-04     6.6623   0.1986   107.9701
 30      0.0000     0.0000E+00    0.0000E+00    2.500000E+09  0.00800  7.872E-05    0   0.5600   age150_m52            0.0000     1.7052E-04     4.7802  -0.0954   106.5537
 31      0.0000     0.0000E+00    0.0000E+00    4.250000E+09  0.00800  4.336E-05    0   0.5426   age158_m52            0.0000     1.5518E-04     4.5490  -0.1213   106.0649
 32      0.0000     0.0000E+00    0.0000E+00    6.250000E+09  0.00800  3.159E-05    0   0.5319   age166_m52            0.0000     1.0262E-04     3.7364  -0.3400   106.8386
 33      0.0000     0.0000E+00    0.0000E+00    1.300000E+10  0.00800  1.361E-05    0   0.5073   age193_m52            0.0000     5.6437E-05     2.8032  -0.8259   106.9830
 34      0.0000     0.0000E+00    0.0000E+00    1.800000E+10  0.00800  9.886E-06    0   0.4990   age213_m52            0.0000     3.9086E-05     2.3576  -0.9490   107.1310
 35      0.0000     0.0000E+00    0.0000E+00    1.000000E+06  0.02000  1.544E-02    0   1.0000   age020_m62            0.0000     6.9637E-04     8.3273   3.3290    92.4417
 36      0.0000     0.0000E+00    0.0000E+00    3.160000E+06  0.02000  3.762E-02    0   0.9858   age045_m62            0.0000     7.0207E-04     8.3396   3.2705    93.1419
 37      0.0000     0.0000E+00    0.0000E+00    5.010000E+06  0.02000  3.296E-02    0   0.9342   age055_m62            0.0000     6.9039E-04     8.5744   2.9343    95.1781
 38      0.0000     0.0000E+00    0.0000E+00    8.710000E+06  0.02000  1.154E-02    0   0.8861   age067_m62            0.0000     1.2051E-03    13.5752   1.9417    99.9805
 39      0.0000     0.0000E+00    0.0000E+00    1.445000E+07  0.02000  7.663E-03    0   0.8472   age078_m62            0.0000     9.3326E-04    11.4700   2.1368    99.6203
 40      0.0000     0.0000E+00    0.0000E+00    2.512000E+07  0.02000  4.532E-03    0   0.8099   age090_m62            0.0000     9.8595E-04    11.8772   2.1382    98.8359
 41      0.0000     0.0000E+00    0.0000E+00    5.500000E+07  0.02000  2.733E-03    0   0.7595   age110_m62            0.0000     8.0389E-04    10.3467   2.1605    98.6847
 42      0.0000     0.0000E+00    0.0000E+00    1.609000E+08  0.02000  1.369E-03    0   0.6985   age120_m62            0.0000     7.2274E-04     9.7796   2.0125   100.7717
 43      0.0000     0.0000E+00    0.0000E+00    2.861200E+08  0.02000  9.013E-04    0   0.6714   age125_m62            0.0000     6.5631E-04     9.4196   1.7677   103.4382
 44      0.0000     0.0000E+00    0.0000E+00    5.088000E+08  0.02000  5.028E-04    0   0.6449   age130_m62            0.0000     4.6737E-04     8.0377   1.3635   107.5333
 45      0.0000     0.0000E+00    0.0000E+00    9.047900E+08  0.02000  2.428E-04    0   0.6179   age135_m62            0.0000     2.7690E-04     6.3144   0.7317   109.1607
 46      0.0000     0.0000E+00    0.0000E+00    1.434000E+09  0.02000  1.263E-04    0   0.5908   age139_m62            0.0000     1.9371E-04     5.1935   0.2633   108.8161
 47      0.0000     0.0000E+00    0.0000E+00    2.500000E+09  0.02000  5.985E-05    0   0.5673   age150_m62            0.0000     1.1107E-04     3.7672  -0.1300   108.6869
 48      0.0000     0.0000E+00    0.0000E+00    4.250000E+09  0.02000  3.271E-05    0   0.5468   age158_m62            0.0000     5.2209E-05     2.5969  -0.4578   108.8594
 49      0.0000     0.0000E+00    0.0000E+00    1.000000E+10  0.02000  1.360E-05    0   0.5167   age181_m62            0.0000     2.8288E-05     1.9774  -0.8316   109.5674
 50      9.7439     1.8040E+01    1.7332E+01    1.800000E+10  0.02000  7.124E-06    0   0.5013   age213_m62            0.0000     4.0503E-05     2.3248  -1.0000   107.5807
 51      0.0000     0.0000E+00    0.0000E+00    1.000000E+06  0.05000  2.592E-02    0   0.9998   age020_m72            0.0000     6.9811E-04     8.3079   3.3148    92.7148
 52      0.0000     0.0000E+00    0.0000E+00    3.160000E+06  0.05000  4.845E-02    0   0.9577   age045_m72            0.0000     7.0096E-04     8.3933   3.1716    93.5919
 53      0.0000     0.0000E+00    0.0000E+00    5.010000E+06  0.05000  3.072E-02    0   0.9147   age055_m72            0.0000     8.6171E-04    10.3916   2.6963    96.9143
 54      0.0000     0.0000E+00    0.0000E+00    6.610000E+06  0.05000  1.455E-02    0   0.8877   age061_m72            0.0000     1.5599E-03    16.2328   1.9586   100.8943
 55      0.0000     0.0000E+00    0.0000E+00    1.000000E+07  0.05000  9.074E-03    0   0.8524   age070_m72            0.0000     9.6527E-04    11.0334   2.8626    96.6762
 56      0.0000     0.0000E+00    0.0000E+00    2.512000E+07  0.05000  4.250E-03    0   0.7902   age090_m72            0.0000     9.3095E-04    11.1007   2.6009    97.1837
 57      0.0000     0.0000E+00    0.0000E+00    4.000000E+07  0.05000  3.087E-03    0   0.7618   age104_m72            0.0000     9.5559E-04    11.4879   2.3843    98.2598
 58      0.0000     0.0000E+00    0.0000E+00    1.015200E+08  0.05000  1.700E-03    0   0.7096   age116_m72            0.0000     8.0188E-04    10.4022   2.1559   100.1470
 59      0.0000     0.0000E+00    0.0000E+00    2.861200E+08  0.05000  7.384E-04    0   0.6633   age125_m72            0.0000     5.5826E-04     8.6942   1.6247   105.4242
 60      0.0000     0.0000E+00    0.0000E+00    5.088000E+08  0.05000  3.819E-04    0   0.6372   age130_m72            0.0000     3.3645E-04     6.8725   1.0908   109.3471
 61      0.0000     0.0000E+00    0.0000E+00    9.047900E+08  0.05000  1.676E-04    0   0.6110   age135_m72            0.0000     1.3759E-04     4.2884   0.3390   110.2906
 62      0.0000     0.0000E+00    0.0000E+00    1.434000E+09  0.05000  8.837E-05    0   0.5874   age139_m72            0.0000     9.7765E-05     3.5900  -0.1405   110.7166
 63     22.1787     6.9105E+00    7.4143E+00    2.500000E+09  0.05000  4.233E-05    0   0.5598   age150_m72            0.0000     4.1090E-05     2.3178  -0.4690   110.2882
 64     75.0600     6.8989E+01    6.9403E+01    6.250000E+09  0.05000  1.435E-05    0   0.5249   age166_m72            0.0000     2.7870E-05     1.9496  -0.9388   109.5717
 65      2.9931     6.0611E+00    5.8501E+00    1.300000E+10  0.05000  6.513E-06    0   0.5036   age193_m72            0.0000     1.3123E-04     4.8878  -1.0000   103.6237
 66      0.0000     0.0000E+00    0.0000E+00    1.800000E+10  0.05000  4.527E-06    0   0.4945   age213_m72            0.0000     3.1807E-04     7.7487  -1.0000    98.0997


## Synthesis Results - Average & Chains ##

# j      x_j: min, <> & last-chain-values for 1 ...  7 chains
  1      0.0000      0.3558      0.0314      0.3226      0.2081      0.1853      0.1628      0.1700      0.1663
  2      0.0000      0.3267      0.0000      0.3555      0.0451      0.0194      0.0454      0.0040      0.0000
  3      0.0000      0.2888      0.0819      0.0098      0.0099      0.0037      0.0129      0.0018      0.0574
  4      0.0000      0.3373      0.0255      0.0128      0.0072      0.0067      0.0000      0.0059      0.0190
  5      0.0000      0.3619      0.2116      0.0069      0.0265      0.0106      0.0029      0.0000      0.0000
  6      0.0000      0.2974      0.2973      0.0043      0.0038      0.0079      0.0004      0.0037      0.0100
  7      0.0000      0.2558      0.0000      0.0008      0.0086      0.0029      0.0000      0.0020      0.3748
  8      0.0000      0.2606      0.0297      0.0018      0.0247      0.0000      0.0084      0.0062      0.0726
  9      0.0000      0.2866      0.0000      0.0066      0.0157      0.0000      0.0066      0.0006      0.1129
 10      0.0000      0.3299      0.0644      0.0000      0.0175      0.0148      0.0000      0.0000      0.0000
 11      0.0000      0.4618      0.0000      0.0089      0.0032      0.0068      0.0112      0.0112      0.3022
 12      0.0000      0.3471      0.2704      0.0125      0.0000      0.0113      0.0034      0.0036      0.0000
 13      0.0000      0.3784      0.1755      0.0126      0.0000      0.0272      0.0027      0.0003      0.0374
 14      0.0000      0.3194      0.0739      0.0049      0.0038      0.0035      0.0230      0.0000      0.0290
 15      0.0000      0.2619      0.0000      0.0164      0.0043      0.0010      0.0038      0.0006      0.0988
 16      0.0000      0.2839      0.0206      0.0124      0.0215      0.0141      0.0000      0.0487      0.0000
 17      0.0000      0.2860      0.1666      0.0029      0.0009      0.0105      0.0000      0.0021      0.2423
 18      0.0000      0.9945      1.3680      1.8919      1.1811      0.2902      0.2738      1.1511      1.2586
 19      0.0000      0.6356      0.5562      0.1600      0.1182      0.0692      2.4547      0.0991      0.5850
 20      0.0000      0.5495      0.3139      0.0013      0.0300      0.0361      1.4521      0.2125      0.1794
 21      0.0000      0.3900      0.0684      0.0031      0.0220      0.0105      0.0017      0.0000      0.0000
 22      0.0000      0.2716      0.0234      0.0038      0.0012      0.0000      0.0000      0.0000      0.1059
 23      0.0000      0.2298      0.0041      0.0000      0.0000      0.0048      0.0187      0.0002      0.0328
 24      0.0000      0.3261      0.1836      0.0063      0.0024      0.0000      0.0012      0.0021      0.1948
 25      0.0000      0.2523      0.0000      0.0171      0.0025      0.0030      0.0000      0.0000      0.1122
 26      0.0000      0.2732      0.0000      0.0011      0.0000      0.0175      0.0031      0.0016      0.1440
 27      0.0000      0.3179      0.0000      0.0018      0.0030      0.0050      0.0126      0.0032      0.1307
 28      0.0000      0.2615      0.0574      0.0009      0.0134      0.0000      0.0014      0.0010      0.0810
 29      0.0000      0.3300      0.0947      0.0025      0.0417      0.0039      0.0055      0.0057      0.0743
 30      0.0000      0.3276      0.0541      0.0079      0.0190      0.0085      0.0181      0.0065      0.0759
 31      0.0000      1.4238      1.1896      0.6691      4.2438      0.5899      1.6739      0.0079      1.2236
 32      0.0000      0.3739      0.0000      0.0041      0.0087      0.0055      0.0045      0.0071      0.1778
 33      0.0000      0.2319      0.0000      0.0113      0.0010      0.0016      0.0065      0.0039      0.1026
 34      0.0000      1.1239      0.8647      0.0502      0.0655      0.0653      5.0506      0.0213      0.8981
 35      0.0000      0.8593      0.8245      0.5104      2.0962      0.9284      0.2835      0.6430      0.8749
 36      0.0000      0.3892      0.5543      0.0159      0.0000      0.8205      0.0268      0.0032      0.4543
 37      0.0000      0.3167      0.1424      0.0031      0.0497      0.0078      0.0147      0.0000      0.0360
 38      0.0000      0.3739      0.1541      0.0193      0.2878      0.0155      0.0176      0.0041      0.3599
 39      0.0000      0.3282      0.1762      0.0067      0.0053      0.0093      0.0057      0.0043      0.0646
 40      0.0000      0.2285      0.0000      0.0000      0.0074      0.0000      0.0000      0.0013      0.0000
 41      0.0000      0.2715      0.0409      0.0026      0.0000      0.0034      0.0004      0.0034      0.1277
 42      0.0000      0.3235      0.0244      0.0097      0.0160      0.0000      0.0055      0.0029      0.0448
 43      0.0000      0.3185      0.0199      0.0046      0.0118      0.0000      0.0058      0.0000      0.0577
 44      0.0000      0.2655      0.0272      0.0000      0.0128      0.0085      0.0000      0.0000      0.0668
 45      0.0000      0.5131      0.4114      0.6020      0.5418      0.9330      0.3649      0.0117      0.2291
 46      0.0000      0.3937      0.1714      0.3236      0.2070      0.1377      0.8118      0.0258      0.2390
