###################################################################
## OUTPUT of StarlightChains_v04.for    [Cid@UFSC - 01/Apr/2007] ##
###################################################################

## Some input info
KUG0210-078._30_32.txt                   [arq_obs]
Base.CB07.vall.4m                        [arq_base]
Masks.EmLines.NEW.gm                     [arq_masks]
StCv04.C11.config                        [arq_config]
   66                                    [N_base]
    0                                    [N_YAV_components = # of components with extra extinction!]
    0                                    [i_FitPowerLaw (1/0 = Yes/No)]
-9.99                                    [alpha_PowerLaw]
CCM                                      [red_law_option]
 1.458241                                [q_norm = A(l_norm)/A(V)]

## (Re)Sampling Parameters
 3741.00                                 [l_ini (A)]
 7218.00                                 [l_fin (A)]
    1.00                                 [dl    (A)]     (OBS: dl_cushion =    50.00 A)

## Normalization info
 4020.00                                 [l_norm (A) - for base]
 4010.00                                 [llow_norm (A) - window for f_obs]
 4060.00                                 [lupp_norm (A) - window for f_obs]
8.226809E-17                             [fobs_norm (in input units)]

## S/N
 3691.00                                 [llow_SN (A) - window for S/N]
 7268.00                                 [lupp_SN (A) - window for S/N]
   4.972                                 [S/N in S/N window]
   3.676                                 [S/N in norm. window]
   0.191                                 [S/N_err in S/N window]
   0.141                                 [S/N_err in norm. window]
  1.0000                                 [fscale_chi2]

## etc...
    -2007433                             [idum_orig]
  2432                                   [NOl_eff]
  2051                                   [Nl_eff]
   381    NSIGMA                         [Ntot_cliped & clip_method]
 15965180                                [Nglobal_steps]
   7                                     [N_chains]
  40                                     [NEX0s_base = N_base in EX0s-fits]
 0   0   1      381   2.0   7.157E+04    [Clip-Bug, RC-Crash & Burn-In warning-flags, n_censored_weights, wei_nsig_threshold & wei_limit]
   117    116.170    115.345      0.825  [idt_all, wdt_TotTime, wdt_UsrTime & wdt_SysTime (sec)]

## Synthesis Results - Best model ##

 3.63931E-05                             [chi2/Nl_eff]
     2.14235                             [adev (%)]

   129.07903                             [sum-of-x (%)]
 2.30306E-16                             [Flux_tot (units of input spectrum!)]
 9.30116E-12                             [Mini_tot (???)]
 4.70784E-12                             [Mcor_tot (???)]

  -7.83                                  [v0_min  (km/s)]
 233.11                                  [vd_min  (km/s)]
 0.5764                                  [AV_min  (mag)]
 0.0000                                  [YAV_min (mag)]

# j     x_j(%)      Mini_j(%)     Mcor_j(%)     age_j(yr)     Z_j      (L/M)_j    YAV?  Mstars   component_j        a/Fe...       SSP_chi2r SSP_adev(%)   SSP_AV   SSP_x(%)
  1      6.5697     1.1520E-02    2.2759E-02    1.000000E+06  0.00400  1.094E-02    0   1.0000   age020_m42            0.0000     2.2016E-04     6.1226   3.4678   110.6719
  2      2.9097     1.3930E-03    2.7518E-03    3.160000E+06  0.00400  4.007E-02    0   0.9999   age045_m42            0.0000     1.8459E-04     5.3531   2.7959   115.5150
  3      0.0000     0.0000E+00    0.0000E+00    5.010000E+06  0.00400  2.539E-02    0   0.9488   age055_m42            0.0000     1.9084E-04     5.5831   3.0894   114.0326
  4      0.0000     0.0000E+00    0.0000E+00    6.610000E+06  0.00400  2.620E-02    0   0.9220   age061_m42            0.0000     1.6886E-04     5.0870   2.7169   116.0940
  5      0.0000     0.0000E+00    0.0000E+00    1.000000E+07  0.00400  1.322E-02    0   0.8862   age070_m42            0.0000     1.2047E-04     3.9525   2.3835   121.6708
  6      0.0000     0.0000E+00    0.0000E+00    1.445000E+07  0.00400  7.883E-03    0   0.8571   age078_m42            0.0000     1.3568E-04     4.2942   2.7050   118.7991
  7      4.7863     1.7485E-02    2.8237E-02    2.512000E+07  0.00400  5.251E-03    0   0.8174   age090_m42            0.0000     1.1447E-04     3.7513   2.2505   122.6158
  8      0.1866     9.8086E-04    1.5214E-03    4.000000E+07  0.00400  3.649E-03    0   0.7851   age104_m42            0.0000     1.0998E-04     3.6827   2.0363   122.8894
  9      0.0000     0.0000E+00    0.0000E+00    5.500000E+07  0.00400  3.098E-03    0   0.7629   age110_m42            0.0000     1.2567E-04     4.0340   2.2203   121.0433
 10      0.0000     0.0000E+00    0.0000E+00    1.015200E+08  0.00400  2.228E-03    0   0.7207   age116_m42            0.0000     1.3263E-04     4.2186   2.2601   120.1328
 11      0.0000     0.0000E+00    0.0000E+00    2.861200E+08  0.00400  1.093E-03    0   0.6648   age125_m42            0.0000     1.1077E-04     3.6821   1.6740   124.5904
 12      0.0000     0.0000E+00    0.0000E+00    5.088000E+08  0.00400  6.597E-04    0   0.6365   age130_m42            0.0000     1.1286E-04     3.7673   1.6978   123.6594
 13      0.0000     0.0000E+00    0.0000E+00    1.434000E+09  0.00400  2.132E-04    0   0.5798   age139_m42            0.0000     6.7644E-05     2.9538   0.7596   124.4081
 14      1.4662     4.7711E-01    5.0685E-01    4.250000E+09  0.00400  5.895E-05    0   0.5377   age158_m42            0.0000     7.8723E-05     3.6171   0.3421   118.2502
 15      0.0000     0.0000E+00    0.0000E+00    7.500000E+09  0.00400  3.510E-05    0   0.5212   age171_m42            0.0000     8.3590E-05     3.8036   0.1679   116.6560
 16      0.4098     3.9203E-01    3.8989E-01    1.300000E+10  0.00400  2.005E-05    0   0.5034   age193_m42            0.0000     9.2711E-05     4.0706   0.0113   115.4963
 17      0.0000     0.0000E+00    0.0000E+00    1.800000E+10  0.00400  1.525E-05    0   0.4967   age213_m42            0.0000     9.1214E-05     4.0018  -0.0156   115.2038
 18      0.9540     1.4782E-03    2.9204E-03    1.000000E+06  0.00800  1.238E-02    0   1.0000   age020_m52            0.0000     2.1961E-04     6.1228   3.4642   110.8832
 19      2.2700     1.4165E-03    2.7891E-03    3.160000E+06  0.00800  3.074E-02    0   0.9966   age045_m52            0.0000     2.1637E-04     6.0918   3.3947   111.5346
 20      4.2729     3.0722E-03    5.7316E-03    5.010000E+06  0.00800  2.668E-02    0   0.9443   age055_m52            0.0000     1.8893E-04     5.5827   3.1639   113.4286
 21      0.0000     0.0000E+00    0.0000E+00    6.610000E+06  0.00800  2.136E-02    0   0.9177   age061_m52            0.0000     9.7794E-05     3.7814   1.8869   122.9400
 22      0.0000     0.0000E+00    0.0000E+00    1.000000E+07  0.00800  1.215E-02    0   0.8827   age070_m52            0.0000     1.1566E-04     3.7267   2.5419   122.5503
 23      0.0000     0.0000E+00    0.0000E+00    1.445000E+07  0.00800  8.717E-03    0   0.8552   age078_m52            0.0000     1.2718E-04     4.0719   2.6734   120.3117
 24      3.8450     1.3190E-02    2.1269E-02    2.512000E+07  0.00800  5.592E-03    0   0.8162   age090_m52            0.0000     1.0795E-04     3.5167   2.3149   123.9909
 25      1.2370     6.0909E-03    9.4355E-03    4.000000E+07  0.00800  3.896E-03    0   0.7841   age104_m52            0.0000     1.0944E-04     3.5622   2.2483   123.6770
 26      0.0000     0.0000E+00    0.0000E+00    1.015200E+08  0.00800  2.148E-03    0   0.7226   age116_m52            0.0000     1.1767E-04     3.8610   2.2167   121.7177
 27      0.0000     0.0000E+00    0.0000E+00    2.861200E+08  0.00800  9.925E-04    0   0.6683   age125_m52            0.0000     1.0454E-04     3.6451   1.7635   124.7573
 28      0.2044     1.2481E-02    1.5135E-02    9.047900E+08  0.00800  3.141E-04    0   0.6138   age135_m52            0.0000     8.1111E-05     3.1926   1.0318   125.9570
 29      0.0000     0.0000E+00    0.0000E+00    1.434000E+09  0.00800  1.719E-04    0   0.5853   age139_m52            0.0000     6.1085E-05     2.9852   0.4389   124.0513
 30      0.1681     4.0975E-02    4.5333E-02    2.500000E+09  0.00800  7.872E-05    0   0.5600   age150_m52            0.0000     7.5579E-05     3.5750   0.2107   118.6104
 31      0.0000     0.0000E+00    0.0000E+00    4.250000E+09  0.00800  4.336E-05    0   0.5426   age158_m52            0.0000     7.9221E-05     3.6971   0.1969   117.4265
 32      0.0000     0.0000E+00    0.0000E+00    6.250000E+09  0.00800  3.159E-05    0   0.5319   age166_m52            0.0000     9.1469E-05     4.0872   0.0167   116.2231
 33      2.3295     3.2834E+00    3.2908E+00    1.300000E+10  0.00800  1.361E-05    0   0.5073   age193_m52            0.0000     1.1365E-04     4.6463  -0.4207   113.8618
 34      3.7800     7.3347E+00    7.2310E+00    1.800000E+10  0.00800  9.886E-06    0   0.4990   age213_m52            0.0000     1.3703E-04     5.0720  -0.5032   111.9683
 35      9.8930     1.2291E-02    2.4283E-02    1.000000E+06  0.02000  1.544E-02    0   1.0000   age020_m62            0.0000     2.2080E-04     6.1457   3.4582   111.2362
 36      0.0000     0.0000E+00    0.0000E+00    3.160000E+06  0.02000  3.762E-02    0   0.9858   age045_m62            0.0000     2.1955E-04     6.1450   3.4007   112.0363
 37      0.0000     0.0000E+00    0.0000E+00    5.010000E+06  0.02000  3.296E-02    0   0.9342   age055_m62            0.0000     1.8745E-04     5.5369   3.0623   114.7491
 38     11.0519     1.8371E-02    3.2162E-02    8.710000E+06  0.02000  1.154E-02    0   0.8861   age067_m62            0.0000     9.7786E-05     3.1560   1.8736   133.7096
 39      0.0000     0.0000E+00    0.0000E+00    1.445000E+07  0.02000  7.663E-03    0   0.8472   age078_m62            0.0000     9.9309E-05     3.3563   2.1559   127.2791
 40      0.0000     0.0000E+00    0.0000E+00    2.512000E+07  0.02000  4.532E-03    0   0.8099   age090_m62            0.0000     9.9865E-05     3.3646   2.1427   127.2410
 41      0.0000     0.0000E+00    0.0000E+00    5.500000E+07  0.02000  2.733E-03    0   0.7595   age110_m62            0.0000     1.0077E-04     3.4623   2.2226   123.2675
 42      3.9143     5.4848E-02    7.5691E-02    1.609000E+08  0.02000  1.369E-03    0   0.6985   age120_m62            0.0000     1.0822E-04     3.6809   2.1080   123.8673
 43      0.0000     0.0000E+00    0.0000E+00    2.861200E+08  0.02000  9.013E-04    0   0.6714   age125_m62            0.0000     1.0492E-04     3.5858   1.8892   125.6092
 44      5.5465     2.1161E-01    2.6962E-01    5.088000E+08  0.02000  5.028E-04    0   0.6449   age130_m62            0.0000     1.0907E-04     3.7409   1.5713   125.3581
 45      0.0000     0.0000E+00    0.0000E+00    9.047900E+08  0.02000  2.428E-04    0   0.6179   age135_m62            0.0000     7.7261E-05     3.4166   1.0072   123.2999
 46      6.0283     9.1560E-01    1.0687E+00    1.434000E+09  0.02000  1.263E-04    0   0.5908   age139_m62            0.0000     6.7113E-05     3.4012   0.5705   121.0825
 47      0.0000     0.0000E+00    0.0000E+00    2.500000E+09  0.02000  5.985E-05    0   0.5673   age150_m62            0.0000     8.6918E-05     4.0981   0.2304   117.9984
 48      0.8033     4.7110E-01    5.0893E-01    4.250000E+09  0.02000  3.271E-05    0   0.5468   age158_m62            0.0000     1.1601E-04     4.7952  -0.0427   115.2918
 49      9.8038     1.3828E+01    1.4116E+01    1.000000E+10  0.02000  1.360E-05    0   0.5167   age181_m62            0.0000     1.5036E-04     5.2953  -0.3453   112.4399
 50      6.8675     1.8492E+01    1.8315E+01    1.800000E+10  0.02000  7.124E-06    0   0.5013   age213_m62            0.0000     1.8587E-04     5.7449  -0.5205   109.7590
 51      1.7911     1.3256E-03    2.6184E-03    1.000000E+06  0.05000  2.592E-02    0   0.9998   age020_m72            0.0000     2.2197E-04     6.1635   3.4450   111.5291
 52      0.0000     0.0000E+00    0.0000E+00    3.160000E+06  0.05000  4.845E-02    0   0.9577   age045_m72            0.0000     2.1166E-04     6.0011   3.3030   112.5457
 53      0.0000     0.0000E+00    0.0000E+00    5.010000E+06  0.05000  3.072E-02    0   0.9147   age055_m72            0.0000     1.3690E-04     4.4068   2.7553   121.1972
 54     18.2519     2.4063E-02    4.2203E-02    6.610000E+06  0.05000  1.455E-02    0   0.8877   age061_m72            0.0000     2.4784E-04     6.1983   1.8403   139.0749
 55      0.0000     0.0000E+00    0.0000E+00    1.000000E+07  0.05000  9.074E-03    0   0.8524   age070_m72            0.0000     1.9959E-04     5.8159   2.9128   121.5555
 56      0.0000     0.0000E+00    0.0000E+00    2.512000E+07  0.05000  4.250E-03    0   0.7902   age090_m72            0.0000     1.4872E-04     4.6775   2.6475   122.4421
 57      0.0000     0.0000E+00    0.0000E+00    4.000000E+07  0.05000  3.087E-03    0   0.7618   age104_m72            0.0000     1.4168E-04     4.4746   2.4205   124.5388
 58      0.0000     0.0000E+00    0.0000E+00    1.015200E+08  0.05000  1.700E-03    0   0.7096   age116_m72            0.0000     1.1296E-04     3.6558   2.2291   124.5258
 59      0.0000     0.0000E+00    0.0000E+00    2.861200E+08  0.05000  7.384E-04    0   0.6633   age125_m72            0.0000     9.8733E-05     3.4850   1.7923   125.2427
 60      0.0609     3.0597E-03    3.8518E-03    5.088000E+08  0.05000  3.819E-04    0   0.6372   age130_m72            0.0000     8.5037E-05     3.6203   1.3516   124.3099
 61      0.0000     0.0000E+00    0.0000E+00    9.047900E+08  0.05000  1.676E-04    0   0.6110   age135_m72            0.0000     8.9408E-05     4.2548   0.7020   119.5631
 62      0.2558     5.5537E-02    6.4451E-02    1.434000E+09  0.05000  8.837E-05    0   0.5874   age139_m72            0.0000     8.2543E-05     4.0147   0.2423   119.0015
 63      0.3984     1.8054E-01    1.9968E-01    2.500000E+09  0.05000  4.233E-05    0   0.5598   age150_m72            0.0000     1.2239E-04     4.9267  -0.0267   115.3821
 64      7.0484     9.4222E+00    9.7711E+00    6.250000E+09  0.05000  1.435E-05    0   0.5249   age166_m72            0.0000     1.6379E-04     5.4855  -0.4293   111.2882
 65      4.6668     1.3745E+01    1.3676E+01    1.300000E+10  0.05000  6.513E-06    0   0.5036   age193_m72            0.0000     2.1582E-04     6.0667  -0.6692   110.2473
 66      7.3078     3.0966E+01    3.0253E+01    1.800000E+10  0.05000  4.527E-06    0   0.4945   age213_m72            0.0000     2.5111E-04     6.4230  -0.8046   108.6868


## Synthesis Results - Average & Chains ##

# j      x_j: min, <> & last-chain-values for 1 ...  7 chains
  1      6.5697      1.9054      2.5088      1.9710      1.9456      1.5580      0.5886      1.7202      1.9270
  2      2.9097      2.6853      3.1576      3.0091      3.6849      3.3674      1.8637      3.1296      3.0179
  3      0.0000      0.2842      0.7847      0.0232      0.0338      0.1505      0.1000      0.0047      0.0018
  4      0.0000      0.2977      0.0000      0.0163      0.0051      0.0000      0.0931      0.0661      0.0000
  5      0.0000      0.2799      0.1665      0.0000      0.0209      0.2280      0.0096      0.0255      0.0290
  6      0.0000      0.2539      0.0000      0.0549      0.0551      0.0984      0.0169      0.0366      0.0284
  7      4.7863      0.3634      0.4267      0.0508      0.0463      0.8835      0.0630      0.0000      0.1317
  8      0.1866      0.3807      0.2902      0.0360      0.1122      0.4361      0.0063      0.0113      0.1018
  9      0.0000      0.2606      0.2265      0.1363      0.0902      0.0000      0.0106      0.0638      0.0253
 10      0.0000      0.2501      0.0000      0.1079      0.0913      0.1586      0.1190      0.0114      0.0351
 11      0.0000      0.2770      0.0591      0.0795      0.0399      0.0435      0.0080      0.1835      0.0000
 12      0.0000      0.2939      0.6184      0.0261      0.0238      0.0000      0.0000      0.0006      0.0035
 13      0.0000      0.8098      0.4414      0.8739      0.8007      0.9663      0.7693      0.7725      0.7513
 14      1.4662      0.3018      0.4953      0.0001      0.0439      0.3735      0.0684      0.0640      0.1380
 15      0.0000      0.9617      2.0201      0.4977      0.4806      1.5819      0.4678      0.5210      0.6771
 16      0.4098      0.3112      0.1872      0.0680      0.0000      0.4404      0.0443      0.0053      0.0000
 17      0.0000      0.2896      0.2772      0.0399      0.0573      0.1954      0.0020      0.0438      0.0354
 18      0.9540      1.4437      0.9056      1.4896      1.4459      0.7612      0.6723      3.0491      1.5213
 19      2.2700      1.2437      0.8865      1.2791      1.0054      1.2041      0.9413      2.4777      1.2928
 20      4.2729      0.3173      0.5149      0.0603      0.0514      0.6621      0.0256      0.0306      0.0611
 21      0.0000      0.3095      0.5883      0.1303      0.0432      0.1252      0.0918      0.0249      0.0415
 22      0.0000      0.2751      0.2393      0.0414      0.0000      0.0000      0.0114      0.0185      0.1681
 23      0.0000      0.3405      0.1752      0.0151      0.0045      0.0845      0.0043      0.0000      0.0551
 24      3.8450      0.2847      0.0567      0.0193      0.0087      0.2828      0.0350      0.0000      0.0365
 25      1.2370      0.2970      0.5056      0.0247      0.1051      0.7226      0.0154      0.0250      0.0000
 26      0.0000      0.2505      0.0000      0.0397      0.0056      0.0000      0.0476      0.0272      0.0000
 27      0.0000      0.2193      0.4362      0.0387      0.0654      0.1723      0.0000      0.0209      0.0338
 28      0.2044      0.3343      0.3931      0.0083      0.0078      0.2379      0.1606      0.0000      0.1567
 29      0.0000      0.3006      0.0000      0.0000      0.1247      0.2416      0.0503      0.0260      0.0396
 30      0.1681      0.3390      0.1758      0.0903      0.0492      1.3673      0.0622      0.0202      0.0501
 31      0.0000      0.2227      0.3295      0.0575      0.0096      0.2727      0.0607      0.0260      0.0000
 32      0.0000      0.3009      0.1308      0.1321      0.0453      0.1600      0.0000      0.0200      0.1451
 33      2.3295      0.2285      0.0407      0.0376      0.0232      0.2694      0.0338      0.0017      0.0000
 34      3.7800      0.2940      0.1522      0.0751      0.0421      0.2665      0.0345      0.2093      0.0651
 35      9.8930      1.3288      0.8668      1.5221      1.5724      1.7022      1.0314      0.5340      1.4958
 36      0.0000      0.3433      0.2287      0.0000      0.0184      0.1125      0.0219      0.0649      0.0366
 37      0.0000      0.3151      0.0891      0.0912      0.0000      0.3020      0.0005      0.0243      0.0407
 38     11.0519      0.3853      0.0000      0.0953      0.0043      0.6001      0.0504      0.0043      0.0114
 39      0.0000      0.2541      0.7122      0.0112      0.0249      0.0000      0.0197      0.0000      0.0273
 40      0.0000      0.2125      0.1565      0.0277      0.0294      0.0000      0.0908      0.0033      0.1235
 41      0.0000      0.3063      0.0000      0.0336      0.0000      0.0000      0.0428      0.0907      0.0059
 42      3.9143      0.2660      0.0788      0.0604      0.0194      0.6495      0.0348      0.0672      0.0736
 43      0.0000      0.2668      0.6010      0.0710      0.0785      0.0993      0.0544      0.0525      0.1602
 44      5.5465      0.8337      0.2941      0.9599      1.0901      0.3645      1.0236      1.0122      0.7910
 45      0.0000      0.2908      0.0000      0.0537      0.0113      0.1471      0.0412      0.0525      0.1442
 46      6.0283      0.3028      0.3781      0.0112      0.0018      0.2206      0.1020      0.0146      0.0245
