###################################################################
## OUTPUT of StarlightChains_v04.for    [Cid@UFSC - 01/Apr/2007] ##
###################################################################

## Some input info
KUG0210-078._35_41.txt                   [arq_obs]
Base.CB07.vall.4m                        [arq_base]
Masks.EmLines.NEW.gm                     [arq_masks]
StCv04.C11.config                        [arq_config]
   66                                    [N_base]
    0                                    [N_YAV_components = # of components with extra extinction!]
    0                                    [i_FitPowerLaw (1/0 = Yes/No)]
-9.99                                    [alpha_PowerLaw]
CCM                                      [red_law_option]
 1.458241                                [q_norm = A(l_norm)/A(V)]

## (Re)Sampling Parameters
 3741.00                                 [l_ini (A)]
 7218.00                                 [l_fin (A)]
    1.00                                 [dl    (A)]     (OBS: dl_cushion =    50.00 A)

## Normalization info
 4020.00                                 [l_norm (A) - for base]
 4010.00                                 [llow_norm (A) - window for f_obs]
 4060.00                                 [lupp_norm (A) - window for f_obs]
8.617975E-18                             [fobs_norm (in input units)]

## S/N
 3691.00                                 [llow_SN (A) - window for S/N]
 7268.00                                 [lupp_SN (A) - window for S/N]
   3.856                                 [S/N in S/N window]
   2.304                                 [S/N in norm. window]
   0.017                                 [S/N_err in S/N window]
   0.010                                 [S/N_err in norm. window]
  1.0000                                 [fscale_chi2]

## etc...
    -2007576                             [idum_orig]
  2427                                   [NOl_eff]
  2415                                   [Nl_eff]
    12    NSIGMA                         [Ntot_cliped & clip_method]
  1374590                                [Nglobal_steps]
   7                                     [N_chains]
  32                                     [NEX0s_base = N_base in EX0s-fits]
 0   0   1       12   2.0   1.232E+03    [Clip-Bug, RC-Crash & Burn-In warning-flags, n_censored_weights, wei_nsig_threshold & wei_limit]
    18     17.989     17.523      0.466  [idt_all, wdt_TotTime, wdt_UsrTime & wdt_SysTime (sec)]

## Synthesis Results - Best model ##

 5.93437E-06                             [chi2/Nl_eff]
    32.39794                             [adev (%)]

   129.61493                             [sum-of-x (%)]
 8.34280E-18                             [Flux_tot (units of input spectrum!)]
 1.10562E-12                             [Mini_tot (???)]
 5.53119E-13                             [Mcor_tot (???)]

-184.57                                  [v0_min  (km/s)]
 292.76                                  [vd_min  (km/s)]
-0.2173                                  [AV_min  (mag)]
 0.0000                                  [YAV_min (mag)]

# j     x_j(%)      Mini_j(%)     Mcor_j(%)     age_j(yr)     Z_j      (L/M)_j    YAV?  Mstars   component_j        a/Fe...       SSP_chi2r SSP_adev(%)   SSP_AV   SSP_x(%)
  1      0.5613     2.9872E-04    5.9710E-04    1.000000E+06  0.00400  1.094E-02    0   1.0000   age020_m42            0.0000     1.1675E-05    50.1299   4.0000   110.8807
  2      0.0000     0.0000E+00    0.0000E+00    3.160000E+06  0.00400  4.007E-02    0   0.9999   age045_m42            0.0000     1.0966E-05    46.8769   3.2956   117.6196
  3      0.0000     0.0000E+00    0.0000E+00    5.010000E+06  0.00400  2.539E-02    0   0.9488   age055_m42            0.0000     1.1319E-05    48.6149   3.6186   114.6416
  4      0.0000     0.0000E+00    0.0000E+00    6.610000E+06  0.00400  2.620E-02    0   0.9220   age061_m42            0.0000     1.1093E-05    47.3164   3.2203   117.9701
  5      0.3155     1.3894E-04    2.4613E-04    1.000000E+07  0.00400  1.322E-02    0   0.8862   age070_m42            0.0000     1.2463E-05    50.2948   2.9439   120.3583
  6      0.0000     0.0000E+00    0.0000E+00    1.445000E+07  0.00400  7.883E-03    0   0.8571   age078_m42            0.0000     1.2519E-05    50.8474   3.2705   117.3080
  7      0.0000     0.0000E+00    0.0000E+00    2.512000E+07  0.00400  5.251E-03    0   0.8174   age090_m42            0.0000     1.2755E-05    50.5941   2.8137   121.0718
  8      0.0000     0.0000E+00    0.0000E+00    4.000000E+07  0.00400  3.649E-03    0   0.7851   age104_m42            0.0000     1.2391E-05    49.7058   2.5853   122.1291
  9      0.0000     0.0000E+00    0.0000E+00    5.500000E+07  0.00400  3.098E-03    0   0.7629   age110_m42            0.0000     1.1706E-05    47.6629   2.7370   122.1677
 10      0.0000     0.0000E+00    0.0000E+00    1.015200E+08  0.00400  2.228E-03    0   0.7207   age116_m42            0.0000     1.1306E-05    46.2999   2.7553   122.4495
 11      3.0846     1.6430E-02    2.1833E-02    2.861200E+08  0.00400  1.093E-03    0   0.6648   age125_m42            0.0000     1.1682E-05    46.5160   2.1788   126.3176
 12      1.7512     1.5454E-02    1.9662E-02    5.088000E+08  0.00400  6.597E-04    0   0.6365   age130_m42            0.0000     1.0826E-05    44.0954   2.1678   127.4076
 13      0.0000     0.0000E+00    0.0000E+00    1.434000E+09  0.00400  2.132E-04    0   0.5798   age139_m42            0.0000     9.5090E-06    42.2436   1.2003   129.7946
 14      0.0000     0.0000E+00    0.0000E+00    4.250000E+09  0.00400  5.895E-05    0   0.5377   age158_m42            0.0000     8.0717E-06    41.7364   0.7596   124.6976
 15      0.4390     7.2806E-02    7.5851E-02    7.500000E+09  0.00400  3.510E-05    0   0.5212   age171_m42            0.0000     7.6010E-06    40.8660   0.5713   123.8085
 16      0.0000     0.0000E+00    0.0000E+00    1.300000E+10  0.00400  2.005E-05    0   0.5034   age193_m42            0.0000     7.2574E-06    40.0813   0.4043   123.1351
 17      0.0000     0.0000E+00    0.0000E+00    1.800000E+10  0.00400  1.525E-05    0   0.4967   age213_m42            0.0000     7.3698E-06    40.6197   0.3813   122.5976
 18      0.3545     1.6670E-04    3.3321E-04    1.000000E+06  0.00800  1.238E-02    0   1.0000   age020_m52            0.0000     1.1656E-05    50.1465   4.0000   110.9602
 19      0.0000     0.0000E+00    0.0000E+00    3.160000E+06  0.00800  3.074E-02    0   0.9966   age045_m52            0.0000     1.1554E-05    49.7306   3.9461   111.0932
 20      0.0000     0.0000E+00    0.0000E+00    5.010000E+06  0.00800  2.668E-02    0   0.9443   age055_m52            0.0000     1.1431E-05    49.2515   3.7014   113.6148
 21      0.4758     1.2968E-04    2.3789E-04    6.610000E+06  0.00800  2.136E-02    0   0.9177   age061_m52            0.0000     1.1603E-05    50.2726   2.4465   121.6203
 22      1.1833     5.6696E-04    1.0004E-03    1.000000E+07  0.00800  1.215E-02    0   0.8827   age070_m52            0.0000     1.3085E-05    51.8840   3.1208   120.1709
 23      0.0000     0.0000E+00    0.0000E+00    1.445000E+07  0.00800  8.717E-03    0   0.8552   age078_m52            0.0000     1.2472E-05    50.7328   3.2358   118.9548
 24      0.0000     0.0000E+00    0.0000E+00    2.512000E+07  0.00800  5.592E-03    0   0.8162   age090_m52            0.0000     1.2859E-05    50.7554   2.8758   122.5627
 25      0.5548     8.2895E-04    1.2992E-03    4.000000E+07  0.00800  3.896E-03    0   0.7841   age104_m52            0.0000     1.2390E-05    49.4533   2.7849   123.6101
 26      0.0000     0.0000E+00    0.0000E+00    1.015200E+08  0.00800  2.148E-03    0   0.7226   age116_m52            0.0000     1.1513E-05    47.3497   2.7228   123.4130
 27      0.0000     0.0000E+00    0.0000E+00    2.861200E+08  0.00800  9.925E-04    0   0.6683   age125_m52            0.0000     1.0806E-05    44.1956   2.2313   128.6669
 28      0.0000     0.0000E+00    0.0000E+00    9.047900E+08  0.00800  3.141E-04    0   0.6138   age135_m52            0.0000     9.0676E-06    40.2596   1.4301   134.0067
 29      0.0000     0.0000E+00    0.0000E+00    1.434000E+09  0.00800  1.719E-04    0   0.5853   age139_m52            0.0000     8.5169E-06    41.1104   0.8508   131.1420
 30      0.5965     4.4115E-02    4.9382E-02    2.500000E+09  0.00800  7.872E-05    0   0.5600   age150_m52            0.0000     7.3105E-06    39.1767   0.5858   127.4751
 31      0.0000     0.0000E+00    0.0000E+00    4.250000E+09  0.00800  4.336E-05    0   0.5426   age158_m52            0.0000     7.2456E-06    39.4989   0.5708   126.2634
 32      0.0000     0.0000E+00    0.0000E+00    6.250000E+09  0.00800  3.159E-05    0   0.5319   age166_m52            0.0000     6.7520E-06    37.8165   0.3663   126.2952
 33      0.0000     0.0000E+00    0.0000E+00    1.300000E+10  0.00800  1.361E-05    0   0.5073   age193_m52            0.0000     6.3007E-06    35.5929  -0.1024   125.4017
 34      0.0000     0.0000E+00    0.0000E+00    1.800000E+10  0.00800  9.886E-06    0   0.4990   age213_m52            0.0000     6.0531E-06    33.6470  -0.2136   124.8481
 35      0.0000     0.0000E+00    0.0000E+00    1.000000E+06  0.02000  1.544E-02    0   1.0000   age020_m62            0.0000     1.1672E-05    50.2144   4.0000   111.0688
 36      0.0000     0.0000E+00    0.0000E+00    3.160000E+06  0.02000  3.762E-02    0   0.9858   age045_m62            0.0000     1.1626E-05    50.0112   3.9569   111.3543
 37      0.0000     0.0000E+00    0.0000E+00    5.010000E+06  0.02000  3.296E-02    0   0.9342   age055_m62            0.0000     1.1022E-05    47.8727   3.5765   116.1403
 38      0.0000     0.0000E+00    0.0000E+00    8.710000E+06  0.02000  1.154E-02    0   0.8861   age067_m62            0.0000     1.7528E-05    58.8714   2.5743   123.4873
 39      0.0000     0.0000E+00    0.0000E+00    1.445000E+07  0.02000  7.663E-03    0   0.8472   age078_m62            0.0000     1.4114E-05    53.6196   2.7643   122.9892
 40      0.8477     1.0890E-03    1.7630E-03    2.512000E+07  0.02000  4.532E-03    0   0.8099   age090_m62            0.0000     1.4461E-05    53.8916   2.7561   122.6613
 41      0.3337     7.1087E-04    1.0792E-03    5.500000E+07  0.02000  2.733E-03    0   0.7595   age110_m62            0.0000     1.2313E-05    49.8363   2.7685   122.6837
 42      0.0000     0.0000E+00    0.0000E+00    1.609000E+08  0.02000  1.369E-03    0   0.6985   age120_m62            0.0000     1.1322E-05    46.0496   2.6017   126.2793
 43      0.0000     0.0000E+00    0.0000E+00    2.861200E+08  0.02000  9.013E-04    0   0.6714   age125_m62            0.0000     1.0778E-05    43.2274   2.3474   130.1004
 44      0.6054     7.0100E-03    9.0365E-03    5.088000E+08  0.02000  5.028E-04    0   0.6449   age130_m62            0.0000     9.4744E-06    39.1950   1.9668   133.5847
 45      0.0000     0.0000E+00    0.0000E+00    9.047900E+08  0.02000  2.428E-04    0   0.6179   age135_m62            0.0000     8.1505E-06    38.8864   1.3785   132.7981
 46      0.0000     0.0000E+00    0.0000E+00    1.434000E+09  0.02000  1.263E-04    0   0.5908   age139_m62            0.0000     7.5086E-06    39.1096   0.9358   130.7342
 47      0.3448     3.3539E-02    3.8033E-02    2.500000E+09  0.02000  5.985E-05    0   0.5673   age150_m62            0.0000     6.7418E-06    37.7940   0.5694   128.8608
 48      0.8471     1.5076E-01    1.6478E-01    4.250000E+09  0.02000  3.271E-05    0   0.5468   age158_m62            0.0000     6.2027E-06    35.4907   0.2625   127.7509
 49      2.2584     9.6673E-01    9.9847E-01    1.000000E+10  0.02000  1.360E-05    0   0.5167   age181_m62            0.0000     5.9231E-06    32.1878  -0.0895   127.2544
 50     93.2818     7.6229E+01    7.6385E+01    1.800000E+10  0.02000  7.124E-06    0   0.5013   age213_m62            0.0000     5.8859E-06    29.7059  -0.3038   126.3079
 51      1.8631     4.1846E-04    8.3628E-04    1.000000E+06  0.05000  2.592E-02    0   0.9998   age020_m72            0.0000     1.1804E-05    50.5328   4.0000   110.7866
 52      0.0000     0.0000E+00    0.0000E+00    3.160000E+06  0.05000  4.845E-02    0   0.9577   age045_m72            0.0000     1.1316E-05    49.1309   3.8374   112.9289
 53      0.0000     0.0000E+00    0.0000E+00    5.010000E+06  0.05000  3.072E-02    0   0.9147   age055_m72            0.0000     1.3209E-05    52.6145   3.3459   118.3076
 54      0.0000     0.0000E+00    0.0000E+00    6.610000E+06  0.05000  1.455E-02    0   0.8877   age061_m72            0.0000     2.1314E-05    62.8206   2.5935   125.1194
 55      0.0000     0.0000E+00    0.0000E+00    1.000000E+07  0.05000  9.074E-03    0   0.8524   age070_m72            0.0000     1.3994E-05    52.9599   3.5108   118.3311
 56      0.0000     0.0000E+00    0.0000E+00    2.512000E+07  0.05000  4.250E-03    0   0.7902   age090_m72            0.0000     1.3472E-05    51.6848   3.2203   120.4724
 57      0.0000     0.0000E+00    0.0000E+00    4.000000E+07  0.05000  3.087E-03    0   0.7618   age104_m72            0.0000     1.3734E-05    51.6651   2.9905   122.6015
 58      0.4277     1.4647E-03    2.0776E-03    1.015200E+08  0.05000  1.700E-03    0   0.7096   age116_m72            0.0000     1.2039E-05    47.3810   2.7420   125.8269
 59      0.7165     5.6492E-03    7.4901E-03    2.861200E+08  0.05000  7.384E-04    0   0.6633   age125_m72            0.0000     1.0073E-05    41.1347   2.2135   131.9219
 60      0.0000     0.0000E+00    0.0000E+00    5.088000E+08  0.05000  3.819E-04    0   0.6372   age130_m72            0.0000     8.5506E-06    38.9894   1.7206   134.0210
 61      0.3060     1.0628E-02    1.2980E-02    9.047900E+08  0.05000  1.676E-04    0   0.6110   age135_m72            0.0000     6.9016E-06    37.5267   1.0273   131.3904
 62      0.0000     0.0000E+00    0.0000E+00    1.434000E+09  0.05000  8.837E-05    0   0.5874   age139_m72            0.0000     6.6950E-06    37.4083   0.5659   130.8483
 63      0.9721     1.3370E-01    1.4961E-01    2.500000E+09  0.05000  4.233E-05    0   0.5598   age150_m72            0.0000     6.0745E-06    34.3792   0.2594   128.9300
 64      0.0000     0.0000E+00    0.0000E+00    6.250000E+09  0.05000  1.435E-05    0   0.5249   age166_m72            0.0000     5.8832E-06    31.2911  -0.1885   126.7663
 65      0.4825     4.3128E-01    4.3414E-01    1.300000E+10  0.05000  6.513E-06    0   0.5036   age193_m72            0.0000     5.9687E-06    28.5482  -0.4709   127.8632
 66     17.0115     2.1877E+01    2.1624E+01    1.800000E+10  0.05000  4.527E-06    0   0.4945   age213_m72            0.0000     6.1654E-06    27.4088  -0.6336   127.5051


## Synthesis Results - Average & Chains ##

# j      x_j: min, <> & last-chain-values for 1 ...  7 chains
  1      0.5613      0.5596      0.5285      0.2241      0.8640      0.3856      0.2654      0.5441      0.0227
  2      0.0000      0.4277      0.5534      0.2959      0.0690      0.8361      0.2938      0.1853      0.3788
  3      0.0000      0.5068      0.5419      0.1916      0.7834      0.7969      0.1005      0.0000      1.3386
  4      0.0000      0.3479      0.1709      0.0227      0.6670      0.1430      0.0000      0.6816      0.0112
  5      0.3155      0.5707      0.7631      1.0180      0.7414      0.0000      0.0000      0.3058      0.1080
  6      0.0000      0.3155      0.3436      0.0000      0.5383      0.0000      0.0444      0.1728      0.8866
  7      0.0000      0.2958      0.3003      0.3105      0.2346      0.3993      0.0000      0.1446      0.2149
  8      0.0000      0.3823      0.1039      0.0337      0.9629      0.0930      0.0000      0.0000      0.1398
  9      0.0000      0.4866      0.5919      0.0000      0.7259      1.2271      0.6929      0.6805      0.0000
 10      0.0000      0.4273      0.1591      0.0852      0.2815      0.0342      0.5771      0.1301      0.0000
 11      3.0846      0.4214      0.1057      0.4903      0.0393      0.1845      0.5494      0.3570      0.1192
 12      1.7512      0.7738      0.2383      0.7776      1.5137      0.5133      0.7244      1.6973      0.5148
 13      0.0000      0.5667      0.0000      0.3930      0.3227      0.4807      0.7495      0.0000      0.6973
 14      0.0000      0.4331      0.0000      0.0000      0.1726      0.5833      0.0000      0.0000      0.0483
 15      0.4390      0.4468      0.1795      0.6837      0.5638      0.9127      0.7203      0.4255      0.0000
 16      0.0000      0.5738      0.1900      0.2242      0.9618      0.6249      0.2553      0.0000      0.2728
 17      0.0000      0.3288      0.0000      0.8023      0.4563      0.1163      0.0159      0.2699      0.0000
 18      0.3545      0.3220      0.0253      0.0000      0.0000      0.8025      0.1383      0.3436      0.4408
 19      0.0000      0.4117      0.3884      0.3333      0.2042      0.0000      0.3321      0.0436      0.3981
 20      0.0000      0.4972      0.2857      0.2049      0.0000      0.3190      0.0000      0.0595      0.8014
 21      0.4758      0.4003      0.2611      0.6881      0.0000      0.1344      0.1350      0.4612      0.0813
 22      1.1833      0.6617      0.3156      0.3748      0.2220      0.1639      1.1259      1.1469      0.3461
 23      0.0000      0.4346      0.5425      0.2977      0.3286      0.9957      0.0833      0.2964      0.3735
 24      0.0000      0.6033      0.1754      0.6116      0.5496      0.4752      0.9345      0.0000      0.2287
 25      0.5548      0.3860      0.0000      0.2367      0.5988      0.3237      0.4871      0.5377      0.0000
 26      0.0000      0.5461      0.5173      0.1086      0.0963      0.1216      0.5114      0.8843      0.5891
 27      0.0000      0.4034      0.0152      1.5617      0.0899      0.0549      0.7972      0.0000      0.2226
 28      0.0000      0.4714      0.7481      0.1119      0.1411      0.0000      0.2724      0.0024      0.0459
 29      0.0000      0.3756      0.7115      0.5860      0.2754      0.0090      0.0000      0.0000      0.9459
 30      0.5965      0.3091      0.1552      0.0000      0.1454      0.4913      0.5146      0.5782      0.3334
 31      0.0000      0.5092      0.2228      0.2272      0.5819      0.4495      0.0013      0.2024      0.0000
 32      0.0000      0.4695      0.2431      0.3575      0.0887      0.2656      0.0000      0.0000      0.0693
 33      0.0000      0.3960      0.0789      0.5563      0.0000      0.0000      0.4490      0.0000      0.7338
 34      0.0000      0.5866      0.4825      0.3264      1.1769      0.3205      0.0049      0.0000      0.9517
 35      0.0000      0.3853      0.1810      0.5750      0.0672      0.2329      1.2535      0.0000      0.0853
 36      0.0000      0.8639      1.1508      0.7334      0.6697      1.1858      1.1322      0.1209      1.1779
 37      0.0000      0.5040      0.3004      0.2093      1.0124      0.4338      0.4739      0.0876      0.1851
 38      0.0000      0.4102      0.0000      0.0000      0.1795      0.0000      0.1119      0.0000      0.4641
 39      0.0000      0.3030      0.2476      0.3826      0.4259      0.0909      0.3609      0.0399      0.0752
 40      0.8477      0.3805      0.0331      0.0897      0.2947      0.0000      0.3338      0.8217      0.0949
 41      0.3337      0.8237      1.2546      0.9088      0.1452      0.6832      0.0000      0.3235      0.6844
 42      0.0000      0.4417      0.0000      0.1261      0.3739      0.0000      0.7995      0.0037      0.4981
 43      0.0000      0.5672      0.0675      0.8308      0.0000      0.2318      0.2067      0.1836      0.9539
 44      0.6054      0.5387      1.1012      0.6211      0.2586      0.1798      1.0157      0.5868      0.3820
 45      0.0000      0.4516      1.4749      0.4533      0.1825      0.3984      0.6893      0.4125      0.0569
 46      0.0000      0.4634      0.6912      0.7003      0.0000      0.9108      0.5099      0.0389      0.0467
