###################################################################
## OUTPUT of StarlightChains_v04.for    [Cid@UFSC - 01/Apr/2007] ##
###################################################################

## Some input info
KUG0210-078._34_25.txt                   [arq_obs]
Base.CB07.vall.4m                        [arq_base]
Masks.EmLines.NEW.gm                     [arq_masks]
StCv04.C11.config                        [arq_config]
   66                                    [N_base]
    0                                    [N_YAV_components = # of components with extra extinction!]
    0                                    [i_FitPowerLaw (1/0 = Yes/No)]
-9.99                                    [alpha_PowerLaw]
CCM                                      [red_law_option]
 1.458241                                [q_norm = A(l_norm)/A(V)]

## (Re)Sampling Parameters
 3741.00                                 [l_ini (A)]
 7218.00                                 [l_fin (A)]
    1.00                                 [dl    (A)]     (OBS: dl_cushion =    50.00 A)

## Normalization info
 4020.00                                 [l_norm (A) - for base]
 4010.00                                 [llow_norm (A) - window for f_obs]
 4060.00                                 [lupp_norm (A) - window for f_obs]
1.330485E-17                             [fobs_norm (in input units)]

## S/N
 3691.00                                 [llow_SN (A) - window for S/N]
 7268.00                                 [lupp_SN (A) - window for S/N]
   3.634                                 [S/N in S/N window]
   4.272                                 [S/N in norm. window]
   0.016                                 [S/N_err in S/N window]
   0.019                                 [S/N_err in norm. window]
  1.0000                                 [fscale_chi2]

## etc...
    -2007530                             [idum_orig]
  2411                                   [NOl_eff]
  1945                                   [Nl_eff]
   466    NSIGMA                         [Ntot_cliped & clip_method]
 10574480                                [Nglobal_steps]
   7                                     [N_chains]
  37                                     [NEX0s_base = N_base in EX0s-fits]
 0   0   1      466   2.0   1.288E+04    [Clip-Bug, RC-Crash & Burn-In warning-flags, n_censored_weights, wei_nsig_threshold & wei_limit]
    83     82.671     81.864      0.806  [idt_all, wdt_TotTime, wdt_UsrTime & wdt_SysTime (sec)]

## Synthesis Results - Best model ##

 1.05887E-05                             [chi2/Nl_eff]
    11.01749                             [adev (%)]

   127.53345                             [sum-of-x (%)]
 1.11592E-17                             [Flux_tot (units of input spectrum!)]
 3.46567E-13                             [Mini_tot (???)]
 1.75842E-13                             [Mcor_tot (???)]

 -67.26                                  [v0_min  (km/s)]
 458.25                                  [vd_min  (km/s)]
-0.3120                                  [AV_min  (mag)]
 0.0000                                  [YAV_min (mag)]

# j     x_j(%)      Mini_j(%)     Mcor_j(%)     age_j(yr)     Z_j      (L/M)_j    YAV?  Mstars   component_j        a/Fe...       SSP_chi2r SSP_adev(%)   SSP_AV   SSP_x(%)
  1      0.0000     0.0000E+00    0.0000E+00    1.000000E+06  0.00400  1.094E-02    0   1.0000   age020_m42            0.0000     1.2976E-05    12.6751   2.3615   111.3019
  2      0.0322     2.0283E-05    3.9972E-05    3.160000E+06  0.00400  4.007E-02    0   0.9999   age045_m42            0.0000     1.2675E-05    12.4094   1.7014   115.0564
  3      0.0000     0.0000E+00    0.0000E+00    5.010000E+06  0.00400  2.539E-02    0   0.9488   age055_m42            0.0000     1.2650E-05    12.4183   1.9860   114.1308
  4      3.2106     3.0939E-03    5.6221E-03    6.610000E+06  0.00400  2.620E-02    0   0.9220   age061_m42            0.0000     1.2470E-05    12.2215   1.6201   115.5255
  5      0.0000     0.0000E+00    0.0000E+00    1.000000E+07  0.00400  1.322E-02    0   0.8862   age070_m42            0.0000     1.1852E-05    11.7043   1.2972   119.5442
  6     12.8348     4.1107E-02    6.9441E-02    1.445000E+07  0.00400  7.883E-03    0   0.8571   age078_m42            0.0000     1.1962E-05    11.7540   1.6105   117.3112
  7      0.0000     0.0000E+00    0.0000E+00    2.512000E+07  0.00400  5.251E-03    0   0.8174   age090_m42            0.0000     1.1791E-05    11.6664   1.1665   120.1141
  8      0.4393     3.0397E-03    4.7035E-03    4.000000E+07  0.00400  3.649E-03    0   0.7851   age104_m42            0.0000     1.1766E-05    11.6965   0.9550   120.3082
  9      0.0000     0.0000E+00    0.0000E+00    5.500000E+07  0.00400  3.098E-03    0   0.7629   age110_m42            0.0000     1.2015E-05    11.7750   1.1332   119.0369
 10      0.1033     1.1705E-03    1.6627E-03    1.015200E+08  0.00400  2.228E-03    0   0.7207   age116_m42            0.0000     1.2143E-05    11.8611   1.1707   118.4546
 11      6.6399     1.5338E-01    2.0097E-01    2.861200E+08  0.00400  1.093E-03    0   0.6648   age125_m42            0.0000     1.1700E-05    11.3036   0.5911   121.7106
 12      0.0000     0.0000E+00    0.0000E+00    5.088000E+08  0.00400  6.597E-04    0   0.6365   age130_m42            0.0000     1.1822E-05    11.5400   0.6179   121.2025
 13      0.0000     0.0000E+00    0.0000E+00    1.434000E+09  0.00400  2.132E-04    0   0.5798   age139_m42            0.0000     1.1221E-05    11.6411  -0.3112   121.9094
 14      2.1812     9.3420E-01    9.9003E-01    4.250000E+09  0.00400  5.895E-05    0   0.5377   age158_m42            0.0000     1.1167E-05    11.8278  -0.7531   117.7869
 15      0.0000     0.0000E+00    0.0000E+00    7.500000E+09  0.00400  3.510E-05    0   0.5212   age171_m42            0.0000     1.1109E-05    11.6715  -0.9400   116.8008
 16      2.3626     2.9750E+00    2.9517E+00    1.300000E+10  0.00400  2.005E-05    0   0.5034   age193_m42            0.0000     1.1321E-05    12.6171  -1.0000   112.3770
 17      0.0000     0.0000E+00    0.0000E+00    1.800000E+10  0.00400  1.525E-05    0   0.4967   age213_m42            0.0000     1.1437E-05    12.9792  -1.0000   111.2095
 18      0.0000     0.0000E+00    0.0000E+00    1.000000E+06  0.00800  1.238E-02    0   1.0000   age020_m52            0.0000     1.2980E-05    12.6783   2.3578   111.5227
 19      0.0000     0.0000E+00    0.0000E+00    3.160000E+06  0.00800  3.074E-02    0   0.9966   age045_m52            0.0000     1.2946E-05    12.6797   2.2861   112.2534
 20      0.0000     0.0000E+00    0.0000E+00    5.010000E+06  0.00800  2.668E-02    0   0.9443   age055_m52            0.0000     1.2647E-05    12.4482   2.0600   113.6196
 21      0.0000     0.0000E+00    0.0000E+00    6.610000E+06  0.00800  2.136E-02    0   0.9177   age061_m52            0.0000     1.1442E-05    11.6594   0.7938   121.3099
 22      0.0000     0.0000E+00    0.0000E+00    1.000000E+07  0.00800  1.215E-02    0   0.8827   age070_m52            0.0000     1.1725E-05    11.5115   1.4552   120.1301
 23      1.9413     5.6226E-03    9.4770E-03    1.445000E+07  0.00800  8.717E-03    0   0.8552   age078_m52            0.0000     1.1890E-05    11.6852   1.5786   118.6777
 24      0.2574     1.1622E-03    1.8696E-03    2.512000E+07  0.00800  5.592E-03    0   0.8162   age090_m52            0.0000     1.1731E-05    11.5493   1.2323   121.2511
 25      1.5046     9.7504E-03    1.5068E-02    4.000000E+07  0.00800  3.896E-03    0   0.7841   age104_m52            0.0000     1.1748E-05    11.4812   1.1611   121.1349
 26      0.0000     0.0000E+00    0.0000E+00    1.015200E+08  0.00800  2.148E-03    0   0.7226   age116_m52            0.0000     1.1869E-05    11.6513   1.1278   119.6941
 27      0.0000     0.0000E+00    0.0000E+00    2.861200E+08  0.00800  9.925E-04    0   0.6683   age125_m52            0.0000     1.1722E-05    11.3885   0.6755   122.5232
 28      0.0000     0.0000E+00    0.0000E+00    9.047900E+08  0.00800  3.141E-04    0   0.6138   age135_m52            0.0000     1.1308E-05    11.3193  -0.0607   124.3021
 29      0.0000     0.0000E+00    0.0000E+00    1.434000E+09  0.00800  1.719E-04    0   0.5853   age139_m52            0.0000     1.0875E-05    11.2720  -0.6556   122.9227
 30      0.0000     0.0000E+00    0.0000E+00    2.500000E+09  0.00800  7.872E-05    0   0.5600   age150_m52            0.0000     1.1005E-05    11.4163  -0.9168   119.5209
 31      0.4517     2.6304E-01    2.8130E-01    4.250000E+09  0.00800  4.336E-05    0   0.5426   age158_m52            0.0000     1.1040E-05    11.4737  -0.9307   118.4109
 32      0.0000     0.0000E+00    0.0000E+00    6.250000E+09  0.00800  3.159E-05    0   0.5319   age166_m52            0.0000     1.1421E-05    12.7343  -1.0000   113.5887
 33      0.0000     0.0000E+00    0.0000E+00    1.300000E+10  0.00800  1.361E-05    0   0.5073   age193_m52            0.0000     1.6909E-05    17.9151  -1.0000    96.0176
 34      0.0000     0.0000E+00    0.0000E+00    1.800000E+10  0.00800  9.886E-06    0   0.4990   age213_m52            0.0000     1.9129E-05    18.9808  -1.0000    91.7063
 35     19.2430     3.1466E-02    6.2017E-02    1.000000E+06  0.02000  1.544E-02    0   1.0000   age020_m62            0.0000     1.2988E-05    12.7019   2.3533   111.8493
 36      2.7844     1.8687E-03    3.6307E-03    3.160000E+06  0.02000  3.762E-02    0   0.9858   age045_m62            0.0000     1.2934E-05    12.6443   2.2898   112.8749
 37      0.0000     0.0000E+00    0.0000E+00    5.010000E+06  0.02000  3.296E-02    0   0.9342   age055_m62            0.0000     1.2648E-05    12.3584   1.9549   114.9746
 38     22.1085     4.8370E-02    8.4474E-02    8.710000E+06  0.02000  1.154E-02    0   0.8861   age067_m62            0.0000     1.1319E-05    11.1717   0.8153   127.7132
 39      0.0000     0.0000E+00    0.0000E+00    1.445000E+07  0.02000  7.663E-03    0   0.8472   age078_m62            0.0000     1.1379E-05    11.1377   1.0747   123.7320
 40      0.0000     0.0000E+00    0.0000E+00    2.512000E+07  0.02000  4.532E-03    0   0.8099   age090_m62            0.0000     1.1382E-05    11.0959   1.0660   123.3120
 41      0.0000     0.0000E+00    0.0000E+00    5.500000E+07  0.02000  2.733E-03    0   0.7595   age110_m62            0.0000     1.1606E-05    11.4729   1.1354   120.8551
 42      0.0000     0.0000E+00    0.0000E+00    1.609000E+08  0.02000  1.369E-03    0   0.6985   age120_m62            0.0000     1.1826E-05    11.5273   1.0159   121.8683
 43      0.0000     0.0000E+00    0.0000E+00    2.861200E+08  0.02000  9.013E-04    0   0.6714   age125_m62            0.0000     1.1916E-05    11.5503   0.7938   123.7627
 44      0.0000     0.0000E+00    0.0000E+00    5.088000E+08  0.02000  5.028E-04    0   0.6449   age130_m62            0.0000     1.1931E-05    11.5867   0.4658   124.3686
 45      6.3607     6.6142E-01    8.0549E-01    9.047900E+08  0.02000  2.428E-04    0   0.6179   age135_m62            0.0000     1.1260E-05    11.4385  -0.1064   123.1242
 46      5.1433     1.0282E+00    1.1972E+00    1.434000E+09  0.02000  1.263E-04    0   0.5908   age139_m62            0.0000     1.0968E-05    11.3812  -0.5573   121.8495
 47      3.5782     1.5094E+00    1.6877E+00    2.500000E+09  0.02000  5.985E-05    0   0.5673   age150_m62            0.0000     1.1207E-05    11.5359  -0.9172   120.1710
 48      0.0000     0.0000E+00    0.0000E+00    4.250000E+09  0.02000  3.271E-05    0   0.5468   age158_m62            0.0000     1.2318E-05    13.8783  -1.0000   111.2142
 49      1.8858     3.5010E+00    3.5653E+00    1.000000E+10  0.02000  1.360E-05    0   0.5167   age181_m62            0.0000     1.6801E-05    17.5332  -1.0000    97.9702
 50     24.6035     8.7196E+01    8.6151E+01    1.800000E+10  0.02000  7.124E-06    0   0.5013   age213_m62            0.0000     2.1351E-05    19.5869  -1.0000    89.7057
 51      0.0000     0.0000E+00    0.0000E+00    1.000000E+06  0.05000  2.592E-02    0   0.9998   age020_m72            0.0000     1.3011E-05    12.7353   2.3392   112.1986
 52      1.1165     5.8181E-04    1.0982E-03    3.160000E+06  0.05000  4.845E-02    0   0.9577   age045_m72            0.0000     1.2900E-05    12.6223   2.1929   113.2853
 53      0.0000     0.0000E+00    0.0000E+00    5.010000E+06  0.05000  3.072E-02    0   0.9147   age055_m72            0.0000     1.1594E-05    11.1628   1.6608   119.2769
 54      0.0000     0.0000E+00    0.0000E+00    6.610000E+06  0.05000  1.455E-02    0   0.8877   age061_m72            0.0000     1.1819E-05    11.2865   0.7952   130.7223
 55      0.0000     0.0000E+00    0.0000E+00    1.000000E+07  0.05000  9.074E-03    0   0.8524   age070_m72            0.0000     1.1606E-05    10.8214   1.8330   118.9801
 56      0.0000     0.0000E+00    0.0000E+00    2.512000E+07  0.05000  4.250E-03    0   0.7902   age090_m72            0.0000     1.1627E-05    10.9189   1.5571   119.7707
 57      0.0000     0.0000E+00    0.0000E+00    4.000000E+07  0.05000  3.087E-03    0   0.7618   age104_m72            0.0000     1.1632E-05    10.9578   1.3392   121.1774
 58      1.1480     1.7049E-02    2.3844E-02    1.015200E+08  0.05000  1.700E-03    0   0.7096   age116_m72            0.0000     1.1793E-05    11.3418   1.1382   122.0376
 59      0.0000     0.0000E+00    0.0000E+00    2.861200E+08  0.05000  7.384E-04    0   0.6633   age125_m72            0.0000     1.1846E-05    11.5395   0.6902   123.8996
 60      2.2759     1.5046E-01    1.8896E-01    5.088000E+08  0.05000  3.819E-04    0   0.6372   age130_m72            0.0000     1.1608E-05    11.7516   0.2416   124.1137
 61      0.4293     6.4678E-02    7.7887E-02    9.047900E+08  0.05000  1.676E-04    0   0.6110   age135_m72            0.0000     1.1450E-05    11.8180  -0.4408   121.6448
 62      4.8974     1.3992E+00    1.6199E+00    1.434000E+09  0.05000  8.837E-05    0   0.5874   age139_m72            0.0000     1.1233E-05    11.5540  -0.9017   121.1187
 63      0.0000     0.0000E+00    0.0000E+00    2.500000E+09  0.05000  4.233E-05    0   0.5598   age150_m72            0.0000     1.2445E-05    13.7891  -1.0000   112.0141
 64      0.0000     0.0000E+00    0.0000E+00    6.250000E+09  0.05000  1.435E-05    0   0.5249   age166_m72            0.0000     1.8715E-05    18.6157  -1.0000    94.1936
 65      0.0000     0.0000E+00    0.0000E+00    1.300000E+10  0.05000  6.513E-06    0   0.5036   age193_m72            0.0000     2.5932E-05    21.1802  -1.0000    85.0634
 66      0.0000     0.0000E+00    0.0000E+00    1.800000E+10  0.05000  4.527E-06    0   0.4945   age213_m72            0.0000     3.0925E-05    22.4397  -1.0000    79.2788


## Synthesis Results - Average & Chains ##

# j      x_j: min, <> & last-chain-values for 1 ...  7 chains
  1      0.0000      0.3260      0.6000      0.0526      0.2248      0.0560      0.0120      0.0000      0.0640
  2      0.0322      0.1989      0.9794      0.0000      0.0000      0.0000      0.0930      0.0000      0.0135
  3      0.0000      0.2334      0.0000      0.0000      1.9806      0.0000      0.0317      0.4258      0.0691
  4      3.2106      0.2832      0.7004      0.3129      0.0000      0.0000      0.0522      0.0000      0.0358
  5      0.0000      0.2132      0.0884      1.2376      0.2706      0.1427      0.0315      0.3522      0.0585
  6     12.8348      0.3272      1.9466      0.4740      1.9915      0.0000      0.0664      0.0000      0.0196
  7      0.0000      0.2878      0.1118      0.8208      0.5479      0.2259      0.1372      0.1084      0.0099
  8      0.4393      0.2336      1.7521      0.0000      0.0000      0.1586      0.0366      0.1894      0.1487
  9      0.0000      0.2700      2.5188      0.5507      0.7434      0.0693      0.0157      0.0150      0.0467
 10      0.1033      0.2496      0.3894      0.0135      1.1189      0.1678      0.0000      0.0000      0.0004
 11      6.6399      0.3134      0.5229      0.0000      0.0000      0.0780      0.0138      0.2093      0.0517
 12      0.0000      0.2641      0.7254      0.6299      0.0000      0.0000      0.0307      0.1857      0.0000
 13      0.0000      0.2939      0.5813      0.0000      0.2257      0.0691      0.1071      0.4338      0.0396
 14      2.1812      0.2317      0.4398      0.9832      0.0000      0.2448      0.0000      0.0935      0.0696
 15      0.0000      0.1985      0.1054      0.2820      0.0000      0.2955      0.0089      0.0068      0.0000
 16      2.3626      0.3013      0.8746      1.1520      0.1958      0.0000      0.1488      0.0945      0.0610
 17      0.0000      0.2576      0.3222      0.0000      0.8273      0.0675      0.0085      0.0536      0.0826
 18      0.0000      0.2759      0.2755      0.0000      0.0557      0.0000      0.0038      0.1763      0.0556
 19      0.0000      0.2435      0.0000      0.0000      0.4485      0.1217      0.0388      0.4382      0.0543
 20      0.0000      0.2675      0.7251      0.0000      0.0000      0.0572      0.0560      0.0000      0.0051
 21      0.0000      0.2907      0.0000      0.0000      0.3280      0.1786      0.0319      0.4853      0.1283
 22      0.0000      0.2257      0.2393      0.6979      0.0000      0.0000      0.0789      0.1956      0.0368
 23      1.9413      0.2723      0.6436      1.1588      0.0000      0.2077      0.0054      0.0000      0.0000
 24      0.2574      0.2549      0.3703      0.4786      0.0730      0.0000      0.1633      0.7100      0.0489
 25      1.5046      0.3701      0.6471      1.1713      0.0000      0.0969      0.1588      0.1755      0.0000
 26      0.0000      0.3050      0.2711      1.1749      0.0000      0.0000      0.0067      0.2732      0.1555
 27      0.0000      0.2839      0.0000      0.0769      0.0000      0.0445      0.0640      0.1090      0.0075
 28      0.0000      0.2798      0.0000      0.4606      1.2262      0.1188      0.0000      0.0263      0.0378
 29      0.0000      0.2660      1.0082      0.0697      0.0000      0.0339      0.0807      0.0000      0.0120
 30      0.0000      0.1996      0.0000      0.2190      0.2904      0.0797      0.0563      0.1159      0.0821
 31      0.4517      0.2419      0.7791      0.0553      1.0807      0.1660      0.0165      0.3705      0.0089
 32      0.0000      0.2718      0.0000      1.5526      0.1084      0.1486      0.0163      0.3119      0.0000
 33      0.0000      0.3024      0.0000      2.2605      0.6637      0.0561      0.0148      0.6144      0.0402
 34      0.0000      0.2097      0.0000      0.4387      0.0968      0.0457      0.0831      0.0000      0.0000
 35     19.2430      0.3140      0.5730      0.0967      1.0967      0.0978      0.0522      0.0000      0.0205
 36      2.7844      0.2074      0.5644      0.0000      0.5312      0.0916      0.0226      0.1490      0.0136
 37      0.0000      0.2699      0.5053      0.0000      0.2770      0.0237      0.1017      0.1995      0.0843
 38     22.1085      0.2599      0.3974      0.4094      0.2402      0.0184      0.0305      0.2315      0.0000
 39      0.0000      0.2313      0.4761      0.1487      0.0014      0.0999      0.1008      0.0000      0.0584
 40      0.0000      0.3393      0.0871      0.2385      0.2162      0.0000      0.0000      0.0000      0.0329
 41      0.0000      0.1968      0.0000      0.0000      0.4415      0.0898      0.0126      0.0000      0.0472
 42      0.0000      0.2732      0.0000      0.0000      0.0000      0.0596      0.0026      0.0000      0.0218
 43      0.0000      0.2189      0.0000      0.1220      0.3398      0.3261      0.1285      0.4707      0.0000
 44      0.0000      1.6972      0.9097      1.6275      2.1072      2.4492      1.7036      1.6878      1.3869
 45      6.3607     16.1767     13.0091     15.9807     15.6066     15.6676     14.8325     16.3434     28.6250
 46      5.1433      0.2286      0.6423      0.0687      0.7111      0.0431      0.1424      0.3131      0.0352
