###################################################################
## OUTPUT of StarlightChains_v04.for    [Cid@UFSC - 01/Apr/2007] ##
###################################################################

## Some input info
KUG0210-078._32_24.txt                   [arq_obs]
Base.CB07.vall.4m                        [arq_base]
Masks.EmLines.NEW.gm                     [arq_masks]
StCv04.C11.config                        [arq_config]
   66                                    [N_base]
    0                                    [N_YAV_components = # of components with extra extinction!]
    0                                    [i_FitPowerLaw (1/0 = Yes/No)]
-9.99                                    [alpha_PowerLaw]
CCM                                      [red_law_option]
 1.458241                                [q_norm = A(l_norm)/A(V)]

## (Re)Sampling Parameters
 3741.00                                 [l_ini (A)]
 7218.00                                 [l_fin (A)]
    1.00                                 [dl    (A)]     (OBS: dl_cushion =    50.00 A)

## Normalization info
 4020.00                                 [l_norm (A) - for base]
 4010.00                                 [llow_norm (A) - window for f_obs]
 4060.00                                 [lupp_norm (A) - window for f_obs]
1.414879E-17                             [fobs_norm (in input units)]

## S/N
 3691.00                                 [llow_SN (A) - window for S/N]
 7268.00                                 [lupp_SN (A) - window for S/N]
   3.490                                 [S/N in S/N window]
   4.935                                 [S/N in norm. window]
   0.015                                 [S/N_err in S/N window]
   0.021                                 [S/N_err in norm. window]
  1.0000                                 [fscale_chi2]

## etc...
    -2007472                             [idum_orig]
  2388                                   [NOl_eff]
  1825                                   [Nl_eff]
   563    NSIGMA                         [Ntot_cliped & clip_method]
 10572870                                [Nglobal_steps]
   7                                     [N_chains]
  39                                     [NEX0s_base = N_base in EX0s-fits]
 0   0   1        0   2.0   1.511E+04    [Clip-Bug, RC-Crash & Burn-In warning-flags, n_censored_weights, wei_nsig_threshold & wei_limit]
    95     94.648     93.613      1.036  [idt_all, wdt_TotTime, wdt_UsrTime & wdt_SysTime (sec)]

## Synthesis Results - Best model ##

 9.65675E-06                             [chi2/Nl_eff]
    13.55967                             [adev (%)]

   105.36858                             [sum-of-x (%)]
 3.79397E-17                             [Flux_tot (units of input spectrum!)]
 2.44652E-13                             [Mini_tot (???)]
 1.26549E-13                             [Mcor_tot (???)]

  75.30                                  [v0_min  (km/s)]
 165.63                                  [vd_min  (km/s)]
 0.6955                                  [AV_min  (mag)]
 0.0000                                  [YAV_min (mag)]

# j     x_j(%)      Mini_j(%)     Mcor_j(%)     age_j(yr)     Z_j      (L/M)_j    YAV?  Mstars   component_j        a/Fe...       SSP_chi2r SSP_adev(%)   SSP_AV   SSP_x(%)
  1      7.9386     1.0680E-01    2.0647E-01    1.000000E+06  0.00400  1.094E-02    0   1.0000   age020_m42            0.0000     1.3957E-05    17.9069   2.2395    94.5192
  2      0.0000     0.0000E+00    0.0000E+00    3.160000E+06  0.00400  4.007E-02    0   0.9999   age045_m42            0.0000     1.2999E-05    17.1404   1.5936    97.5424
  3      0.0000     0.0000E+00    0.0000E+00    5.010000E+06  0.00400  2.539E-02    0   0.9488   age055_m42            0.0000     1.3314E-05    17.3762   1.8759    96.7165
  4      0.0000     0.0000E+00    0.0000E+00    6.610000E+06  0.00400  2.620E-02    0   0.9220   age061_m42            0.0000     1.2724E-05    16.8973   1.5146    97.9711
  5      1.0335     1.1506E-02    1.9713E-02    1.000000E+07  0.00400  1.322E-02    0   0.8862   age070_m42            0.0000     1.1471E-05    15.7220   1.2054   101.3940
  6      0.0000     0.0000E+00    0.0000E+00    1.445000E+07  0.00400  7.883E-03    0   0.8571   age078_m42            0.0000     1.1829E-05    16.0432   1.5165    99.4458
  7      0.0000     0.0000E+00    0.0000E+00    2.512000E+07  0.00400  5.251E-03    0   0.8174   age090_m42            0.0000     1.1184E-05    15.4542   1.0829   101.6786
  8      0.6688     2.6976E-02    4.0944E-02    4.000000E+07  0.00400  3.649E-03    0   0.7851   age104_m42            0.0000     1.1128E-05    15.4323   0.8700   101.8846
  9      0.2857     1.3572E-02    2.0017E-02    5.500000E+07  0.00400  3.098E-03    0   0.7629   age110_m42            0.0000     1.1482E-05    15.7609   1.0437   100.8175
 10      0.0000     0.0000E+00    0.0000E+00    1.015200E+08  0.00400  2.228E-03    0   0.7207   age116_m42            0.0000     1.1712E-05    15.9831   1.0784   100.3607
 11      0.0000     0.0000E+00    0.0000E+00    2.861200E+08  0.00400  1.093E-03    0   0.6648   age125_m42            0.0000     1.0943E-05    15.0860   0.5103   103.1303
 12      0.0000     0.0000E+00    0.0000E+00    5.088000E+08  0.00400  6.597E-04    0   0.6365   age130_m42            0.0000     1.1367E-05    15.5273   0.5258   102.9554
 13      0.0035     2.4117E-03    2.7032E-03    1.434000E+09  0.00400  2.132E-04    0   0.5798   age139_m42            0.0000     1.1181E-05    15.5152  -0.4300   104.5799
 14      0.0000     0.0000E+00    0.0000E+00    4.250000E+09  0.00400  5.895E-05    0   0.5377   age158_m42            0.0000     1.2282E-05    16.3371  -0.8792   100.7426
 15      0.0000     0.0000E+00    0.0000E+00    7.500000E+09  0.00400  3.510E-05    0   0.5212   age171_m42            0.0000     1.2695E-05    17.0600  -1.0000    98.2773
 16      0.0000     0.0000E+00    0.0000E+00    1.300000E+10  0.00400  2.005E-05    0   0.5034   age193_m42            0.0000     1.3831E-05    19.0411  -1.0000    93.5529
 17      0.0000     0.0000E+00    0.0000E+00    1.800000E+10  0.00400  1.525E-05    0   0.4967   age213_m42            0.0000     1.3884E-05    19.2959  -1.0000    92.5506
 18      2.6133     3.1068E-02    6.0062E-02    1.000000E+06  0.00800  1.238E-02    0   1.0000   age020_m52            0.0000     1.3980E-05    17.9356   2.2359    94.7394
 19      0.0000     0.0000E+00    0.0000E+00    3.160000E+06  0.00800  3.074E-02    0   0.9966   age045_m52            0.0000     1.3951E-05    17.9236   2.1605    95.5033
 20      0.0000     0.0000E+00    0.0000E+00    5.010000E+06  0.00800  2.668E-02    0   0.9443   age055_m52            0.0000     1.3388E-05    17.4648   1.9408    96.6417
 21      0.0000     0.0000E+00    0.0000E+00    6.610000E+06  0.00800  2.136E-02    0   0.9177   age061_m52            0.0000     1.1519E-05    15.9131   0.6879   103.4009
 22      0.0000     0.0000E+00    0.0000E+00    1.000000E+07  0.00800  1.215E-02    0   0.8827   age070_m52            0.0000     1.1214E-05    15.4226   1.3638   102.0825
 23      0.0000     0.0000E+00    0.0000E+00    1.445000E+07  0.00800  8.717E-03    0   0.8552   age078_m52            0.0000     1.1681E-05    15.8976   1.4832   100.7913
 24      0.0000     0.0000E+00    0.0000E+00    2.512000E+07  0.00800  5.592E-03    0   0.8162   age090_m52            0.0000     1.0974E-05    15.2080   1.1537   102.5697
 25      0.0000     0.0000E+00    0.0000E+00    4.000000E+07  0.00800  3.896E-03    0   0.7841   age104_m52            0.0000     1.0962E-05    15.1771   1.0880   102.1998
 26      0.0000     0.0000E+00    0.0000E+00    1.015200E+08  0.00800  2.148E-03    0   0.7226   age116_m52            0.0000     1.1383E-05    15.6281   1.0473   101.0538
 27      0.0000     0.0000E+00    0.0000E+00    2.861200E+08  0.00800  9.925E-04    0   0.6683   age125_m52            0.0000     1.1110E-05    15.3712   0.5933   103.6735
 28      0.4117     1.9292E-01    2.2892E-01    9.047900E+08  0.00800  3.141E-04    0   0.6138   age135_m52            0.0000     1.1074E-05    15.3299  -0.1358   104.6455
 29      0.0000     0.0000E+00    0.0000E+00    1.434000E+09  0.00800  1.719E-04    0   0.5853   age139_m52            0.0000     1.1308E-05    15.4420  -0.7372   103.6146
 30      0.0000     0.0000E+00    0.0000E+00    2.500000E+09  0.00800  7.872E-05    0   0.5600   age150_m52            0.0000     1.2220E-05    16.2543  -1.0000   100.5621
 31      0.0000     0.0000E+00    0.0000E+00    4.250000E+09  0.00800  4.336E-05    0   0.5426   age158_m52            0.0000     1.2415E-05    16.4939  -1.0000    99.3032
 32      0.0000     0.0000E+00    0.0000E+00    6.250000E+09  0.00800  3.159E-05    0   0.5319   age166_m52            0.0000     1.3604E-05    18.7326  -1.0000    93.9864
 33      0.0000     0.0000E+00    0.0000E+00    1.300000E+10  0.00800  1.361E-05    0   0.5073   age193_m52            0.0000     1.9498E-05    24.9643  -1.0000    80.8042
 34      0.0000     0.0000E+00    0.0000E+00    1.800000E+10  0.00800  9.886E-06    0   0.4990   age213_m52            0.0000     2.1847E-05    26.2793  -1.0000    77.4012
 35     12.3383     1.1761E-01    2.2737E-01    1.000000E+06  0.02000  1.544E-02    0   1.0000   age020_m62            0.0000     1.4027E-05    17.9651   2.2240    95.2647
 36      1.3769     5.3865E-03    1.0266E-02    3.160000E+06  0.02000  3.762E-02    0   0.9858   age045_m62            0.0000     1.4060E-05    18.0124   2.1486    96.6597
 37      0.0000     0.0000E+00    0.0000E+00    5.010000E+06  0.02000  3.296E-02    0   0.9342   age055_m62            0.0000     1.3248E-05    17.3692   1.8353    97.8639
 38      0.0000     0.0000E+00    0.0000E+00    8.710000E+06  0.02000  1.154E-02    0   0.8861   age067_m62            0.0000     9.3967E-06    13.4614   0.7373   109.2720
 39      0.0000     0.0000E+00    0.0000E+00    1.445000E+07  0.02000  7.663E-03    0   0.8472   age078_m62            0.0000     1.0423E-05    14.5480   0.9985   105.0023
 40      0.8501     2.7607E-02    4.3225E-02    2.512000E+07  0.02000  4.532E-03    0   0.8099   age090_m62            0.0000     1.0261E-05    14.3258   0.9976   104.4097
 41      0.0000     0.0000E+00    0.0000E+00    5.500000E+07  0.02000  2.733E-03    0   0.7595   age110_m62            0.0000     1.1036E-05    15.2536   1.0574   102.1089
 42      1.1777     1.2661E-01    1.7097E-01    1.609000E+08  0.02000  1.369E-03    0   0.6985   age120_m62            0.0000     1.1217E-05    15.4670   0.9381   102.8326
 43      0.9937     1.6227E-01    2.1062E-01    2.861200E+08  0.02000  9.013E-04    0   0.6714   age125_m62            0.0000     1.1192E-05    15.4331   0.7184   104.3056
 44      0.0000     0.0000E+00    0.0000E+00    5.088000E+08  0.02000  5.028E-04    0   0.6449   age130_m62            0.0000     1.1502E-05    15.6646   0.3963   104.2742
 45      2.5173     1.5259E+00    1.8228E+00    9.047900E+08  0.02000  2.428E-04    0   0.6179   age135_m62            0.0000     1.1531E-05    15.7722  -0.1650   102.5810
 46      0.0000     0.0000E+00    0.0000E+00    1.434000E+09  0.02000  1.263E-04    0   0.5908   age139_m62            0.0000     1.1732E-05    15.9164  -0.6228   101.6492
 47      0.0000     0.0000E+00    0.0000E+00    2.500000E+09  0.02000  5.985E-05    0   0.5673   age150_m62            0.0000     1.2583E-05    16.4219  -0.9931   100.3451
 48      0.0000     0.0000E+00    0.0000E+00    4.250000E+09  0.02000  3.271E-05    0   0.5468   age158_m62            0.0000     1.4740E-05    19.8587  -1.0000    91.8274
 49      4.4076     4.7697E+01    4.7646E+01    1.000000E+10  0.02000  1.360E-05    0   0.5167   age181_m62            0.0000     1.9153E-05    24.0996  -1.0000    81.8273
 50      2.3338     4.8215E+01    4.6727E+01    1.800000E+10  0.02000  7.124E-06    0   0.5013   age213_m62            0.0000     2.2967E-05    26.4953  -1.0000    75.4169
 51      0.0000     0.0000E+00    0.0000E+00    1.000000E+06  0.05000  2.592E-02    0   0.9998   age020_m72            0.0000     1.4085E-05    18.0057   2.2107    95.5292
 52      0.0000     0.0000E+00    0.0000E+00    3.160000E+06  0.05000  4.845E-02    0   0.9577   age045_m72            0.0000     1.3892E-05    17.8741   2.0591    96.7599
 53      0.0000     0.0000E+00    0.0000E+00    5.010000E+06  0.05000  3.072E-02    0   0.9147   age055_m72            0.0000     1.1542E-05    15.6133   1.5676   101.4927
 54     52.6838     5.3290E-01    9.1454E-01    6.610000E+06  0.05000  1.455E-02    0   0.8877   age061_m72            0.0000     9.0167E-06    12.8266   0.7399   111.9338
 55      0.0000     0.0000E+00    0.0000E+00    1.000000E+07  0.05000  9.074E-03    0   0.8524   age070_m72            0.0000     1.1579E-05    15.6858   1.7458   101.2653
 56      0.0000     0.0000E+00    0.0000E+00    2.512000E+07  0.05000  4.250E-03    0   0.7902   age090_m72            0.0000     1.1050E-05    15.0410   1.4917   101.0375
 57      0.0000     0.0000E+00    0.0000E+00    4.000000E+07  0.05000  3.087E-03    0   0.7618   age104_m72            0.0000     1.0713E-05    14.6710   1.2808   102.0625
 58     13.7123     1.1871E+00    1.6285E+00    1.015200E+08  0.05000  1.700E-03    0   0.7096   age116_m72            0.0000     1.0956E-05    15.1184   1.0684   102.9137
 59      0.0000     0.0000E+00    0.0000E+00    2.861200E+08  0.05000  7.384E-04    0   0.6633   age125_m72            0.0000     1.1181E-05    15.3982   0.6303   103.5951
 60      0.0039     1.5087E-03    1.8586E-03    5.088000E+08  0.05000  3.819E-04    0   0.6372   age130_m72            0.0000     1.1511E-05    15.7833   0.1915   102.8952
 61      0.0180     1.5803E-02    1.8666E-02    9.047900E+08  0.05000  1.676E-04    0   0.6110   age135_m72            0.0000     1.2332E-05    16.3928  -0.4872   100.2030
 62      0.0000     0.0000E+00    0.0000E+00    1.434000E+09  0.05000  8.837E-05    0   0.5874   age139_m72            0.0000     1.2465E-05    16.2830  -0.9625   100.4494
 63      0.0000     0.0000E+00    0.0000E+00    2.500000E+09  0.05000  4.233E-05    0   0.5598   age150_m72            0.0000     1.4554E-05    19.5503  -1.0000    92.1755
 64      0.0000     0.0000E+00    0.0000E+00    6.250000E+09  0.05000  1.435E-05    0   0.5249   age166_m72            0.0000     2.0587E-05    25.2378  -1.0000    78.8341
 65      0.0000     0.0000E+00    0.0000E+00    1.300000E+10  0.05000  6.513E-06    0   0.5036   age193_m72            0.0000     2.6486E-05    28.3310  -1.0000    71.9409
 66      0.0000     0.0000E+00    0.0000E+00    1.800000E+10  0.05000  4.527E-06    0   0.4945   age213_m72            0.0000     3.0442E-05    29.8196  -1.0000    67.4887


## Synthesis Results - Average & Chains ##

# j      x_j: min, <> & last-chain-values for 1 ...  7 chains
  1      7.9386      0.2040      0.3729      0.6265      0.0000      1.4118      0.6534      0.1978      0.8512
  2      0.0000      0.2052      0.0000      0.1019      0.0184      0.5756      0.8691      0.3727      0.4473
  3      0.0000      0.2556      0.2021      0.0000      0.0000      0.3089      0.9251      0.0000      1.5060
  4      0.0000      0.2904      0.3833      0.3857      1.3763      0.4472      0.1280      0.8813      0.2016
  5      1.0335      0.2848      0.0681      0.2691      0.8694      0.0000      0.0000      0.2887      0.4527
  6      0.0000      0.2221      0.0964      0.8201      0.0000      0.4140      0.0000      0.0743      1.7958
  7      0.0000      0.2212      0.0000      0.4303      0.4764      0.2994      0.4186      0.0000      0.4899
  8      0.6688      0.2567      0.0000      0.7299      0.4169      0.0000      1.1593      0.5868      0.5092
  9      0.2857      0.2257      0.6020      0.2155      0.5012      0.5288      0.8681      0.0000      0.4244
 10      0.0000      0.1917      0.0000      0.5075      0.0000      0.0000      0.6290      0.2075      0.3349
 11      0.0000      0.2527      0.8545      0.0000      0.8893      1.4899      0.0000      0.0000      0.4140
 12      0.0000      0.2612      0.0740      0.2064      1.8025      0.0000      0.9234      0.0000      0.0000
 13      0.0035      0.2771      0.9325      0.6798      0.3314      0.0000      0.0118      2.3674      1.0458
 14      0.0000      0.2495      0.3108      0.0000      0.4561      0.3337      0.9735      0.0000      0.6266
 15      0.0000      0.2441      0.5912      0.1532      0.0000      0.0000      0.5768      0.1855      0.0794
 16      0.0000      0.2475      0.6779      0.9398      1.2469      0.0000      0.6601      1.3131      1.7735
 17      0.0000      0.2128      0.3770      0.3715      1.9862      0.2162      0.0000      0.6727      0.3460
 18      2.6133      0.2143      0.3673      1.0970      0.1137      0.2486      0.0000      2.2558      1.1267
 19      0.0000      0.1447      0.7336      1.0006      0.2544      0.6140      0.0000      0.4346      0.0000
 20      0.0000      0.2472      0.3830      0.3545      0.0246      0.1870      0.0000      0.0000      2.7941
 21      0.0000      0.2779      0.0000      0.4859      0.8837      0.3665      0.0000      0.5441      0.0422
 22      0.0000      0.3406      1.0279      1.4238      1.1539      0.7951      0.6593      0.0000      0.0000
 23      0.0000      0.2749      0.3212      0.0000      0.0000      0.0614      0.7497      1.1536      0.0000
 24      0.0000      0.2014      0.0112      0.4920      0.1481      0.0000      0.4414      1.3567      0.0000
 25      0.0000      0.2499      0.2424      0.5551      0.6456      0.5916      1.8376      0.3407      0.0000
 26      0.0000      0.2010      0.3906      0.3944      0.0000      0.1349      0.0000      0.0000      0.6190
 27      0.0000      0.2062      0.8988      0.3373      0.0000      0.5667      0.0000      0.0000      0.5970
 28      0.4117      0.1879      0.1123      0.0000      1.1485      0.3063      0.0000      0.3331      0.4536
 29      0.0000      0.2087      0.0000      0.4336      0.0000      1.0105      0.7994      0.3035      0.0000
 30      0.0000      0.1801      0.0000      0.2438      0.0000      0.0698      0.0000      0.3400      0.6467
 31      0.0000      0.2114      0.2245      0.0581      1.1297      0.6040      0.8829      0.0481      0.6944
 32      0.0000      0.3953      1.3951      0.0000      3.0817      0.3570      0.3884      0.6475      0.8788
 33      0.0000      0.5453      2.4834      0.8399      1.5449      1.2670      1.0900      0.0861      0.0000
 34      0.0000      0.5083      0.9723      0.1530      0.5525      1.2005      1.5729      0.0000      0.0000
 35     12.3383      0.2907      0.3213      0.3563      1.1366      0.0000      1.0442      0.9601      1.7490
 36      1.3769      0.2280      0.0000      0.3149      0.0000      0.6572      0.0842      0.0000      0.3682
 37      0.0000      0.2696      0.3268      1.2270      0.0000      0.4501      0.5991      0.9120      0.1787
 38      0.0000      0.2207      0.6792      0.0000      0.0000      1.4894      0.0000      0.2122      0.0000
 39      0.0000      0.2840      0.3956      1.8696      0.0000      0.4648      0.4794      0.0000      0.0933
 40      0.8501      0.2370      0.5573      0.0000      1.2209      2.0636      0.0000      0.4506      1.2353
 41      0.0000      0.2361      0.2897      0.7033      0.0000      0.2516      1.4849      0.6464      0.0000
 42      1.1777      0.2284      0.0000      0.1644      1.7933      1.3015      0.2763      0.0000      0.5347
 43      0.9937      0.2379      0.6559      0.0000      0.0766      0.2283      0.7960      0.0000      0.4533
 44      0.0000      0.2692      0.0000      2.1180      0.0000      0.0000      0.0000      0.4236      0.4695
 45      2.5173     23.1755     23.1690     23.3394     24.0991     22.9045     22.7024     23.1878     24.0742
 46      0.0000      0.2682      0.0000      0.0000      0.1416      0.3533      0.6048      0.0000      0.0000
