###################################################################
## OUTPUT of StarlightChains_v04.for    [Cid@UFSC - 01/Apr/2007] ##
###################################################################

## Some input info
KUG0210-078._28_28.txt                   [arq_obs]
Base.CB07.vall.4m                        [arq_base]
Masks.EmLines.NEW.gm                     [arq_masks]
StCv04.C11.config                        [arq_config]
   66                                    [N_base]
    0                                    [N_YAV_components = # of components with extra extinction!]
    0                                    [i_FitPowerLaw (1/0 = Yes/No)]
-9.99                                    [alpha_PowerLaw]
CCM                                      [red_law_option]
 1.458241                                [q_norm = A(l_norm)/A(V)]

## (Re)Sampling Parameters
 3741.00                                 [l_ini (A)]
 7218.00                                 [l_fin (A)]
    1.00                                 [dl    (A)]     (OBS: dl_cushion =    50.00 A)

## Normalization info
 4020.00                                 [l_norm (A) - for base]
 4010.00                                 [llow_norm (A) - window for f_obs]
 4060.00                                 [lupp_norm (A) - window for f_obs]
3.500793E-17                             [fobs_norm (in input units)]

## S/N
 3691.00                                 [llow_SN (A) - window for S/N]
 7268.00                                 [lupp_SN (A) - window for S/N]
   5.767                                 [S/N in S/N window]
   7.842                                 [S/N in norm. window]
   0.039                                 [S/N_err in S/N window]
   0.053                                 [S/N_err in norm. window]
  1.0000                                 [fscale_chi2]

## etc...
    -2007376                             [idum_orig]
  2432                                   [NOl_eff]
  2142                                   [Nl_eff]
   290    NSIGMA                         [Ntot_cliped & clip_method]
 11077920                                [Nglobal_steps]
   7                                     [N_chains]
  42                                     [NEX0s_base = N_base in EX0s-fits]
 0   0   1      290   2.0   2.645E+04    [Clip-Bug, RC-Crash & Burn-In warning-flags, n_censored_weights, wei_nsig_threshold & wei_limit]
    97     96.570     96.117      0.454  [idt_all, wdt_TotTime, wdt_UsrTime & wdt_SysTime (sec)]

## Synthesis Results - Best model ##

 6.21061E-05                             [chi2/Nl_eff]
     8.86855                             [adev (%)]

    88.79382                             [sum-of-x (%)]
 3.27656E-17                             [Flux_tot (units of input spectrum!)]
 1.73099E-12                             [Mini_tot (???)]
 8.59543E-13                             [Mcor_tot (???)]

 -33.76                                  [v0_min  (km/s)]
  48.41                                  [vd_min  (km/s)]
 0.0392                                  [AV_min  (mag)]
 0.0000                                  [YAV_min (mag)]

# j     x_j(%)      Mini_j(%)     Mcor_j(%)     age_j(yr)     Z_j      (L/M)_j    YAV?  Mstars   component_j        a/Fe...       SSP_chi2r SSP_adev(%)   SSP_AV   SSP_x(%)
  1     12.2491     2.3869E-02    4.8068E-02    1.000000E+06  0.00400  1.094E-02    0   1.0000   age020_m42            0.0000     9.6720E-05    13.9893   2.5529    80.6784
  2      6.4358     3.4239E-03    6.8946E-03    3.160000E+06  0.00400  4.007E-02    0   0.9999   age045_m42            0.0000     9.2347E-05    12.8472   1.9476    82.5340
  3      0.0000     0.0000E+00    0.0000E+00    5.010000E+06  0.00400  2.539E-02    0   0.9488   age055_m42            0.0000     9.2809E-05    13.2523   2.2144    82.0928
  4      0.0000     0.0000E+00    0.0000E+00    6.610000E+06  0.00400  2.620E-02    0   0.9220   age061_m42            0.0000     9.0328E-05    12.5887   1.8810    82.5648
  5      1.4859     2.3961E-03    4.2762E-03    1.000000E+07  0.00400  1.322E-02    0   0.8862   age070_m42            0.0000     8.1026E-05    10.9925   1.6385    83.9116
  6      0.0000     0.0000E+00    0.0000E+00    1.445000E+07  0.00400  7.883E-03    0   0.8571   age078_m42            0.0000     8.4563E-05    11.6080   1.9253    82.8548
  7      0.0000     0.0000E+00    0.0000E+00    2.512000E+07  0.00400  5.251E-03    0   0.8174   age090_m42            0.0000     7.9649E-05    10.6076   1.5261    83.9548
  8      0.0000     0.0000E+00    0.0000E+00    4.000000E+07  0.00400  3.649E-03    0   0.7851   age104_m42            0.0000     7.8749E-05    10.4807   1.3172    84.0596
  9      0.0000     0.0000E+00    0.0000E+00    5.500000E+07  0.00400  3.098E-03    0   0.7629   age110_m42            0.0000     8.2570E-05    11.0622   1.4694    83.6857
 10      0.0000     0.0000E+00    0.0000E+00    1.015200E+08  0.00400  2.228E-03    0   0.7207   age116_m42            0.0000     8.4793E-05    11.3990   1.4891    83.5892
 11      0.0052     1.0226E-04    1.3691E-04    2.861200E+08  0.00400  1.093E-03    0   0.6648   age125_m42            0.0000     7.9803E-05    10.4451   0.9756    84.9086
 12      0.0000     0.0000E+00    0.0000E+00    5.088000E+08  0.00400  6.597E-04    0   0.6365   age130_m42            0.0000     8.1259E-05    10.8205   0.9719    85.0413
 13      0.0000     0.0000E+00    0.0000E+00    1.434000E+09  0.00400  2.132E-04    0   0.5798   age139_m42            0.0000     7.4238E-05    10.2886   0.0305    85.5668
 14      0.0000     0.0000E+00    0.0000E+00    4.250000E+09  0.00400  5.895E-05    0   0.5377   age158_m42            0.0000     7.5609E-05    11.6374  -0.4751    83.8115
 15      0.0000     0.0000E+00    0.0000E+00    7.500000E+09  0.00400  3.510E-05    0   0.5212   age171_m42            0.0000     7.6084E-05    11.9666  -0.6649    83.2433
 16      0.0000     0.0000E+00    0.0000E+00    1.300000E+10  0.00400  2.005E-05    0   0.5034   age193_m42            0.0000     7.6031E-05    12.2965  -0.8297    82.7493
 17      0.0000     0.0000E+00    0.0000E+00    1.800000E+10  0.00400  1.525E-05    0   0.4967   age213_m42            0.0000     7.6619E-05    12.2835  -0.8606    82.6116
 18      0.0000     0.0000E+00    0.0000E+00    1.000000E+06  0.00800  1.238E-02    0   1.0000   age020_m52            0.0000     9.5270E-05    13.9136   2.5543    80.8484
 19      0.0000     0.0000E+00    0.0000E+00    3.160000E+06  0.00800  3.074E-02    0   0.9966   age045_m52            0.0000     9.4619E-05    13.8155   2.4862    81.3876
 20      0.0000     0.0000E+00    0.0000E+00    5.010000E+06  0.00800  2.668E-02    0   0.9443   age055_m52            0.0000     9.2449E-05    13.2666   2.2838    81.8914
 21      0.0000     0.0000E+00    0.0000E+00    6.610000E+06  0.00800  2.136E-02    0   0.9177   age061_m52            0.0000     7.5515E-05    10.8155   1.1396    85.0136
 22      7.0416     1.2355E-02    2.1962E-02    1.000000E+07  0.00800  1.215E-02    0   0.8827   age070_m52            0.0000     8.0646E-05    10.7424   1.8115    84.2358
 23      0.0000     0.0000E+00    0.0000E+00    1.445000E+07  0.00800  8.717E-03    0   0.8552   age078_m52            0.0000     8.3464E-05    11.3521   1.9047    83.6687
 24      0.6368     2.4274E-03    3.9899E-03    2.512000E+07  0.00800  5.592E-03    0   0.8162   age090_m52            0.0000     7.9258E-05    10.3952   1.5987    84.7387
 25      0.0000     0.0000E+00    0.0000E+00    4.000000E+07  0.00800  3.896E-03    0   0.7841   age104_m52            0.0000     7.9460E-05    10.4638   1.5278    84.7089
 26      0.0000     0.0000E+00    0.0000E+00    1.015200E+08  0.00800  2.148E-03    0   0.7226   age116_m52            0.0000     8.1293E-05    10.9643   1.4657    84.2189
 27      0.0000     0.0000E+00    0.0000E+00    2.861200E+08  0.00800  9.925E-04    0   0.6683   age125_m52            0.0000     7.9073E-05    10.6564   1.0349    85.7962
 28      0.0000     0.0000E+00    0.0000E+00    9.047900E+08  0.00800  3.141E-04    0   0.6138   age135_m52            0.0000     7.5609E-05    10.6632   0.2810    87.4260
 29      0.0000     0.0000E+00    0.0000E+00    1.434000E+09  0.00800  1.719E-04    0   0.5853   age139_m52            0.0000     7.0553E-05    10.8704  -0.3267    86.6195
 30      0.0000     0.0000E+00    0.0000E+00    2.500000E+09  0.00800  7.872E-05    0   0.5600   age150_m52            0.0000     7.4559E-05    11.9485  -0.6307    85.2258
 31      0.0000     0.0000E+00    0.0000E+00    4.250000E+09  0.00800  4.336E-05    0   0.5426   age158_m52            0.0000     7.5447E-05    12.1236  -0.6551    84.6354
 32      0.0000     0.0000E+00    0.0000E+00    6.250000E+09  0.00800  3.159E-05    0   0.5319   age166_m52            0.0000     7.6670E-05    12.5930  -0.8591    84.4941
 33      0.0000     0.0000E+00    0.0000E+00    1.300000E+10  0.00800  1.361E-05    0   0.5073   age193_m52            0.0000     9.1945E-05    10.2824  -1.0000    75.5734
 34      4.9467     1.0667E+01    1.0719E+01    1.800000E+10  0.00800  9.886E-06    0   0.4990   age213_m52            0.0000     1.0504E-04    10.1827  -1.0000    72.4656
 35      0.0000     0.0000E+00    0.0000E+00    1.000000E+06  0.02000  1.544E-02    0   1.0000   age020_m62            0.0000     9.4362E-05    13.8808   2.5520    81.1297
 36      6.7502     3.8251E-03    7.5938E-03    3.160000E+06  0.02000  3.762E-02    0   0.9858   age045_m62            0.0000     9.5277E-05    13.9872   2.4848    81.8858
 37      0.0000     0.0000E+00    0.0000E+00    5.010000E+06  0.02000  3.296E-02    0   0.9342   age055_m62            0.0000     9.2217E-05    13.2162   2.1870    82.6431
 38      6.6277     1.2243E-02    2.1848E-02    8.710000E+06  0.02000  1.154E-02    0   0.8861   age067_m62            0.0000     6.9515E-05     8.1380   1.3082    87.1797
 39      0.0000     0.0000E+00    0.0000E+00    1.445000E+07  0.02000  7.663E-03    0   0.8472   age078_m62            0.0000     7.4915E-05     9.7714   1.4894    85.7029
 40      0.0000     0.0000E+00    0.0000E+00    2.512000E+07  0.02000  4.532E-03    0   0.8099   age090_m62            0.0000     7.4524E-05     9.5322   1.4945    85.2367
 41      0.0000     0.0000E+00    0.0000E+00    5.500000E+07  0.02000  2.733E-03    0   0.7595   age110_m62            0.0000     7.8024E-05    10.4296   1.5018    84.5765
 42      0.0000     0.0000E+00    0.0000E+00    1.609000E+08  0.02000  1.369E-03    0   0.6985   age120_m62            0.0000     7.9753E-05    10.6772   1.3725    85.4654
 43      0.0000     0.0000E+00    0.0000E+00    2.861200E+08  0.02000  9.013E-04    0   0.6714   age125_m62            0.0000     7.9278E-05    10.5568   1.1551    86.6243
 44      0.1537     6.5178E-03    8.4648E-03    5.088000E+08  0.02000  5.028E-04    0   0.6449   age130_m62            0.0000     7.9957E-05    11.0236   0.8025    87.4841
 45      0.0000     0.0000E+00    0.0000E+00    9.047900E+08  0.02000  2.428E-04    0   0.6179   age135_m62            0.0000     7.5719E-05    11.2692   0.2025    87.3888
 46      0.0000     0.0000E+00    0.0000E+00    1.434000E+09  0.02000  1.263E-04    0   0.5908   age139_m62            0.0000     7.3923E-05    11.6234  -0.2674    86.9391
 47      0.0000     0.0000E+00    0.0000E+00    2.500000E+09  0.02000  5.985E-05    0   0.5673   age150_m62            0.0000     7.6094E-05    12.4795  -0.6544    86.3290
 48      0.0000     0.0000E+00    0.0000E+00    4.250000E+09  0.02000  3.271E-05    0   0.5468   age158_m62            0.0000     8.0580E-05    13.2902  -0.9725    85.8153
 49      0.0000     0.0000E+00    0.0000E+00    1.000000E+10  0.02000  1.360E-05    0   0.5167   age181_m62            0.0000     9.8240E-05    11.3338  -1.0000    77.2937
 50      1.3011     3.8934E+00    3.9306E+00    1.800000E+10  0.02000  7.124E-06    0   0.5013   age213_m62            0.0000     1.2575E-04    10.9245  -1.0000    71.3393
 51      8.5865     7.0619E-03    1.4219E-02    1.000000E+06  0.05000  2.592E-02    0   0.9998   age020_m72            0.0000     9.2556E-05    13.7131   2.5506    81.4330
 52      0.0000     0.0000E+00    0.0000E+00    3.160000E+06  0.05000  4.845E-02    0   0.9577   age045_m72            0.0000     9.4723E-05    13.8447   2.3925    82.0327
 53      0.0000     0.0000E+00    0.0000E+00    5.010000E+06  0.05000  3.072E-02    0   0.9147   age055_m72            0.0000     8.2780E-05    11.5691   2.0029    84.0484
 54      6.8335     1.0012E-02    1.7898E-02    6.610000E+06  0.05000  1.455E-02    0   0.8877   age061_m72            0.0000     7.3735E-05     9.3566   1.3748    88.0598
 55      0.0000     0.0000E+00    0.0000E+00    1.000000E+07  0.05000  9.074E-03    0   0.8524   age070_m72            0.0000     8.6111E-05    12.1713   2.1870    83.7771
 56      0.0000     0.0000E+00    0.0000E+00    2.512000E+07  0.05000  4.250E-03    0   0.7902   age090_m72            0.0000     8.2267E-05    11.2010   1.9358    83.8226
 57      0.0000     0.0000E+00    0.0000E+00    4.000000E+07  0.05000  3.087E-03    0   0.7618   age104_m72            0.0000     8.0149E-05    10.6968   1.7362    84.4519
 58      0.0000     0.0000E+00    0.0000E+00    1.015200E+08  0.05000  1.700E-03    0   0.7096   age116_m72            0.0000     7.9907E-05    10.5101   1.5106    85.3608
 59      0.0000     0.0000E+00    0.0000E+00    2.861200E+08  0.05000  7.384E-04    0   0.6633   age125_m72            0.0000     8.0144E-05    10.7516   1.0309    87.3489
 60      7.0972     3.9616E-01    5.0837E-01    5.088000E+08  0.05000  3.819E-04    0   0.6372   age130_m72            0.0000     7.8253E-05    11.2028   0.5412    88.3759
 61      0.0000     0.0000E+00    0.0000E+00    9.047900E+08  0.05000  1.676E-04    0   0.6110   age135_m72            0.0000     7.8355E-05    12.4268  -0.1972    87.8634
 62      0.0000     0.0000E+00    0.0000E+00    1.434000E+09  0.05000  8.837E-05    0   0.5874   age139_m72            0.0000     7.7048E-05    12.4929  -0.6491    87.3737
 63      0.0000     0.0000E+00    0.0000E+00    2.500000E+09  0.05000  4.233E-05    0   0.5598   age150_m72            0.0000     8.2727E-05    13.5754  -0.9799    86.8100
 64      0.8777     1.3038E+00    1.3782E+00    6.250000E+09  0.05000  1.435E-05    0   0.5249   age166_m72            0.0000     1.1057E-04    11.0656  -1.0000    74.5356
 65      0.0000     0.0000E+00    0.0000E+00    1.300000E+10  0.05000  6.513E-06    0   0.5036   age193_m72            0.0000     1.5453E-04    11.0550  -1.0000    68.1517
 66     17.7650     8.3656E+01    8.3308E+01    1.800000E+10  0.05000  4.527E-06    0   0.4945   age213_m72            0.0000     1.8769E-04    11.5228  -1.0000    63.9787


## Synthesis Results - Average & Chains ##

# j      x_j: min, <> & last-chain-values for 1 ...  7 chains
  1     12.2491      0.2027      1.3573      0.6583      0.7285      0.0933      3.6867      0.0609      2.9217
  2      6.4358      0.2543      0.0000      0.0000      2.3024      0.0000      0.0000      0.0000      2.3248
  3      0.0000      0.2034      0.0000      0.0000      1.5725      0.6983      0.1373      0.5962      0.5098
  4      0.0000      0.2390      0.3525      0.1104      0.1252      0.3169      0.0000      0.8750      1.5963
  5      1.4859      0.3051      0.2148      0.0000      1.8554      1.7282      1.1776      1.8968      0.9139
  6      0.0000      0.3341      7.0080      0.6009      0.4707      0.0000      0.9676      0.0000      1.1018
  7      0.0000      0.2555      1.7198      0.0898      0.0000      2.9464      0.3228      0.0000      1.7276
  8      0.0000      0.2605      0.0000      0.0000      0.4320      0.0000      0.1407      0.5916      1.7161
  9      0.0000      0.2764      0.9122      3.3588      0.0000      0.0000      1.1848      0.0000      0.0000
 10      0.0000      0.2333      0.6394      0.8163      0.8193      0.0000      0.7596      0.7478      0.1251
 11      0.0052      0.2853      1.1572      0.0644      0.8895      0.0000      4.1013      1.5661      0.6971
 12      0.0000      0.2274      1.0562      0.1748      0.0000      0.0052      1.0579      0.0000      0.9280
 13      0.0000      0.3398      1.0084      0.9157      0.0183      0.7768      0.0000      1.6005      0.0615
 14      0.0000      0.3044      1.4664      0.1039      0.0000      0.3894      1.2397      0.8587      0.2624
 15      0.0000      0.2402      2.2691      1.1200      0.0380      0.0000      3.2391      0.7958      0.0000
 16      0.0000      0.2529      1.0774      1.8156      0.0557      0.8787      1.7118      0.4576      0.0000
 17      0.0000      0.2715      2.9001      1.1373      0.5497      0.0000      1.1599      0.8059      0.1235
 18      0.0000      0.2940      0.0000      0.0000      2.6525      0.1469      0.2084      1.3483      0.4951
 19      0.0000      0.3147      0.0000      1.6722      0.4954      1.8182      0.8903      0.8454      0.5849
 20      0.0000      0.2777      0.1766      3.0950      0.0000      0.0000      0.4805      0.8143      0.2504
 21      0.0000      0.2736      0.0997      0.4189      2.4683      0.8247      0.0000      3.5548      0.0000
 22      7.0416      0.2613      1.4156      0.0000      3.3734      0.0000      0.0000      1.6020      0.2071
 23      0.0000      0.2665      0.0000      0.7107      1.2563      0.3383      2.0877      0.9670      0.0000
 24      0.6368      0.2648      0.5181      0.0000      2.0245      0.1381      1.7966      0.8133      2.1441
 25      0.0000      0.2859      0.0000      2.1232      0.0000      0.0000      0.0000      1.3045      1.1467
 26      0.0000      0.3430      0.0000      0.6002      0.8367      0.0000      0.0000      0.5447      1.7578
 27      0.0000      0.2618      0.6435      1.0336      0.0775      0.3655      0.2735      0.3711      1.2478
 28      0.0000     12.0584      3.2819      0.0000      5.0386     10.4063      5.1958      6.5854      4.4728
 29      0.0000      0.2651      0.3655      2.1306      0.0000      0.1467      0.6176      1.2091      3.0565
 30      0.0000      0.2988      0.0778      1.5965      0.4930      0.7950      0.5672      2.7259      1.3507
 31      0.0000      0.3424      0.0000      4.8120      0.0000      3.9891      0.6883      0.0000      0.5453
 32      0.0000      0.2475      1.8229      1.3280      0.0000      1.5918      0.0000      0.9033      0.0000
 33      0.0000      0.3527      3.3621      4.7830      2.1599      0.0000      0.5051      0.0000      2.0711
 34      4.9467      0.2360      1.5162      1.2388      0.6591      0.0000      1.8657      0.0000      0.0000
 35      0.0000      0.2082      0.5633      0.5125      0.0000      0.0000      0.0000      0.1888      0.2473
 36      6.7502      0.2568      2.1027      0.5190      0.4786      0.6424      0.0000      1.4210      1.2287
 37      0.0000      0.3012      0.0000      0.0000      0.4615      0.9819      0.4298      0.4172      1.1909
 38      6.6277      0.3945      0.2377      0.9262      2.4690      0.2647      1.7822      3.3752      5.5190
 39      0.0000      0.2613      1.8114      0.0000      0.0000      0.3156      0.5081      1.0987      0.0000
 40      0.0000      0.2787      3.4891      0.8271      0.0000      0.8083      0.9094      0.4614      1.9725
 41      0.0000      0.3020      0.3851      0.0000      1.8016      0.0000      0.8007      0.0000      2.8017
 42      0.0000      0.3102      0.4612      1.2323      1.6387      0.4723      0.0000      0.0000      1.7752
 43      0.0000      0.2450      0.0000      1.0934      0.0000      0.0000      0.7670      0.1127      0.8188
 44      0.1537     17.3808      1.4308      8.0157      8.1033     11.0478      9.4859      7.9152      5.6592
 45      0.0000      1.0080      0.6411      0.0396      1.5406      3.7886      2.9649      0.3351      1.8660
 46      0.0000      0.2580      0.1195      0.7640      1.6478      1.7000      0.3971      0.0000      2.2225
