###################################################################
## OUTPUT of StarlightChains_v04.for    [Cid@UFSC - 01/Apr/2007] ##
###################################################################

## Some input info
KUG0210-078._30_33.txt                   [arq_obs]
Base.CB07.vall.4m                        [arq_base]
Masks.EmLines.NEW.gm                     [arq_masks]
StCv04.C11.config                        [arq_config]
   66                                    [N_base]
    0                                    [N_YAV_components = # of components with extra extinction!]
    0                                    [i_FitPowerLaw (1/0 = Yes/No)]
-9.99                                    [alpha_PowerLaw]
CCM                                      [red_law_option]
 1.458241                                [q_norm = A(l_norm)/A(V)]

## (Re)Sampling Parameters
 3741.00                                 [l_ini (A)]
 7218.00                                 [l_fin (A)]
    1.00                                 [dl    (A)]     (OBS: dl_cushion =    50.00 A)

## Normalization info
 4020.00                                 [l_norm (A) - for base]
 4010.00                                 [llow_norm (A) - window for f_obs]
 4060.00                                 [lupp_norm (A) - window for f_obs]
1.257321E-16                             [fobs_norm (in input units)]

## S/N
 3691.00                                 [llow_SN (A) - window for S/N]
 7268.00                                 [lupp_SN (A) - window for S/N]
   9.063                                 [S/N in S/N window]
   8.611                                 [S/N in norm. window]
   0.270                                 [S/N_err in S/N window]
   0.257                                 [S/N_err in norm. window]
  1.0000                                 [fscale_chi2]

## etc...
    -2007434                             [idum_orig]
  2432                                   [NOl_eff]
  2062                                   [Nl_eff]
   370    NSIGMA                         [Ntot_cliped & clip_method]
 15066240                                [Nglobal_steps]
   7                                     [N_chains]
   9                                     [NEX0s_base = N_base in EX0s-fits]
 0   0   1      370   2.0   1.077E+05    [Clip-Bug, RC-Crash & Burn-In warning-flags, n_censored_weights, wei_nsig_threshold & wei_limit]
    64     63.096     62.352      0.743  [idt_all, wdt_TotTime, wdt_UsrTime & wdt_SysTime (sec)]

## Synthesis Results - Best model ##

 1.42306E-04                             [chi2/Nl_eff]
     3.75634                             [adev (%)]

    94.52894                             [sum-of-x (%)]
 8.16692E-16                             [Flux_tot (units of input spectrum!)]
 3.21795E-11                             [Mini_tot (???)]
 1.59468E-11                             [Mcor_tot (???)]

  29.65                                  [v0_min  (km/s)]
 196.37                                  [vd_min  (km/s)]
 1.4350                                  [AV_min  (mag)]
 0.0000                                  [YAV_min (mag)]

# j     x_j(%)      Mini_j(%)     Mcor_j(%)     age_j(yr)     Z_j      (L/M)_j    YAV?  Mstars   component_j        a/Fe...       SSP_chi2r SSP_adev(%)   SSP_AV   SSP_x(%)
  1     16.3150     4.0039E-02    8.0796E-02    1.000000E+06  0.00400  1.094E-02    0   1.0000   age020_m42            0.0000     6.5946E-04     8.5893   3.6245    76.5791
  2      0.0000     0.0000E+00    0.0000E+00    3.160000E+06  0.00400  4.007E-02    0   0.9999   age045_m42            0.0000     5.2652E-04     7.6029   2.9380    80.4165
  3      0.0000     0.0000E+00    0.0000E+00    5.010000E+06  0.00400  2.539E-02    0   0.9488   age055_m42            0.0000     5.6686E-04     7.9571   3.2372    79.1935
  4      0.0000     0.0000E+00    0.0000E+00    6.610000E+06  0.00400  2.620E-02    0   0.9220   age061_m42            0.0000     4.8831E-04     7.3386   2.8558    80.9211
  5      0.0000     0.0000E+00    0.0000E+00    1.000000E+07  0.00400  1.322E-02    0   0.8862   age070_m42            0.0000     3.2543E-04     5.9336   2.5063    85.3570
  6      0.0000     0.0000E+00    0.0000E+00    1.445000E+07  0.00400  7.883E-03    0   0.8571   age078_m42            0.0000     3.7417E-04     6.3685   2.8329    83.1661
  7      0.0000     0.0000E+00    0.0000E+00    2.512000E+07  0.00400  5.251E-03    0   0.8174   age090_m42            0.0000     2.9065E-04     5.5819   2.3688    86.1776
  8      0.0000     0.0000E+00    0.0000E+00    4.000000E+07  0.00400  3.649E-03    0   0.7851   age104_m42            0.0000     2.8556E-04     5.5384   2.1559    86.3269
  9      0.0000     0.0000E+00    0.0000E+00    5.500000E+07  0.00400  3.098E-03    0   0.7629   age110_m42            0.0000     3.3491E-04     6.0115   2.3451    84.8574
 10      0.0000     0.0000E+00    0.0000E+00    1.015200E+08  0.00400  2.228E-03    0   0.7207   age116_m42            0.0000     3.6242E-04     6.2672   2.3857    84.1908
 11      0.0000     0.0000E+00    0.0000E+00    2.861200E+08  0.00400  1.093E-03    0   0.6648   age125_m42            0.0000     2.7748E-04     5.3237   1.7887    87.7081
 12      0.0000     0.0000E+00    0.0000E+00    5.088000E+08  0.00400  6.597E-04    0   0.6365   age130_m42            0.0000     3.1563E-04     5.6915   1.8180    86.8576
 13      0.0000     0.0000E+00    0.0000E+00    1.434000E+09  0.00400  2.132E-04    0   0.5798   age139_m42            0.0000     2.8540E-04     5.4841   0.8838    87.2511
 14      0.0000     0.0000E+00    0.0000E+00    4.250000E+09  0.00400  5.895E-05    0   0.5377   age158_m42            0.0000     4.2156E-04     6.7658   0.4839    82.3479
 15      0.0000     0.0000E+00    0.0000E+00    7.500000E+09  0.00400  3.510E-05    0   0.5212   age171_m42            0.0000     4.6426E-04     7.0740   0.3150    81.0611
 16      0.0000     0.0000E+00    0.0000E+00    1.300000E+10  0.00400  2.005E-05    0   0.5034   age193_m42            0.0000     5.0970E-04     7.3791   0.1634    80.0888
 17      0.0000     0.0000E+00    0.0000E+00    1.800000E+10  0.00400  1.525E-05    0   0.4967   age213_m42            0.0000     5.0418E-04     7.3051   0.1350    79.9368
 18     26.6731     5.7845E-02    1.1673E-01    1.000000E+06  0.00800  1.238E-02    0   1.0000   age020_m52            0.0000     6.6021E-04     8.5983   3.6209    76.7264
 19      0.0000     0.0000E+00    0.0000E+00    3.160000E+06  0.00800  3.074E-02    0   0.9966   age045_m52            0.0000     6.5437E-04     8.5682   3.5528    77.1336
 20      0.0000     0.0000E+00    0.0000E+00    5.010000E+06  0.00800  2.668E-02    0   0.9443   age055_m52            0.0000     5.7131E-04     8.0032   3.3126    78.7442
 21      0.0000     0.0000E+00    0.0000E+00    6.610000E+06  0.00800  2.136E-02    0   0.9177   age061_m52            0.0000     3.3771E-04     6.1965   2.0148    86.0745
 22      0.0000     0.0000E+00    0.0000E+00    1.000000E+07  0.00800  1.215E-02    0   0.8827   age070_m52            0.0000     2.9591E-04     5.5522   2.6607    86.1076
 23      0.0000     0.0000E+00    0.0000E+00    1.445000E+07  0.00800  8.717E-03    0   0.8552   age078_m52            0.0000     3.5099E-04     6.1388   2.8005    84.2572
 24      0.0000     0.0000E+00    0.0000E+00    2.512000E+07  0.00800  5.592E-03    0   0.8162   age090_m52            0.0000     2.6453E-04     5.2293   2.4309    87.2263
 25      0.0000     0.0000E+00    0.0000E+00    4.000000E+07  0.00800  3.896E-03    0   0.7841   age104_m52            0.0000     2.7010E-04     5.2731   2.3643    87.0064
 26      0.0000     0.0000E+00    0.0000E+00    1.015200E+08  0.00800  2.148E-03    0   0.7226   age116_m52            0.0000     3.1804E-04     5.8037   2.3378    85.4573
 27      0.0000     0.0000E+00    0.0000E+00    2.861200E+08  0.00800  9.925E-04    0   0.6683   age125_m52            0.0000     2.9889E-04     5.5702   1.8824    87.6824
 28      0.0000     0.0000E+00    0.0000E+00    9.047900E+08  0.00800  3.141E-04    0   0.6138   age135_m52            0.0000     3.0554E-04     5.5119   1.1543    88.4003
 29      0.0000     0.0000E+00    0.0000E+00    1.434000E+09  0.00800  1.719E-04    0   0.5853   age139_m52            0.0000     3.2878E-04     5.8220   0.5671    86.8650
 30      0.0000     0.0000E+00    0.0000E+00    2.500000E+09  0.00800  7.872E-05    0   0.5600   age150_m52            0.0000     4.4967E-04     6.9015   0.3550    82.5129
 31      0.0000     0.0000E+00    0.0000E+00    4.250000E+09  0.00800  4.336E-05    0   0.5426   age158_m52            0.0000     4.6463E-04     7.0098   0.3432    81.6274
 32      0.0000     0.0000E+00    0.0000E+00    6.250000E+09  0.00800  3.159E-05    0   0.5319   age166_m52            0.0000     5.2797E-04     7.4236   0.1695    80.5716
 33      0.0000     0.0000E+00    0.0000E+00    1.300000E+10  0.00800  1.361E-05    0   0.5073   age193_m52            0.0000     6.2207E-04     7.9768  -0.2597    78.6733
 34      0.0000     0.0000E+00    0.0000E+00    1.800000E+10  0.00800  9.886E-06    0   0.4990   age213_m52            0.0000     6.9880E-04     8.3852  -0.3363    77.1752
 35     23.1337     4.0227E-02    8.1174E-02    1.000000E+06  0.02000  1.544E-02    0   1.0000   age020_m62            0.0000     6.6507E-04     8.6231   3.6172    76.9004
 36      0.0000     0.0000E+00    0.0000E+00    3.160000E+06  0.02000  3.762E-02    0   0.9858   age045_m62            0.0000     6.6464E-04     8.6430   3.5587    77.4799
 37      0.0000     0.0000E+00    0.0000E+00    5.010000E+06  0.02000  3.296E-02    0   0.9342   age055_m62            0.0000     5.6214E-04     7.9250   3.2107    79.6756
 38      0.0000     0.0000E+00    0.0000E+00    8.710000E+06  0.02000  1.154E-02    0   0.8861   age067_m62            0.0000     1.1213E-04     3.2940   1.9668    94.9208
 39      0.0000     0.0000E+00    0.0000E+00    1.445000E+07  0.02000  7.663E-03    0   0.8472   age078_m62            0.0000     2.1389E-04     4.6401   2.2638    89.8286
 40      0.0000     0.0000E+00    0.0000E+00    2.512000E+07  0.02000  4.532E-03    0   0.8099   age090_m62            0.0000     1.9671E-04     4.4691   2.2483    89.8839
 41      0.0000     0.0000E+00    0.0000E+00    5.500000E+07  0.02000  2.733E-03    0   0.7595   age110_m62            0.0000     2.7305E-04     5.3399   2.3414    86.6204
 42      0.0000     0.0000E+00    0.0000E+00    1.609000E+08  0.02000  1.369E-03    0   0.6985   age120_m62            0.0000     3.0201E-04     5.6715   2.2291    86.9711
 43      0.0000     0.0000E+00    0.0000E+00    2.861200E+08  0.02000  9.013E-04    0   0.6714   age125_m62            0.0000     3.0161E-04     5.6746   2.0089    88.2488
 44      0.0000     0.0000E+00    0.0000E+00    5.088000E+08  0.02000  5.028E-04    0   0.6449   age130_m62            0.0000     3.4861E-04     6.0815   1.6969    87.8660
 45      0.0000     0.0000E+00    0.0000E+00    9.047900E+08  0.02000  2.428E-04    0   0.6179   age135_m62            0.0000     3.6152E-04     6.2463   1.1391    86.2131
 46      0.0000     0.0000E+00    0.0000E+00    1.434000E+09  0.02000  1.263E-04    0   0.5908   age139_m62            0.0000     4.0036E-04     6.6136   0.7083    84.4622
 47      0.0000     0.0000E+00    0.0000E+00    2.500000E+09  0.02000  5.985E-05    0   0.5673   age150_m62            0.0000     5.1345E-04     7.4143   0.3807    81.8935
 48      0.0000     0.0000E+00    0.0000E+00    4.250000E+09  0.02000  3.271E-05    0   0.5468   age158_m62            0.0000     6.3397E-04     8.1033   0.1196    79.6195
 49      0.0000     0.0000E+00    0.0000E+00    1.000000E+10  0.02000  1.360E-05    0   0.5167   age181_m62            0.0000     7.5041E-04     8.5741  -0.1744    77.3726
 50      0.0000     0.0000E+00    0.0000E+00    1.800000E+10  0.02000  7.124E-06    0   0.5013   age213_m62            0.0000     8.5431E-04     8.9913  -0.3432    75.3292
 51     11.3260     1.1732E-02    2.3669E-02    1.000000E+06  0.05000  2.592E-02    0   0.9998   age020_m72            0.0000     6.7102E-04     8.6562   3.6031    77.1275
 52      0.0000     0.0000E+00    0.0000E+00    3.160000E+06  0.05000  4.845E-02    0   0.9577   age045_m72            0.0000     6.4020E-04     8.4832   3.4596    77.8788
 53      0.0000     0.0000E+00    0.0000E+00    5.010000E+06  0.05000  3.072E-02    0   0.9147   age055_m72            0.0000     3.5899E-04     6.1933   2.8772    85.0429
 54      0.0000     0.0000E+00    0.0000E+00    6.610000E+06  0.05000  1.455E-02    0   0.8877   age061_m72            0.0000     2.9843E-04     5.3942   1.9143    99.4739
 55      0.0000     0.0000E+00    0.0000E+00    1.000000E+07  0.05000  9.074E-03    0   0.8524   age070_m72            0.0000     4.5846E-04     7.3137   3.0261    85.5840
 56      0.0000     0.0000E+00    0.0000E+00    2.512000E+07  0.05000  4.250E-03    0   0.7902   age090_m72            0.0000     3.3184E-04     6.0431   2.7598    86.2522
 57      0.0000     0.0000E+00    0.0000E+00    4.000000E+07  0.05000  3.087E-03    0   0.7618   age104_m72            0.0000     2.9178E-04     5.6531   2.5278    87.9138
 58      0.0000     0.0000E+00    0.0000E+00    1.015200E+08  0.05000  1.700E-03    0   0.7096   age116_m72            0.0000     2.7683E-04     5.3078   2.3437    87.6582
 59      0.0000     0.0000E+00    0.0000E+00    2.861200E+08  0.05000  7.384E-04    0   0.6633   age125_m72            0.0000     3.1304E-04     5.7375   1.9143    87.9188
 60      0.0000     0.0000E+00    0.0000E+00    5.088000E+08  0.05000  3.819E-04    0   0.6372   age130_m72            0.0000     3.5852E-04     6.3135   1.4818    86.9814
 61      0.0000     0.0000E+00    0.0000E+00    9.047900E+08  0.05000  1.676E-04    0   0.6110   age135_m72            0.0000     4.9444E-04     7.4770   0.8491    83.0946
 62      0.0000     0.0000E+00    0.0000E+00    1.434000E+09  0.05000  8.837E-05    0   0.5874   age139_m72            0.0000     5.0570E-04     7.3481   0.3909    82.6540
 63      0.0000     0.0000E+00    0.0000E+00    2.500000E+09  0.05000  4.233E-05    0   0.5598   age150_m72            0.0000     6.6018E-04     8.2453   0.1367    79.6499
 64      0.0000     0.0000E+00    0.0000E+00    6.250000E+09  0.05000  1.435E-05    0   0.5249   age166_m72            0.0000     7.9261E-04     8.7730  -0.2559    76.5070
 65      0.8032     3.3109E+00    3.3646E+00    1.300000E+10  0.05000  6.513E-06    0   0.5036   age193_m72            0.0000     9.3786E-04     9.2944  -0.4863    75.4898
 66     16.2780     9.6539E+01    9.6333E+01    1.800000E+10  0.05000  4.527E-06    0   0.4945   age213_m72            0.0000     1.0278E-03     9.5906  -0.6142    74.1905


## Synthesis Results - Average & Chains ##

# j      x_j: min, <> & last-chain-values for 1 ...  7 chains
  1     16.3150     21.3484     19.0516      9.5693     22.6276     21.7816     44.1383     22.4159     21.8406
  2      0.0000      0.3850      0.0581      0.0141      0.0760      0.0307      0.0314      0.1141      0.0248
  3      0.0000      0.3803      0.0860      0.0667      0.0761      0.0459      0.0542      0.0679      0.2191
  4      0.0000      0.3338      0.1722      0.0181      0.0000      0.0000      0.0621      0.0000      0.0083
  5      0.0000      0.3975      0.0117      0.0000      0.0007      0.0000      0.0000      0.0104      0.0526
  6      0.0000      0.3446      0.1564      0.0000      0.0000      0.0000      0.0073      0.0067      0.2458
  7      0.0000      0.4526      0.0824      0.0159      0.0189      0.0867      0.0869      0.2629      0.3579
  8      0.0000      0.3093      0.0037      0.0020      0.0713      0.0000      0.0000      0.0296      0.0316
  9      0.0000      0.3209      0.0162      0.0000      0.0547      0.0287      0.0295      0.0929      0.1307
 10      0.0000      0.2827      0.1009      0.1301      0.0429      0.0546      0.0369      0.0574      0.0844
 11      0.0000      0.2957      0.0619      0.0664      0.0225      0.0039      0.0270      0.0356      0.0000
 12      0.0000      0.3567      0.0947      0.0000      0.0000      0.0092      0.0695      0.0612      0.1251
 13      0.0000      0.3870      0.0346      0.0164      0.0590      0.1499      0.0220      0.0589      0.1946
 14      0.0000      0.4403      0.0586      0.0000      0.0286      0.1302      0.0000      0.1322      0.2040
 15      0.0000      0.2677      0.0204      0.0229      0.0000      0.1430      0.0000      0.0318      0.0000
 16      0.0000      0.3599      0.3215      0.0777      0.0117      0.2138      0.0081      0.0143      0.0000
 17      0.0000      0.4078      0.0650      0.0000      0.0196      0.1010      0.0242      0.0892      0.0000
 18     26.6731     10.0396     12.5241     22.0887     13.0602     13.1317      0.6315     13.0746     12.4342
 19      0.0000      0.6812      0.3855      0.3547      0.5015      1.3004      0.1769      0.2698      0.4418
 20      0.0000      0.3355      0.0647      0.0409      0.0218      0.2490      0.0210      0.0000      0.0358
 21      0.0000      0.4144      0.0422      0.0000      0.0630      0.0000      0.0081      0.1480      0.0984
 22      0.0000      0.3767      0.0544      0.1816      0.0526      0.1097      0.0716      0.1220      0.0000
 23      0.0000      0.3713      0.0418      0.0528      0.0758      0.0186      0.0110      0.0754      0.0000
 24      0.0000      0.2716      0.0006      0.0422      0.0000      0.0562      0.0779      0.1318      0.0420
 25      0.0000      0.3479      0.0899      0.0814      0.0499      0.0000      0.0461      0.0242      0.0000
 26      0.0000      0.4069      0.0265      0.0000      0.0145      0.0000      0.0000      0.0166      0.1191
 27      0.0000      0.3597      0.2077      0.0808      0.0192      0.0111      0.0674      0.0646      0.0000
 28      0.0000      0.3446      0.0000      0.0000      0.1787      0.0193      0.0183      0.0536      0.0039
 29      0.0000      0.4027      0.0433      0.2135      0.0217      0.1129      0.0247      0.0351      0.0639
 30      0.0000      0.2983      0.1245      0.0381      0.0299      0.0773      0.0000      0.0504      0.0000
 31      0.0000      0.2798      0.0000      0.0064      0.0582      0.1588      0.0081      0.0000      0.0000
 32      0.0000      0.2857      0.0045      0.0223      0.0342      0.0227      0.0030      0.0044      0.0058
 33      0.0000      0.3297      0.0638      0.0200      0.0383      0.0029      0.0559      0.0059      0.0427
 34      0.0000      1.3474      1.8665      1.6366      1.7094      2.5322      0.1223      1.8097      1.6292
 35     23.1337     12.9457     22.2872     15.9138     16.1886     17.1016     12.5680     16.8177     14.3809
 36      0.0000      1.6821      1.2825      3.8880      1.2621      1.1957      0.0058      1.3676      2.3472
 37      0.0000      0.3125      0.0696      0.1152      0.0579      0.0536      0.0200      0.0000      0.1537
 38      0.0000      0.3031      0.0005      0.0427      0.0774      0.0952      0.0671      0.0497      0.0218
 39      0.0000      0.4010      0.0294      0.0228      0.0640      0.0597      0.0000      0.0774      0.0468
 40      0.0000      0.4248      0.0236      0.1130      0.1601      0.0000      0.0154      0.0597      0.0278
 41      0.0000      0.3096      0.0085      0.0000      0.0000      0.0138      0.0000      0.1259      0.0518
 42      0.0000      0.3242      0.0447      0.0569      0.0392      0.0154      0.0192      0.0530      0.0211
 43      0.0000      0.3896      0.0154      0.0000      0.0594      0.2836      0.0141      0.1845      0.0134
 44      0.0000      0.3563      0.0576      0.0000      0.0000      0.0000      0.0181      0.1245      0.0706
 45      0.0000      0.3664      0.0000      0.0000      0.1038      0.0000      0.0096      0.0379      0.0000
 46      0.0000      0.3811      0.0106      0.0814      0.0000      0.0433      0.0000      0.0293      0.0000
