###################################################################
## OUTPUT of StarlightChains_v04.for    [Cid@UFSC - 01/Apr/2007] ##
###################################################################

## Some input info
KUG0210-078._21_28.txt                   [arq_obs]
Base.CB07.vall.4m                        [arq_base]
Masks.EmLines.NEW.gm                     [arq_masks]
StCv04.C11.config                        [arq_config]
   66                                    [N_base]
    0                                    [N_YAV_components = # of components with extra extinction!]
    0                                    [i_FitPowerLaw (1/0 = Yes/No)]
-9.99                                    [alpha_PowerLaw]
CCM                                      [red_law_option]
 1.458241                                [q_norm = A(l_norm)/A(V)]

## (Re)Sampling Parameters
 3741.00                                 [l_ini (A)]
 7218.00                                 [l_fin (A)]
    1.00                                 [dl    (A)]     (OBS: dl_cushion =    50.00 A)

## Normalization info
 4020.00                                 [l_norm (A) - for base]
 4010.00                                 [llow_norm (A) - window for f_obs]
 4060.00                                 [lupp_norm (A) - window for f_obs]
8.460760E-18                             [fobs_norm (in input units)]

## S/N
 3691.00                                 [llow_SN (A) - window for S/N]
 7268.00                                 [lupp_SN (A) - window for S/N]
   3.314                                 [S/N in S/N window]
   3.222                                 [S/N in norm. window]
   0.013                                 [S/N_err in S/N window]
   0.013                                 [S/N_err in norm. window]
  1.0000                                 [fscale_chi2]

## etc...
    -2007230                             [idum_orig]
  2401                                   [NOl_eff]
  2015                                   [Nl_eff]
   386    NSIGMA                         [Ntot_cliped & clip_method]
 10539270                                [Nglobal_steps]
   7                                     [N_chains]
  45                                     [NEX0s_base = N_base in EX0s-fits]
 0   0   1      386   2.0   7.458E+03    [Clip-Bug, RC-Crash & Burn-In warning-flags, n_censored_weights, wei_nsig_threshold & wei_limit]
    90     89.218     88.589      0.629  [idt_all, wdt_TotTime, wdt_UsrTime & wdt_SysTime (sec)]

## Synthesis Results - Best model ##

 5.17319E-05                             [chi2/Nl_eff]
    33.03907                             [adev (%)]

    76.83134                             [sum-of-x (%)]
 1.40002E-15                             [Flux_tot (units of input spectrum!)]
 1.13068E-13                             [Mini_tot (???)]
 1.13066E-13                             [Mcor_tot (???)]

   0.00                                  [v0_min  (km/s)]
   0.00                                  [vd_min  (km/s)]
 4.0000                                  [AV_min  (mag)]
 0.0000                                  [YAV_min (mag)]

# j     x_j(%)      Mini_j(%)     Mcor_j(%)     age_j(yr)     Z_j      (L/M)_j    YAV?  Mstars   component_j        a/Fe...       SSP_chi2r SSP_adev(%)   SSP_AV   SSP_x(%)
  1      0.0000     0.0000E+00    0.0000E+00    1.000000E+06  0.00400  1.094E-02    0   1.0000   age020_m42            0.0000     4.1087E-05    16.0447   3.7679    66.4756
  2      0.0000     0.0000E+00    0.0000E+00    3.160000E+06  0.00400  4.007E-02    0   0.9999   age045_m42            0.0000     4.2563E-05    15.8694   2.9357    74.1846
  3      0.0000     0.0000E+00    0.0000E+00    5.010000E+06  0.00400  2.539E-02    0   0.9488   age055_m42            0.0000     4.1814E-05    16.0337   3.2536    72.5705
  4      0.0000     0.0000E+00    0.0000E+00    6.610000E+06  0.00400  2.620E-02    0   0.9220   age061_m42            0.0000     4.3153E-05    15.8315   2.8188    75.7783
  5      0.0000     0.0000E+00    0.0000E+00    1.000000E+07  0.00400  1.322E-02    0   0.8862   age070_m42            0.0000     4.2125E-05    14.8986   2.5470    77.0909
  6      0.0000     0.0000E+00    0.0000E+00    1.445000E+07  0.00400  7.883E-03    0   0.8571   age078_m42            0.0000     4.1474E-05    15.1625   2.8648    75.5009
  7      0.0000     0.0000E+00    0.0000E+00    2.512000E+07  0.00400  5.251E-03    0   0.8174   age090_m42            0.0000     4.2253E-05    14.7492   2.4131    77.6345
  8      0.0000     0.0000E+00    0.0000E+00    4.000000E+07  0.00400  3.649E-03    0   0.7851   age104_m42            0.0000     4.2796E-05    14.7179   2.1825    78.3720
  9      0.0000     0.0000E+00    0.0000E+00    5.500000E+07  0.00400  3.098E-03    0   0.7629   age110_m42            0.0000     4.4023E-05    14.9968   2.3341    78.3295
 10      0.0000     0.0000E+00    0.0000E+00    1.015200E+08  0.00400  2.228E-03    0   0.7207   age116_m42            0.0000     4.5388E-05    15.1900   2.3533    78.4673
 11      0.0000     0.0000E+00    0.0000E+00    2.861200E+08  0.00400  1.093E-03    0   0.6648   age125_m42            0.0000     4.6298E-05    14.6522   1.8110    79.5664
 12      0.0000     0.0000E+00    0.0000E+00    5.088000E+08  0.00400  6.597E-04    0   0.6365   age130_m42            0.0000     4.7839E-05    14.7345   1.8536    78.4071
 13      0.0000     0.0000E+00    0.0000E+00    1.434000E+09  0.00400  2.132E-04    0   0.5798   age139_m42            0.0000     4.8010E-05    14.4585   0.9276    78.5050
 14      0.0000     0.0000E+00    0.0000E+00    4.250000E+09  0.00400  5.895E-05    0   0.5377   age158_m42            0.0000     4.5993E-05    14.9916   0.5056    75.0605
 15      0.0000     0.0000E+00    0.0000E+00    7.500000E+09  0.00400  3.510E-05    0   0.5212   age171_m42            0.0000     4.6086E-05    15.0550   0.3477    73.5799
 16      0.0000     0.0000E+00    0.0000E+00    1.300000E+10  0.00400  2.005E-05    0   0.5034   age193_m42            0.0000     4.6087E-05    15.1575   0.1995    72.5898
 17      0.0000     0.0000E+00    0.0000E+00    1.800000E+10  0.00400  1.525E-05    0   0.4967   age213_m42            0.0000     4.5829E-05    15.1610   0.1635    72.7403
 18     76.8002     9.9976E+01    9.9978E+01    1.000000E+06  0.00800  1.238E-02    0   1.0000   age020_m52            0.0000     4.1042E-05    16.0603   3.7597    66.7603
 19      0.0000     0.0000E+00    0.0000E+00    3.160000E+06  0.00800  3.074E-02    0   0.9966   age045_m52            0.0000     4.0838E-05    16.2534   3.6113    69.5495
 20      0.0000     0.0000E+00    0.0000E+00    5.010000E+06  0.00800  2.668E-02    0   0.9443   age055_m52            0.0000     4.1386E-05    16.1124   3.3089    72.8594
 21      0.0312     2.3515E-02    2.1580E-02    6.610000E+06  0.00800  2.136E-02    0   0.9177   age061_m52            0.0000     4.1587E-05    14.7009   2.1034    76.1119
 22      0.0000     0.0000E+00    0.0000E+00    1.000000E+07  0.00800  1.215E-02    0   0.8827   age070_m52            0.0000     4.1527E-05    14.7655   2.7237    76.9404
 23      0.0000     0.0000E+00    0.0000E+00    1.445000E+07  0.00800  8.717E-03    0   0.8552   age078_m52            0.0000     4.1759E-05    15.0666   2.8279    76.5649
 24      0.0000     0.0000E+00    0.0000E+00    2.512000E+07  0.00800  5.592E-03    0   0.8162   age090_m52            0.0000     4.2497E-05    14.6508   2.4679    78.7385
 25      0.0000     0.0000E+00    0.0000E+00    4.000000E+07  0.00800  3.896E-03    0   0.7841   age104_m52            0.0000     4.3411E-05    14.6761   2.3857    79.0808
 26      0.0000     0.0000E+00    0.0000E+00    1.015200E+08  0.00800  2.148E-03    0   0.7226   age116_m52            0.0000     4.5227E-05    14.9670   2.3222    78.9842
 27      0.0000     0.0000E+00    0.0000E+00    2.861200E+08  0.00800  9.925E-04    0   0.6683   age125_m52            0.0000     4.8325E-05    14.6657   1.9002    79.7604
 28      0.0000     0.0000E+00    0.0000E+00    9.047900E+08  0.00800  3.141E-04    0   0.6138   age135_m52            0.0000     4.8956E-05    14.4067   1.2159    78.8066
 29      0.0000     0.0000E+00    0.0000E+00    1.434000E+09  0.00800  1.719E-04    0   0.5853   age139_m52            0.0000     4.7327E-05    14.6282   0.6078    78.3017
 30      0.0000     0.0000E+00    0.0000E+00    2.500000E+09  0.00800  7.872E-05    0   0.5600   age150_m52            0.0000     4.6876E-05    15.0287   0.3728    75.3475
 31      0.0000     0.0000E+00    0.0000E+00    4.250000E+09  0.00800  4.336E-05    0   0.5426   age158_m52            0.0000     4.6539E-05    15.0928   0.3529    74.8239
 32      0.0000     0.0000E+00    0.0000E+00    6.250000E+09  0.00800  3.159E-05    0   0.5319   age166_m52            0.0000     4.7045E-05    15.2848   0.1661    74.3353
 33      0.0000     0.0000E+00    0.0000E+00    1.300000E+10  0.00800  1.361E-05    0   0.5073   age193_m52            0.0000     4.7886E-05    15.5133  -0.2636    72.6942
 34      0.0000     0.0000E+00    0.0000E+00    1.800000E+10  0.00800  9.886E-06    0   0.4990   age213_m52            0.0000     4.8561E-05    15.7697  -0.3580    71.9514
 35      0.0000     0.0000E+00    0.0000E+00    1.000000E+06  0.02000  1.544E-02    0   1.0000   age020_m62            0.0000     4.0891E-05    16.1150   3.7392    67.4572
 36      0.0000     0.0000E+00    0.0000E+00    3.160000E+06  0.02000  3.762E-02    0   0.9858   age045_m62            0.0000     4.0705E-05    16.3111   3.6113    70.0631
 37      0.0000     0.0000E+00    0.0000E+00    5.010000E+06  0.02000  3.296E-02    0   0.9342   age055_m62            0.0000     4.2404E-05    16.2098   3.1533    75.3845
 38      0.0000     0.0000E+00    0.0000E+00    8.710000E+06  0.02000  1.154E-02    0   0.8861   age067_m62            0.0000     3.9957E-05    13.9606   2.2135    77.6782
 39      0.0000     0.0000E+00    0.0000E+00    1.445000E+07  0.02000  7.663E-03    0   0.8472   age078_m62            0.0000     4.1073E-05    14.2794   2.3917    77.7927
 40      0.0000     0.0000E+00    0.0000E+00    2.512000E+07  0.02000  4.532E-03    0   0.8099   age090_m62            0.0000     4.1368E-05    14.3080   2.3460    78.8607
 41      0.0000     0.0000E+00    0.0000E+00    5.500000E+07  0.02000  2.733E-03    0   0.7595   age110_m62            0.0000     4.3402E-05    14.7649   2.3378    79.6211
 42      0.0000     0.0000E+00    0.0000E+00    1.609000E+08  0.02000  1.369E-03    0   0.6985   age120_m62            0.0000     4.7127E-05    14.8754   2.2039    80.7129
 43      0.0000     0.0000E+00    0.0000E+00    2.861200E+08  0.02000  9.013E-04    0   0.6714   age125_m62            0.0000     4.9424E-05    14.6619   2.0230    80.4604
 44      0.0000     0.0000E+00    0.0000E+00    5.088000E+08  0.02000  5.028E-04    0   0.6449   age130_m62            0.0000     5.0267E-05    14.6265   1.7407    79.0645
 45      0.0000     0.0000E+00    0.0000E+00    9.047900E+08  0.02000  2.428E-04    0   0.6179   age135_m62            0.0000     4.8622E-05    14.7162   1.1715    77.9880
 46      0.0000     0.0000E+00    0.0000E+00    1.434000E+09  0.02000  1.263E-04    0   0.5908   age139_m62            0.0000     4.7328E-05    14.8637   0.7371    76.6465
 47      0.0000     0.0000E+00    0.0000E+00    2.500000E+09  0.02000  5.985E-05    0   0.5673   age150_m62            0.0000     4.7079E-05    15.2987   0.3770    75.5804
 48      0.0000     0.0000E+00    0.0000E+00    4.250000E+09  0.02000  3.271E-05    0   0.5468   age158_m62            0.0000     4.8101E-05    15.6332   0.0945    74.2928
 49      0.0000     0.0000E+00    0.0000E+00    1.000000E+10  0.02000  1.360E-05    0   0.5167   age181_m62            0.0000     4.9314E-05    16.0364  -0.2344    73.4413
 50      0.0000     0.0000E+00    0.0000E+00    1.800000E+10  0.02000  7.124E-06    0   0.5013   age213_m62            0.0000     5.0292E-05    16.4602  -0.4427    72.8867
 51      0.0000     0.0000E+00    0.0000E+00    1.000000E+06  0.05000  2.592E-02    0   0.9998   age020_m72            0.0000     4.0593E-05    16.1777   3.7095    68.1861
 52      0.0000     0.0000E+00    0.0000E+00    3.160000E+06  0.05000  4.845E-02    0   0.9577   age045_m72            0.0000     4.1297E-05    16.5043   3.4249    73.0665
 53      0.0000     0.0000E+00    0.0000E+00    5.010000E+06  0.05000  3.072E-02    0   0.9147   age055_m72            0.0000     4.0812E-05    15.0635   2.9490    75.7162
 54      0.0000     0.0000E+00    0.0000E+00    6.610000E+06  0.05000  1.455E-02    0   0.8877   age061_m72            0.0000     4.0462E-05    15.2813   2.2291    78.3478
 55      0.0000     0.0000E+00    0.0000E+00    1.000000E+07  0.05000  9.074E-03    0   0.8524   age070_m72            0.0000     4.1118E-05    15.6391   3.1142    75.4807
 56      0.0000     0.0000E+00    0.0000E+00    2.512000E+07  0.05000  4.250E-03    0   0.7902   age090_m72            0.0000     4.2394E-05    15.1435   2.7849    78.2088
 57      0.0000     0.0000E+00    0.0000E+00    4.000000E+07  0.05000  3.087E-03    0   0.7618   age104_m72            0.0000     4.3224E-05    14.9712   2.5506    79.7392
 58      0.0000     0.0000E+00    0.0000E+00    1.015200E+08  0.05000  1.700E-03    0   0.7096   age116_m72            0.0000     4.6640E-05    14.7927   2.3364    80.6235
 59      0.0000     0.0000E+00    0.0000E+00    2.861200E+08  0.05000  7.384E-04    0   0.6633   age125_m72            0.0000     5.0158E-05    14.5753   1.9440    79.6297
 60      0.0000     0.0000E+00    0.0000E+00    5.088000E+08  0.05000  3.819E-04    0   0.6372   age130_m72            0.0000     4.9901E-05    14.6818   1.5238    78.3748
 61      0.0000     0.0000E+00    0.0000E+00    9.047900E+08  0.05000  1.676E-04    0   0.6110   age135_m72            0.0000     4.8479E-05    15.3434   0.8359    76.9152
 62      0.0000     0.0000E+00    0.0000E+00    1.434000E+09  0.05000  8.837E-05    0   0.5874   age139_m72            0.0000     4.8092E-05    15.3282   0.3932    75.9607
 63      0.0000     0.0000E+00    0.0000E+00    2.500000E+09  0.05000  4.233E-05    0   0.5598   age150_m72            0.0000     4.8134E-05    15.8758   0.0822    75.2917
 64      0.0000     0.0000E+00    0.0000E+00    6.250000E+09  0.05000  1.435E-05    0   0.5249   age166_m72            0.0000     4.9279E-05    16.2774  -0.3362    73.2828
 65      0.0000     0.0000E+00    0.0000E+00    1.300000E+10  0.05000  6.513E-06    0   0.5036   age193_m72            0.0000     5.0799E-05    17.0193  -0.6475    75.1321
 66      0.0000     0.0000E+00    0.0000E+00    1.800000E+10  0.05000  4.527E-06    0   0.4945   age213_m72            0.0000     5.1533E-05    17.5153  -0.8216    75.4476


## Synthesis Results - Average & Chains ##

# j      x_j: min, <> & last-chain-values for 1 ...  7 chains
  1      0.0000      0.2435      0.3908      0.0000      0.0000      1.3240      0.4928      1.3696      0.0091
  2      0.0000      0.2132      0.1850      0.3953      0.6162      0.0000      0.0000      0.0000      0.5872
  3      0.0000      0.2395      0.1743      0.1660      0.1217      0.8279      0.5851      1.7776      0.4842
  4      0.0000      0.2889      0.0000      0.2628      0.7375      0.7472      2.2059      0.9143      0.4632
  5      0.0000      0.2107      0.8170      0.1336      1.7090      0.2375      0.4400      0.4820      0.9116
  6      0.0000      0.2920      0.2664      0.5251      0.9538      0.0000      0.2795      0.6934      1.4995
  7      0.0000      0.2273      0.1751      0.0287      1.7728      0.0000      0.7545      0.0000      0.4167
  8      0.0000      0.3082      0.4696      0.1219      1.3301      0.0000      1.0127      0.4807      0.0000
  9      0.0000      0.2233      0.5572      0.2673      0.5162      0.0622      0.2888      1.0141      1.6645
 10      0.0000      0.2016      0.4086      0.2692      1.0003      0.1706      0.8113      0.3001      0.3609
 11      0.0000      0.1609      0.7465      0.3724      0.0000      0.6556      0.7106      0.7062      0.3953
 12      0.0000      0.2937      0.0000      0.0000      1.1770      1.3680      0.8143      0.9844      0.2965
 13      0.0000      0.2395      0.2523      0.9220      0.0000      0.3750      0.7974      0.2550      0.6891
 14      0.0000      0.1917      0.0680      0.0000      0.0244      0.1609      0.2758      0.0000      0.0000
 15      0.0000      0.1762      0.2182      0.6934      0.2177      0.1856      0.0000      0.1118      0.2264
 16      0.0000      0.3323      0.6028      0.0517      0.0000      0.1274      0.0811      0.9514      0.2588
 17      0.0000      0.1879      0.5853      0.3447      0.4332      0.1212      0.0264      0.0252      0.4272
 18     76.8002      0.1413      0.0888      0.0000      0.5515      0.0000      0.4152      0.2209      0.6911
 19      0.0000      0.2298      0.1620      0.0000      0.1223      0.0000      0.1636      0.3405      0.5685
 20      0.0000      0.1951      0.0336      0.3930      0.1935      0.3713      1.2608      0.0000      1.2571
 21      0.0312      0.2255      0.1858      0.0000      1.1089      0.3043      0.4758      0.8447      0.7898
 22      0.0000      0.2360      1.4913      0.0000      0.2529      0.6617      1.5517      0.0629      0.3798
 23      0.0000      0.2732      0.2353      0.7762      0.6735      1.4558      0.2549      1.0975      0.3288
 24      0.0000      0.2248      0.4469      0.5971      1.1628      1.1183      0.0055      0.5270      0.0703
 25      0.0000      0.3615      0.0000      1.4972      1.1584      1.5849      0.0934      0.8221      0.4534
 26      0.0000      0.1900      0.7868      1.0470      0.4414      0.0000      0.0000      0.0128      0.5485
 27      0.0000      0.2146      2.1324      0.1581      0.3181      0.0000      0.3931      1.2381      0.0000
 28      0.0000      0.1950      0.1825      0.5288      0.5532      0.0980      1.1171      0.4836      0.3941
 29      0.0000      0.2176      0.0000      1.1748      0.1342      1.4047      0.0773      0.0024      0.1253
 30      0.0000      0.2826      0.8442      0.4546      0.9627      0.5610      0.7995      0.4049      0.1521
 31      0.0000      0.2516      0.5416      0.1798      0.8351      2.8978      0.0000      0.1639      0.8090
 32      0.0000      0.2128      0.9129      0.1355      0.6275      0.0222      0.0960      0.1468      0.0000
 33      0.0000      0.1961      0.1841      0.3142      0.0116      0.5620      0.3216      0.0567      0.0000
 34      0.0000      0.1896      0.0490      0.0000      0.0003      0.1993      0.4982      0.0000      1.1763
 35      0.0000      4.8313      5.9424      3.6519      5.9758      5.2836      4.3905      5.5473      4.5554
 36      0.0000      0.3247      0.0000      1.4581      0.0000      0.0000      0.6036      1.5300      1.3925
 37      0.0000      0.2768      0.5031      0.0000      0.3219      0.3747      1.0061      0.0926      0.8978
 38      0.0000      0.2576      0.6138      0.1151      1.4163      0.5266      0.0000      0.1558      0.2601
 39      0.0000      0.2259      0.2111      0.8094      0.2495      0.5229      0.4114      0.0000      1.9658
 40      0.0000      0.1855      0.1009      0.0000      1.6398      0.0000      0.0000      0.0000      0.0000
 41      0.0000      0.2819      0.4766      0.0000      0.7491      0.2502      1.4646      0.6097      1.7034
 42      0.0000      0.1535      0.0000      0.2612      0.1068      0.1664      0.7065      0.0000      0.4676
 43      0.0000      0.2875      0.4615      0.9695      0.6578      0.5488      0.1874      1.0407      0.7319
 44      0.0000      0.1846      0.6138      0.1709      0.8742      1.2682      0.4402      0.1726      0.1900
 45      0.0000      0.2900      1.2253      0.0526      0.7119      0.2047      0.0000      0.2441      0.7865
 46      0.0000      0.2287      0.2543      0.1411      0.3890      0.2761      0.0000      1.0331      0.3979
