###################################################################
## OUTPUT of StarlightChains_v04.for    [Cid@UFSC - 01/Apr/2007] ##
###################################################################

## Some input info
KUG0210-078._47_30.txt                   [arq_obs]
Base.CB07.vall.4m                        [arq_base]
Masks.EmLines.NEW.gm                     [arq_masks]
StCv04.C11.config                        [arq_config]
   66                                    [N_base]
    0                                    [N_YAV_components = # of components with extra extinction!]
    0                                    [i_FitPowerLaw (1/0 = Yes/No)]
-9.99                                    [alpha_PowerLaw]
CCM                                      [red_law_option]
 1.458241                                [q_norm = A(l_norm)/A(V)]

## (Re)Sampling Parameters
 3741.00                                 [l_ini (A)]
 7218.00                                 [l_fin (A)]
    1.00                                 [dl    (A)]     (OBS: dl_cushion =    50.00 A)

## Normalization info
 4020.00                                 [l_norm (A) - for base]
 4010.00                                 [llow_norm (A) - window for f_obs]
 4060.00                                 [lupp_norm (A) - window for f_obs]
3.653310E-18                             [fobs_norm (in input units)]

## S/N
 3691.00                                 [llow_SN (A) - window for S/N]
 7268.00                                 [lupp_SN (A) - window for S/N]
   2.336                                 [S/N in S/N window]
   1.512                                 [S/N in norm. window]
   0.007                                 [S/N_err in S/N window]
   0.004                                 [S/N_err in norm. window]
  1.0000                                 [fscale_chi2]

## etc...
    -2007906                             [idum_orig]
  2382                                   [NOl_eff]
  2184                                   [Nl_eff]
   198    NSIGMA                         [Ntot_cliped & clip_method]
  5246500                                [Nglobal_steps]
   7                                     [N_chains]
   7                                     [NEX0s_base = N_base in EX0s-fits]
 0   0   1      198   2.0   2.285E+03    [Clip-Bug, RC-Crash & Burn-In warning-flags, n_censored_weights, wei_nsig_threshold & wei_limit]
    54     51.957     50.559      1.398  [idt_all, wdt_TotTime, wdt_UsrTime & wdt_SysTime (sec)]

## Synthesis Results - Best model ##

 1.52805E-05                             [chi2/Nl_eff]
    39.18374                             [adev (%)]

   130.00000                             [sum-of-x (%)]
 3.36256E-16                             [Flux_tot (units of input spectrum!)]
 1.78198E-14                             [Mini_tot (???)]
 1.78155E-14                             [Mcor_tot (???)]

 -42.20                                  [v0_min  (km/s)]
   0.00                                  [vd_min  (km/s)]
 3.1717                                  [AV_min  (mag)]
 0.0000                                  [YAV_min (mag)]

# j     x_j(%)      Mini_j(%)     Mcor_j(%)     age_j(yr)     Z_j      (L/M)_j    YAV?  Mstars   component_j        a/Fe...       SSP_chi2r SSP_adev(%)   SSP_AV   SSP_x(%)
  1     35.4738     4.7067E+01    4.7078E+01    1.000000E+06  0.00400  1.094E-02    0   1.0000   age020_m42            0.0000     1.0356E-05    39.0730   2.1706   199.8715
  2      0.0000     0.0000E+00    0.0000E+00    3.160000E+06  0.00400  4.007E-02    0   0.9999   age045_m42            0.0000     1.0542E-05    40.3756   1.5434   204.8409
  3      0.0000     0.0000E+00    0.0000E+00    5.010000E+06  0.00400  2.539E-02    0   0.9488   age055_m42            0.0000     1.0399E-05    39.6095   1.8183   203.7772
  4      0.3142     1.7409E-01    1.6055E-01    6.610000E+06  0.00400  2.620E-02    0   0.9220   age061_m42            0.0000     1.0520E-05    40.4362   1.4762   204.9328
  5      0.0000     0.0000E+00    0.0000E+00    1.000000E+07  0.00400  1.322E-02    0   0.8862   age070_m42            0.0000     1.0641E-05    41.6323   1.2173   208.2299
  6      0.0000     0.0000E+00    0.0000E+00    1.445000E+07  0.00400  7.883E-03    0   0.8571   age078_m42            0.0000     1.0517E-05    40.8038   1.5078   205.8957
  7      0.0000     0.0000E+00    0.0000E+00    2.512000E+07  0.00400  5.251E-03    0   0.8174   age090_m42            0.0000     1.0642E-05    41.7728   1.0990   208.6132
  8      0.0000     0.0000E+00    0.0000E+00    4.000000E+07  0.00400  3.649E-03    0   0.7851   age104_m42            0.0000     1.0651E-05    41.8177   0.8838   209.0788
  9      0.0000     0.0000E+00    0.0000E+00    5.500000E+07  0.00400  3.098E-03    0   0.7629   age110_m42            0.0000     1.0629E-05    41.4576   1.0433   208.1522
 10      0.0000     0.0000E+00    0.0000E+00    1.015200E+08  0.00400  2.228E-03    0   0.7207   age116_m42            0.0000     1.0651E-05    41.4478   1.0724   207.5649
 11      0.0000     0.0000E+00    0.0000E+00    2.861200E+08  0.00400  1.093E-03    0   0.6648   age125_m42            0.0000     1.0878E-05    42.9245   0.5368   210.4289
 12      0.0000     0.0000E+00    0.0000E+00    5.088000E+08  0.00400  6.597E-04    0   0.6365   age130_m42            0.0000     1.0844E-05    42.6040   0.5338   211.1506
 13      0.0000     0.0000E+00    0.0000E+00    1.434000E+09  0.00400  2.132E-04    0   0.5798   age139_m42            0.0000     1.0724E-05    42.7878  -0.4114   213.1180
 14      0.0000     0.0000E+00    0.0000E+00    4.250000E+09  0.00400  5.895E-05    0   0.5377   age158_m42            0.0000     1.0458E-05    41.2793  -0.9122   209.3206
 15      0.0000     0.0000E+00    0.0000E+00    7.500000E+09  0.00400  3.510E-05    0   0.5212   age171_m42            0.0000     1.0486E-05    42.0452  -1.0000   203.8504
 16      0.0000     0.0000E+00    0.0000E+00    1.300000E+10  0.00400  2.005E-05    0   0.5034   age193_m42            0.0000     1.0735E-05    44.0824  -1.0000   195.5358
 17      0.0000     0.0000E+00    0.0000E+00    1.800000E+10  0.00400  1.525E-05    0   0.4967   age213_m42            0.0000     1.0748E-05    44.4221  -1.0000   193.9103
 18      0.0000     0.0000E+00    0.0000E+00    1.000000E+06  0.00800  1.238E-02    0   1.0000   age020_m52            0.0000     1.0352E-05    39.0933   2.1664   200.3491
 19      0.0000     0.0000E+00    0.0000E+00    3.160000E+06  0.00800  3.074E-02    0   0.9966   age045_m52            0.0000     1.0322E-05    39.1133   2.0916   201.9089
 20      0.0000     0.0000E+00    0.0000E+00    5.010000E+06  0.00800  2.668E-02    0   0.9443   age055_m52            0.0000     1.0343E-05    39.4007   1.8846   203.3896
 21      0.0000     0.0000E+00    0.0000E+00    6.610000E+06  0.00800  2.136E-02    0   0.9177   age061_m52            0.0000     1.0570E-05    41.7902   0.7088   211.3640
 22      0.0000     0.0000E+00    0.0000E+00    1.000000E+07  0.00800  1.215E-02    0   0.8827   age070_m52            0.0000     1.0623E-05    41.7680   1.3799   209.2328
 23      0.0000     0.0000E+00    0.0000E+00    1.445000E+07  0.00800  8.717E-03    0   0.8552   age078_m52            0.0000     1.0521E-05    41.0516   1.4826   207.9850
 24      0.0000     0.0000E+00    0.0000E+00    2.512000E+07  0.00800  5.592E-03    0   0.8162   age090_m52            0.0000     1.0623E-05    41.9386   1.1656   210.7419
 25      0.0000     0.0000E+00    0.0000E+00    4.000000E+07  0.00800  3.896E-03    0   0.7841   age104_m52            0.0000     1.0609E-05    41.8756   1.0880   211.0546
 26      0.0000     0.0000E+00    0.0000E+00    1.015200E+08  0.00800  2.148E-03    0   0.7226   age116_m52            0.0000     1.0602E-05    41.6586   1.0355   209.5578
 27      0.0000     0.0000E+00    0.0000E+00    2.861200E+08  0.00800  9.925E-04    0   0.6683   age125_m52            0.0000     1.0766E-05    42.6302   0.5993   213.1312
 28      0.0000     0.0000E+00    0.0000E+00    9.047900E+08  0.00800  3.141E-04    0   0.6138   age135_m52            0.0000     1.0658E-05    42.7858  -0.1753   218.9029
 29      0.0000     0.0000E+00    0.0000E+00    1.434000E+09  0.00800  1.719E-04    0   0.5853   age139_m52            0.0000     1.0463E-05    42.2655  -0.7902   217.1915
 30      0.0000     0.0000E+00    0.0000E+00    2.500000E+09  0.00800  7.872E-05    0   0.5600   age150_m52            0.0000     1.0394E-05    41.9603  -1.0000   209.8758
 31      0.0000     0.0000E+00    0.0000E+00    4.250000E+09  0.00800  4.336E-05    0   0.5426   age158_m52            0.0000     1.0413E-05    42.1138  -1.0000   207.4820
 32      0.0000     0.0000E+00    0.0000E+00    6.250000E+09  0.00800  3.159E-05    0   0.5319   age166_m52            0.0000     1.0700E-05    44.4164  -1.0000   198.3134
 33      0.0000     0.0000E+00    0.0000E+00    1.300000E+10  0.00800  1.361E-05    0   0.5073   age193_m52            0.0000     1.2178E-05    51.1580  -1.0000   174.7401
 34      0.0000     0.0000E+00    0.0000E+00    1.800000E+10  0.00800  9.886E-06    0   0.4990   age213_m52            0.0000     1.2753E-05    52.4562  -1.0000   168.3625
 35      0.0000     0.0000E+00    0.0000E+00    1.000000E+06  0.02000  1.544E-02    0   1.0000   age020_m62            0.0000     1.0353E-05    39.1606   2.1582   201.1275
 36      0.0000     0.0000E+00    0.0000E+00    3.160000E+06  0.02000  3.762E-02    0   0.9858   age045_m62            0.0000     1.0312E-05    39.1240   2.0947   203.1020
 37      0.0000     0.0000E+00    0.0000E+00    5.010000E+06  0.02000  3.296E-02    0   0.9342   age055_m62            0.0000     1.0399E-05    39.6822   1.7887   205.2461
 38      0.0000     0.0000E+00    0.0000E+00    8.710000E+06  0.02000  1.154E-02    0   0.8861   age067_m62            0.0000     1.0972E-05    44.4908   0.8387   216.0504
 39      0.0000     0.0000E+00    0.0000E+00    1.445000E+07  0.02000  7.663E-03    0   0.8472   age078_m62            0.0000     1.0690E-05    42.6704   1.0355   213.3513
 40      0.0000     0.0000E+00    0.0000E+00    2.512000E+07  0.02000  4.532E-03    0   0.8099   age090_m62            0.0000     1.0701E-05    42.6467   1.0349   212.1629
 41      0.0000     0.0000E+00    0.0000E+00    5.500000E+07  0.02000  2.733E-03    0   0.7595   age110_m62            0.0000     1.0567E-05    41.6466   1.0600   210.4777
 42      0.0000     0.0000E+00    0.0000E+00    1.609000E+08  0.02000  1.369E-03    0   0.6985   age120_m62            0.0000     1.0679E-05    42.1419   0.9406   212.0989
 43      0.0000     0.0000E+00    0.0000E+00    2.861200E+08  0.02000  9.013E-04    0   0.6714   age125_m62            0.0000     1.0761E-05    42.5427   0.7181   215.2580
 44      0.0000     0.0000E+00    0.0000E+00    5.088000E+08  0.02000  5.028E-04    0   0.6449   age130_m62            0.0000     1.0705E-05    42.3957   0.3577   218.6743
 45      0.0000     0.0000E+00    0.0000E+00    9.047900E+08  0.02000  2.428E-04    0   0.6179   age135_m62            0.0000     1.0432E-05    41.7979  -0.2572   219.2398
 46      0.0000     0.0000E+00    0.0000E+00    1.434000E+09  0.02000  1.263E-04    0   0.5908   age139_m62            0.0000     1.0278E-05    41.2488  -0.7276   218.1252
 47      0.0000     0.0000E+00    0.0000E+00    2.500000E+09  0.02000  5.985E-05    0   0.5673   age150_m62            0.0000     1.0289E-05    41.8438  -1.0000   211.6898
 48      0.0000     0.0000E+00    0.0000E+00    4.250000E+09  0.02000  3.271E-05    0   0.5468   age158_m62            0.0000     1.0874E-05    45.3773  -1.0000   195.9143
 49      0.0000     0.0000E+00    0.0000E+00    1.000000E+10  0.02000  1.360E-05    0   0.5167   age181_m62            0.0000     1.2148E-05    50.1430  -1.0000   177.8775
 50      0.0000     0.0000E+00    0.0000E+00    1.800000E+10  0.02000  7.124E-06    0   0.5013   age213_m62            0.0000     1.3294E-05    52.8271  -1.0000   165.7511
 51     94.2120     5.2759E+01    5.2761E+01    1.000000E+06  0.05000  2.592E-02    0   0.9998   age020_m72            0.0000     1.0352E-05    39.2559   2.1404   202.0082
 52      0.0000     0.0000E+00    0.0000E+00    3.160000E+06  0.05000  4.845E-02    0   0.9577   age045_m72            0.0000     1.0258E-05    38.8234   1.9970   203.9598
 53      0.0000     0.0000E+00    0.0000E+00    5.010000E+06  0.05000  3.072E-02    0   0.9147   age055_m72            0.0000     1.0495E-05    41.2357   1.5617   209.3637
 54      0.0000     0.0000E+00    0.0000E+00    6.610000E+06  0.05000  1.455E-02    0   0.8877   age061_m72            0.0000     1.1377E-05    46.5387   0.8615   218.4601
 55      0.0000     0.0000E+00    0.0000E+00    1.000000E+07  0.05000  9.074E-03    0   0.8524   age070_m72            0.0000     1.0601E-05    41.6500   1.7257   209.0045
 56      0.0000     0.0000E+00    0.0000E+00    2.512000E+07  0.05000  4.250E-03    0   0.7902   age090_m72            0.0000     1.0588E-05    41.5604   1.4804   209.0345
 57      0.0000     0.0000E+00    0.0000E+00    4.000000E+07  0.05000  3.087E-03    0   0.7618   age104_m72            0.0000     1.0693E-05    42.2257   1.2794   210.3427
 58      0.0000     0.0000E+00    0.0000E+00    1.015200E+08  0.05000  1.700E-03    0   0.7096   age116_m72            0.0000     1.0715E-05    42.3427   1.0752   211.8541
 59      0.0000     0.0000E+00    0.0000E+00    2.861200E+08  0.05000  7.384E-04    0   0.6633   age125_m72            0.0000     1.0649E-05    42.3419   0.5891   217.5014
 60      0.0000     0.0000E+00    0.0000E+00    5.088000E+08  0.05000  3.819E-04    0   0.6372   age130_m72            0.0000     1.0394E-05    41.7528   0.0859   221.4250
 61      0.0000     0.0000E+00    0.0000E+00    9.047900E+08  0.05000  1.676E-04    0   0.6110   age135_m72            0.0000     1.0110E-05    40.6389  -0.6611   220.9462
 62      0.0000     0.0000E+00    0.0000E+00    1.434000E+09  0.05000  8.837E-05    0   0.5874   age139_m72            0.0000     1.0244E-05    41.8490  -1.0000   214.5615
 63      0.0000     0.0000E+00    0.0000E+00    2.500000E+09  0.05000  4.233E-05    0   0.5598   age150_m72            0.0000     1.0851E-05    45.2821  -1.0000   197.6157
 64      0.0000     0.0000E+00    0.0000E+00    6.250000E+09  0.05000  1.435E-05    0   0.5249   age166_m72            0.0000     1.2628E-05    51.5062  -1.0000   172.3349
 65      0.0000     0.0000E+00    0.0000E+00    1.300000E+10  0.05000  6.513E-06    0   0.5036   age193_m72            0.0000     1.4466E-05    55.0204  -1.0000   159.1111
 66      0.0000     0.0000E+00    0.0000E+00    1.800000E+10  0.05000  4.527E-06    0   0.4945   age213_m72            0.0000     1.5686E-05    56.6462  -1.0000   150.2158


## Synthesis Results - Average & Chains ##

# j      x_j: min, <> & last-chain-values for 1 ...  7 chains
  1     35.4738     10.2200      3.2381      9.4874      3.1172     25.2467      9.6724      7.8859      9.0175
  2      0.0000      0.1675      0.0119      0.0417      0.0060      0.0263      0.1062      0.0876      0.1091
  3      0.0000      0.1538      0.0150      0.0742      0.0002      0.0767      0.0000      0.1095      0.0035
  4      0.3142      0.1455      0.0173      0.0055      0.0794      0.0431      0.0271      0.0430      0.0000
  5      0.0000      0.1394      0.0284      0.0629      0.0000      0.0100      0.0394      0.0217      0.0363
  6      0.0000      0.1225      0.0167      0.0479      0.0245      0.0272      0.0389      0.0937      0.0389
  7      0.0000      0.1993      0.0155      0.0171      0.0018      0.0679      0.0617      0.0085      0.0290
  8      0.0000      0.2000      0.0116      0.0064      0.0000      0.0372      0.0886      0.0428      0.0105
  9      0.0000      0.2950      0.0163      0.0136      0.0348      0.0096      0.0113      0.0000      0.0060
 10      0.0000      0.1231      0.0093      0.0000      0.0000      0.0078      0.0000      0.0834      0.0004
 11      0.0000      0.2125      0.0127      0.0000      0.0146      0.0423      0.1354      0.0000      0.0833
 12      0.0000      0.1483      0.0123      0.0000      0.0110      0.0000      0.0799      0.0000      0.0000
 13      0.0000      0.1592      0.0138      0.0994      0.0109      0.2545      0.0000      0.0568      0.0524
 14      0.0000      0.2036      0.0162      0.0197      0.0001      0.0000      0.0073      0.0737      0.0000
 15      0.0000      0.1902      0.0205      0.0332      0.0338      0.0512      0.0196      0.0000      0.2629
 16      0.0000      0.1793      0.0267      0.0087      0.0021      0.0584      0.0256      0.0000      0.2060
 17      0.0000      0.2407      0.0114      0.0314      0.0000      0.0930      0.0015      0.0162      0.0530
 18      0.0000      0.2119      0.0199      0.2185      0.0000      0.0560      0.0432      0.0000      0.0044
 19      0.0000      0.1771      0.0191      0.0000      0.0000      0.0032      0.1948      0.0000      0.0151
 20      0.0000      0.2007      0.0275      0.0005      0.0092      0.0271      0.0090      0.1436      0.0804
 21      0.0000      0.2319      0.0303      0.0318      0.0145      0.0898      0.0154      0.0818      0.1050
 22      0.0000      0.2367      0.0240      0.0032      0.0093      0.1534      0.0048      0.0992      0.0655
 23      0.0000      0.2414      0.0156      0.0299      0.0447      0.0917      0.0648      0.0417      0.0232
 24      0.0000      0.3054      0.0108      0.0816      0.0740      0.0000      0.0796      0.0252      0.1887
 25      0.0000      0.1936      0.0163      0.0272      0.0525      0.0483      0.0000      0.0968      0.0322
 26      0.0000      0.1754      0.0163      0.0037      0.0807      0.0798      0.0000      0.0000      0.1292
 27      0.0000      0.2562      0.0478      0.0029      0.0178      0.1275      0.0000      0.0111      0.0246
 28      0.0000      0.2217      0.0239      0.0000      0.0000      0.0154      0.0513      0.0114      0.0508
 29      0.0000      0.1637      0.0166      0.0800      0.0569      0.0656      0.0319      0.0120      0.0162
 30      0.0000      0.1654      0.0251      0.0000      0.0053      0.0196      0.0000      0.0526      0.0138
 31      0.0000      0.1901      0.0193      0.0414      0.0000      0.0193      0.0812      0.0044      0.0000
 32      0.0000      0.1903      0.0115      0.0131      0.0101      0.0049      0.0000      0.1398      0.0456
 33      0.0000      0.2169      0.0126      0.0289      0.0304      0.0142      0.0264      0.0848      0.0000
 34      0.0000      0.1731      0.0242      0.0164      0.0000      0.0092      0.0932      0.0342      0.0160
 35      0.0000      0.1607      0.0316      0.0125      0.0022      0.0000      0.0485      0.0403      0.0000
 36      0.0000      0.2321      0.0236      0.1592      0.0273      0.1719      0.0089      0.0749      0.0822
 37      0.0000      0.1546      0.0166      0.0622      0.0347      0.0030      0.0070      0.0148      0.0238
 38      0.0000      0.1356      0.0152      0.0483      0.0216      0.0000      0.0445      0.0052      0.0266
 39      0.0000      0.2419      0.0120      0.0685      0.0603      0.0242      0.0949      0.0356      0.0111
 40      0.0000      0.1553      0.0280      0.0146      0.0000      0.0000      0.0218      0.0261      0.0146
 41      0.0000      0.1556      0.0119      0.0562      0.0000      0.1801      0.0167      0.0535      0.0338
 42      0.0000      0.1608      0.0180      0.0224      0.0021      0.0382      0.0292      0.0000      0.0000
 43      0.0000      0.1999      0.0195      0.0383      0.0720      0.0000      0.0000      0.1312      0.0187
 44      0.0000      0.1739      0.0086      0.0143      0.0508      0.0379      0.0300      0.1223      0.0526
 45      0.0000      0.1981      0.0096      0.0707      0.0250      0.0000      0.0762      0.0220      0.0000
 46      0.0000      0.1879      0.0174      0.0179      0.0316      0.0217      0.0366      0.0463      0.0367
