###################################################################
## OUTPUT of StarlightChains_v04.for    [Cid@UFSC - 01/Apr/2007] ##
###################################################################

## Some input info
KUG0210-078._51_37.txt                   [arq_obs]
Base.CB07.vall.4m                        [arq_base]
Masks.EmLines.NEW.gm                     [arq_masks]
StCv04.C11.config                        [arq_config]
   66                                    [N_base]
    0                                    [N_YAV_components = # of components with extra extinction!]
    0                                    [i_FitPowerLaw (1/0 = Yes/No)]
-9.99                                    [alpha_PowerLaw]
CCM                                      [red_law_option]
 1.458241                                [q_norm = A(l_norm)/A(V)]

## (Re)Sampling Parameters
 3741.00                                 [l_ini (A)]
 7218.00                                 [l_fin (A)]
    1.00                                 [dl    (A)]     (OBS: dl_cushion =    50.00 A)

## Normalization info
 4020.00                                 [l_norm (A) - for base]
 4010.00                                 [llow_norm (A) - window for f_obs]
 4060.00                                 [lupp_norm (A) - window for f_obs]
2.662609E-18                             [fobs_norm (in input units)]

## S/N
 3691.00                                 [llow_SN (A) - window for S/N]
 7268.00                                 [lupp_SN (A) - window for S/N]
   3.008                                 [S/N in S/N window]
   1.552                                 [S/N in norm. window]
   0.005                                 [S/N_err in S/N window]
   0.003                                 [S/N_err in norm. window]
  1.0000                                 [fscale_chi2]

## etc...
    -2007970                             [idum_orig]
  2295                                   [NOl_eff]
  2246                                   [Nl_eff]
    49    NSIGMA                         [Ntot_cliped & clip_method]
  5188050                                [Nglobal_steps]
   7                                     [N_chains]
   7                                     [NEX0s_base = N_base in EX0s-fits]
 0   0   1       49   2.0   8.138E+02    [Clip-Bug, RC-Crash & Burn-In warning-flags, n_censored_weights, wei_nsig_threshold & wei_limit]
    47     46.986     46.467      0.519  [idt_all, wdt_TotTime, wdt_UsrTime & wdt_SysTime (sec)]

## Synthesis Results - Best model ##

 2.23567E-04                             [chi2/Nl_eff]
    37.52351                             [adev (%)]

   130.00000                             [sum-of-x (%)]
 5.20714E-16                             [Flux_tot (units of input spectrum!)]
 4.75972E-14                             [Mini_tot (???)]
 4.75972E-14                             [Mcor_tot (???)]

 223.95                                  [v0_min  (km/s)]
   0.00                                  [vd_min  (km/s)]
 3.7328                                  [AV_min  (mag)]
 0.0000                                  [YAV_min (mag)]

# j     x_j(%)      Mini_j(%)     Mcor_j(%)     age_j(yr)     Z_j      (L/M)_j    YAV?  Mstars   component_j        a/Fe...       SSP_chi2r SSP_adev(%)   SSP_AV   SSP_x(%)
  1    130.0000     1.0000E+02    1.0000E+02    1.000000E+06  0.00400  1.094E-02    0   1.0000   age020_m42            0.0000     9.2021E-06    43.1930   2.2195   249.9043
  2      0.0000     0.0000E+00    0.0000E+00    3.160000E+06  0.00400  4.007E-02    0   0.9999   age045_m42            0.0000     8.9017E-06    42.5854   1.6224   253.5929
  3      0.0000     0.0000E+00    0.0000E+00    5.010000E+06  0.00400  2.539E-02    0   0.9488   age055_m42            0.0000     9.0214E-06    42.9283   1.8914   252.7201
  4      0.0000     0.0000E+00    0.0000E+00    6.610000E+06  0.00400  2.620E-02    0   0.9220   age061_m42            0.0000     8.9365E-06    42.6397   1.5625   253.0506
  5      0.0000     0.0000E+00    0.0000E+00    1.000000E+07  0.00400  1.322E-02    0   0.8862   age070_m42            0.0000     8.9494E-06    43.2940   1.3570   252.4784
  6      0.0000     0.0000E+00    0.0000E+00    1.445000E+07  0.00400  7.883E-03    0   0.8571   age078_m42            0.0000     9.0338E-06    43.4510   1.6283   251.4816
  7      0.0000     0.0000E+00    0.0000E+00    2.512000E+07  0.00400  5.251E-03    0   0.8174   age090_m42            0.0000     8.9501E-06    43.5324   1.2483   252.3403
  8      0.0000     0.0000E+00    0.0000E+00    4.000000E+07  0.00400  3.649E-03    0   0.7851   age104_m42            0.0000     8.8906E-06    43.2693   1.0400   252.1570
  9      0.0000     0.0000E+00    0.0000E+00    5.500000E+07  0.00400  3.098E-03    0   0.7629   age110_m42            0.0000     8.8643E-06    42.8002   1.1811   252.4175
 10      0.0000     0.0000E+00    0.0000E+00    1.015200E+08  0.00400  2.228E-03    0   0.7207   age116_m42            0.0000     8.8717E-06    42.5124   1.1935   253.1483
 11      0.0000     0.0000E+00    0.0000E+00    2.861200E+08  0.00400  1.093E-03    0   0.6648   age125_m42            0.0000     8.8172E-06    42.7632   0.6896   253.9783
 12      0.0000     0.0000E+00    0.0000E+00    5.088000E+08  0.00400  6.597E-04    0   0.6365   age130_m42            0.0000     8.7672E-06    42.1805   0.6743   256.2102
 13      0.0000     0.0000E+00    0.0000E+00    1.434000E+09  0.00400  2.132E-04    0   0.5798   age139_m42            0.0000     8.5976E-06    41.1637  -0.2629   257.2324
 14      0.0000     0.0000E+00    0.0000E+00    4.250000E+09  0.00400  5.895E-05    0   0.5377   age158_m42            0.0000     8.7435E-06    40.6633  -0.8216   257.5998
 15      0.0000     0.0000E+00    0.0000E+00    7.500000E+09  0.00400  3.510E-05    0   0.5212   age171_m42            0.0000     8.8067E-06    40.6968  -1.0000   257.2955
 16      0.0000     0.0000E+00    0.0000E+00    1.300000E+10  0.00400  2.005E-05    0   0.5034   age193_m42            0.0000     8.9079E-06    42.7321  -1.0000   254.0768
 17      0.0000     0.0000E+00    0.0000E+00    1.800000E+10  0.00400  1.525E-05    0   0.4967   age213_m42            0.0000     8.9668E-06    43.6988  -1.0000   254.0671
 18      0.0000     0.0000E+00    0.0000E+00    1.000000E+06  0.00800  1.238E-02    0   1.0000   age020_m52            0.0000     9.1877E-06    43.1491   2.2203   250.0343
 19      0.0000     0.0000E+00    0.0000E+00    3.160000E+06  0.00800  3.074E-02    0   0.9966   age045_m52            0.0000     9.1499E-06    43.0646   2.1537   251.2907
 20      0.0000     0.0000E+00    0.0000E+00    5.010000E+06  0.00800  2.668E-02    0   0.9443   age055_m52            0.0000     9.0759E-06    42.9432   1.9623   251.8313
 21      0.0000     0.0000E+00    0.0000E+00    6.610000E+06  0.00800  2.136E-02    0   0.9177   age061_m52            0.0000     8.7802E-06    42.6450   0.8765   253.3799
 22      0.0000     0.0000E+00    0.0000E+00    1.000000E+07  0.00800  1.215E-02    0   0.8827   age070_m52            0.0000     8.9914E-06    43.6316   1.5306   252.8248
 23      0.0000     0.0000E+00    0.0000E+00    1.445000E+07  0.00800  8.717E-03    0   0.8552   age078_m52            0.0000     8.9781E-06    43.3079   1.6147   252.8680
 24      0.0000     0.0000E+00    0.0000E+00    2.512000E+07  0.00800  5.592E-03    0   0.8162   age090_m52            0.0000     8.9248E-06    43.5299   1.3251   253.7997
 25      0.0000     0.0000E+00    0.0000E+00    4.000000E+07  0.00800  3.896E-03    0   0.7841   age104_m52            0.0000     8.9085E-06    43.4019   1.2419   254.7702
 26      0.0000     0.0000E+00    0.0000E+00    1.015200E+08  0.00800  2.148E-03    0   0.7226   age116_m52            0.0000     8.9266E-06    42.9515   1.1639   255.2454
 27      0.0000     0.0000E+00    0.0000E+00    2.861200E+08  0.00800  9.925E-04    0   0.6683   age125_m52            0.0000     8.8070E-06    42.0703   0.7613   256.0836
 28      0.0000     0.0000E+00    0.0000E+00    9.047900E+08  0.00800  3.141E-04    0   0.6138   age135_m52            0.0000     8.7463E-06    41.2130  -0.0220   263.5296
 29      0.0000     0.0000E+00    0.0000E+00    1.434000E+09  0.00800  1.719E-04    0   0.5853   age139_m52            0.0000     8.7434E-06    41.0923  -0.6412   262.0009
 30      0.0000     0.0000E+00    0.0000E+00    2.500000E+09  0.00800  7.872E-05    0   0.5600   age150_m52            0.0000     8.7662E-06    40.3007  -0.9706   259.8654
 31      0.0000     0.0000E+00    0.0000E+00    4.250000E+09  0.00800  4.336E-05    0   0.5426   age158_m52            0.0000     8.7683E-06    40.3192  -0.9995   259.2678
 32      0.0000     0.0000E+00    0.0000E+00    6.250000E+09  0.00800  3.159E-05    0   0.5319   age166_m52            0.0000     8.9617E-06    42.8143  -1.0000   257.8946
 33      0.0000     0.0000E+00    0.0000E+00    1.300000E+10  0.00800  1.361E-05    0   0.5073   age193_m52            0.0000     1.1097E-05    59.8422  -1.0000   252.1392
 34      0.0000     0.0000E+00    0.0000E+00    1.800000E+10  0.00800  9.886E-06    0   0.4990   age213_m52            0.0000     1.2189E-05    65.0515  -1.0000   250.6141
 35      0.0000     0.0000E+00    0.0000E+00    1.000000E+06  0.02000  1.544E-02    0   1.0000   age020_m62            0.0000     9.1701E-06    43.0902   2.2181   250.4096
 36      0.0000     0.0000E+00    0.0000E+00    3.160000E+06  0.02000  3.762E-02    0   0.9858   age045_m62            0.0000     9.1102E-06    42.8768   2.1692   251.3916
 37      0.0000     0.0000E+00    0.0000E+00    5.010000E+06  0.02000  3.296E-02    0   0.9342   age055_m62            0.0000     8.9807E-06    42.5372   1.8736   253.2117
 38      0.0000     0.0000E+00    0.0000E+00    8.710000E+06  0.02000  1.154E-02    0   0.8861   age067_m62            0.0000     9.1337E-06    45.7212   1.0894   252.3033
 39      0.0000     0.0000E+00    0.0000E+00    1.445000E+07  0.02000  7.663E-03    0   0.8472   age078_m62            0.0000     8.9422E-06    44.2525   1.2319   253.7163
 40      0.0000     0.0000E+00    0.0000E+00    2.512000E+07  0.02000  4.532E-03    0   0.8099   age090_m62            0.0000     8.9996E-06    44.6001   1.2328   252.5089
 41      0.0000     0.0000E+00    0.0000E+00    5.500000E+07  0.02000  2.733E-03    0   0.7595   age110_m62            0.0000     8.8965E-06    43.3326   1.2209   253.4951
 42      0.0000     0.0000E+00    0.0000E+00    1.609000E+08  0.02000  1.369E-03    0   0.6985   age120_m62            0.0000     8.8849E-06    42.5344   1.0953   255.6884
 43      0.0000     0.0000E+00    0.0000E+00    2.861200E+08  0.02000  9.013E-04    0   0.6714   age125_m62            0.0000     8.8577E-06    41.9440   0.8870   258.0968
 44      0.0000     0.0000E+00    0.0000E+00    5.088000E+08  0.02000  5.028E-04    0   0.6449   age130_m62            0.0000     8.7952E-06    41.2037   0.5154   262.9056
 45      0.0000     0.0000E+00    0.0000E+00    9.047900E+08  0.02000  2.428E-04    0   0.6179   age135_m62            0.0000     8.7224E-06    40.8599  -0.1229   265.5253
 46      0.0000     0.0000E+00    0.0000E+00    1.434000E+09  0.02000  1.263E-04    0   0.5908   age139_m62            0.0000     8.7488E-06    40.5158  -0.6073   265.2485
 47      0.0000     0.0000E+00    0.0000E+00    2.500000E+09  0.02000  5.985E-05    0   0.5673   age150_m62            0.0000     8.7451E-06    39.6950  -0.9818   261.2839
 48      0.0000     0.0000E+00    0.0000E+00    4.250000E+09  0.02000  3.271E-05    0   0.5468   age158_m62            0.0000     9.2948E-06    44.8134  -1.0000   259.5925
 49      0.0000     0.0000E+00    0.0000E+00    1.000000E+10  0.02000  1.360E-05    0   0.5167   age181_m62            0.0000     1.1220E-05    58.0487  -1.0000   255.6448
 50      0.0000     0.0000E+00    0.0000E+00    1.800000E+10  0.02000  7.124E-06    0   0.5013   age213_m62            0.0000     1.3336E-05    68.0587  -1.0000   251.8514
 51      0.0000     0.0000E+00    0.0000E+00    1.000000E+06  0.05000  2.592E-02    0   0.9998   age020_m72            0.0000     9.1989E-06    43.1945   2.2048   251.1088
 52      0.0000     0.0000E+00    0.0000E+00    3.160000E+06  0.05000  4.845E-02    0   0.9577   age045_m72            0.0000     9.0636E-06    42.7879   2.0769   252.0948
 53      0.0000     0.0000E+00    0.0000E+00    5.010000E+06  0.05000  3.072E-02    0   0.9147   age055_m72            0.0000     8.9986E-06    43.9174   1.7170   252.7299
 54      0.0000     0.0000E+00    0.0000E+00    6.610000E+06  0.05000  1.455E-02    0   0.8877   age061_m72            0.0000     9.4205E-06    47.8349   1.1501   252.0211
 55      0.0000     0.0000E+00    0.0000E+00    1.000000E+07  0.05000  9.074E-03    0   0.8524   age070_m72            0.0000     9.0571E-06    44.4838   1.8892   252.1188
 56      0.0000     0.0000E+00    0.0000E+00    2.512000E+07  0.05000  4.250E-03    0   0.7902   age090_m72            0.0000     9.0486E-06    44.3705   1.6379   252.5468
 57      0.0000     0.0000E+00    0.0000E+00    4.000000E+07  0.05000  3.087E-03    0   0.7618   age104_m72            0.0000     9.0646E-06    44.5639   1.4479   253.4001
 58      0.0000     0.0000E+00    0.0000E+00    1.015200E+08  0.05000  1.700E-03    0   0.7096   age116_m72            0.0000     8.9921E-06    43.2271   1.2241   256.3446
 59      0.0000     0.0000E+00    0.0000E+00    2.861200E+08  0.05000  7.384E-04    0   0.6633   age125_m72            0.0000     8.8694E-06    41.6946   0.7340   262.9205
 60      0.0000     0.0000E+00    0.0000E+00    5.088000E+08  0.05000  3.819E-04    0   0.6372   age130_m72            0.0000     8.7607E-06    40.9226   0.2156   268.5109
 61      0.0000     0.0000E+00    0.0000E+00    9.047900E+08  0.05000  1.676E-04    0   0.6110   age135_m72            0.0000     8.6868E-06    39.9114  -0.5348   267.5559
 62      0.0000     0.0000E+00    0.0000E+00    1.434000E+09  0.05000  8.837E-05    0   0.5874   age139_m72            0.0000     8.7194E-06    39.4787  -0.9837   264.7529
 63      0.0000     0.0000E+00    0.0000E+00    2.500000E+09  0.05000  4.233E-05    0   0.5598   age150_m72            0.0000     9.2302E-06    43.8639  -1.0000   259.5832
 64      0.0000     0.0000E+00    0.0000E+00    6.250000E+09  0.05000  1.435E-05    0   0.5249   age166_m72            0.0000     1.2087E-05    62.9219  -1.0000   254.4379
 65      0.0000     0.0000E+00    0.0000E+00    1.300000E+10  0.05000  6.513E-06    0   0.5036   age193_m72            0.0000     1.5364E-05    75.8605  -1.0000   252.0032
 66      0.0000     0.0000E+00    0.0000E+00    1.800000E+10  0.05000  4.527E-06    0   0.4945   age213_m72            0.0000     1.8346E-05    85.3709  -1.0000   250.5779


## Synthesis Results - Average & Chains ##

# j      x_j: min, <> & last-chain-values for 1 ...  7 chains
  1    130.0000     65.0780     61.8848     67.0185     63.0063     63.3141     64.2100     62.2535     66.5144
  2      0.0000      0.0443      0.0000      0.0190      0.0419      0.0850      0.0000      0.2367      0.0379
  3      0.0000      0.0640      0.0156      0.0034      0.4062      0.0000      0.1273      0.2878      0.0301
  4      0.0000      0.0610      0.0573      0.0071      0.0000      0.0245      0.0000      0.0000      0.0000
  5      0.0000      0.0780      0.0638      0.0107      0.1650      0.0000      0.0000      0.7057      0.0725
  6      0.0000      0.0716      0.0687      0.0244      0.1827      0.2752      0.0000      0.3429      0.0836
  7      0.0000      0.0748      0.2432      0.0172      0.1117      0.2402      0.2422      0.2035      0.0092
  8      0.0000      0.0738      0.4473      0.0006      0.1317      0.0000      0.0000      0.1429      0.0013
  9      0.0000      0.0655      0.3087      0.0304      0.0000      0.3171      0.1112      0.3326      0.0208
 10      0.0000      0.0658      0.4002      0.0000      0.2554      0.0000      0.1683      0.1063      0.0000
 11      0.0000      0.0807      0.1168      0.0256      0.3927      0.1166      0.0997      0.0000      0.0537
 12      0.0000      0.0580      0.5129      0.0000      0.0330      0.0000      0.2422      0.0006      0.0000
 13      0.0000      0.0673      0.2035      0.0088      0.1114      0.1053      0.0128      0.0000      0.0000
 14      0.0000      0.0775      0.1712      0.0473      0.0701      0.0000      0.0000      0.5334      0.0084
 15      0.0000      0.0726      0.1870      0.0000      0.0000      0.2769      0.5772      0.0000      0.0000
 16      0.0000      0.0645      0.1612      0.0164      0.0000      0.1867      0.1252      0.1813      0.0291
 17      0.0000     60.4513     57.8203     62.2601     58.3580     58.6329     59.1629     56.8292     61.7553
 18      0.0000      0.0777      0.0464      0.0244      0.0202      0.1068      0.0787      0.0197      0.1274
 19      0.0000      0.0929      0.0306      0.0464      0.3476      0.0567      0.0000      0.0198      0.0188
 20      0.0000      0.0831      0.2372      0.0000      0.2557      0.6278      0.0945      0.2557      0.0000
 21      0.0000      0.0678      0.2459      0.0000      0.5812      0.0083      0.0000      0.0236      0.0531
 22      0.0000      0.0760      0.2463      0.0009      0.1598      0.4111      0.2151      0.2917      0.0670
 23      0.0000      0.0833      0.0954      0.0143      0.0000      0.2510      0.3287      0.1188      0.0962
 24      0.0000      0.0847      0.0000      0.0147      0.0000      0.3368      0.3746      0.0000      0.0525
 25      0.0000      0.0585      0.0182      0.0000      0.0000      0.2066      0.0291      0.0366      0.0538
 26      0.0000      0.0722      0.1242      0.0066      0.0000      0.3344      0.0112      0.0738      0.0095
 27      0.0000      0.0905      0.4387      0.0022      0.3519      0.0249      0.0000      0.2968      0.0146
 28      0.0000      0.0535      0.2390      0.0000      0.0000      0.0000      0.0062      0.2628      0.0290
 29      0.0000      0.0685      0.2770      0.0005      0.0637      0.3380      0.0557      0.0000      0.0816
 30      0.0000      0.0822      0.0000      0.0050      0.5537      0.1870      0.1564      0.0000      0.0227
 31      0.0000      0.0806      0.1653      0.0000      0.4781      0.0000      0.0000      0.2721      0.0000
 32      0.0000      0.0824      0.7485      0.0074      0.0542      0.1395      0.0000      0.0000      0.0235
 33      0.0000      0.0602      0.0000      0.0070      0.1326      0.0000      0.0229      0.1062      0.0000
 34      0.0000      0.0670      0.0000      0.0000      0.1801      0.0000      0.1077      0.2193      0.0000
 35      0.0000      0.0688      0.0434      0.0260      0.5685      0.2324      0.1836      0.3062      0.0008
 36      0.0000      0.0762      0.0642      0.0185      0.3290      0.0000      0.1080      0.2409      0.0395
 37      0.0000      0.0888      0.1264      0.0125      0.1071      0.0000      0.2526      0.0000      0.0091
 38      0.0000      0.0760      0.4822      0.0330      0.2595      0.0000      0.0813      0.0918      0.0705
 39      0.0000      0.0612      0.4440      0.0000      0.2951      0.0000      0.0098      0.2564      0.0422
 40      0.0000      0.0692      0.0000      0.0000      0.1714      0.1721      0.2981      0.0245      0.0241
 41      0.0000      0.0548      0.1170      0.0062      0.0000      0.1644      0.0532      0.1942      0.0038
 42      0.0000      0.0644      0.0000      0.0259      0.1385      0.0976      0.2639      0.0000      0.0000
 43      0.0000      0.0641      0.2300      0.0144      0.1298      0.0177      0.0127      0.0000      0.0571
 44      0.0000      0.0636      0.0302      0.0047      0.0000      0.1285      0.1895      0.0000      0.0006
 45      0.0000      0.0554      0.0000      0.0018      0.0000      0.1213      0.1953      0.0000      0.0290
 46      0.0000      0.0901      0.2330      0.0042      0.1120      0.3974      0.4592      0.1729      0.0119
