###################################################################
## OUTPUT of StarlightChains_v04.for    [Cid@UFSC - 01/Apr/2007] ##
###################################################################

## Some input info
KUG0210-078._28_35.txt                   [arq_obs]
Base.CB07.vall.4m                        [arq_base]
Masks.EmLines.NEW.gm                     [arq_masks]
StCv04.C11.config                        [arq_config]
   66                                    [N_base]
    0                                    [N_YAV_components = # of components with extra extinction!]
    0                                    [i_FitPowerLaw (1/0 = Yes/No)]
-9.99                                    [alpha_PowerLaw]
CCM                                      [red_law_option]
 1.458241                                [q_norm = A(l_norm)/A(V)]

## (Re)Sampling Parameters
 3741.00                                 [l_ini (A)]
 7218.00                                 [l_fin (A)]
    1.00                                 [dl    (A)]     (OBS: dl_cushion =    50.00 A)

## Normalization info
 4020.00                                 [l_norm (A) - for base]
 4010.00                                 [llow_norm (A) - window for f_obs]
 4060.00                                 [lupp_norm (A) - window for f_obs]
1.302337E-16                             [fobs_norm (in input units)]

## S/N
 3691.00                                 [llow_SN (A) - window for S/N]
 7268.00                                 [lupp_SN (A) - window for S/N]
   7.905                                 [S/N in S/N window]
   6.420                                 [S/N in norm. window]
   0.352                                 [S/N_err in S/N window]
   0.286                                 [S/N_err in norm. window]
  1.0000                                 [fscale_chi2]

## etc...
    -2007383                             [idum_orig]
  2432                                   [NOl_eff]
  2048                                   [Nl_eff]
   384    NSIGMA                         [Ntot_cliped & clip_method]
 15846180                                [Nglobal_steps]
   7                                     [N_chains]
  42                                     [NEX0s_base = N_base in EX0s-fits]
 0   0   1      384   2.0   1.137E+05    [Clip-Bug, RC-Crash & Burn-In warning-flags, n_censored_weights, wei_nsig_threshold & wei_limit]
   101    100.262     99.304      0.959  [idt_all, wdt_TotTime, wdt_UsrTime & wdt_SysTime (sec)]

## Synthesis Results - Best model ##

 8.93536E-04                             [chi2/Nl_eff]
     4.25271                             [adev (%)]

   118.03724                             [sum-of-x (%)]
 2.76970E-16                             [Flux_tot (units of input spectrum!)]
 1.73459E-12                             [Mini_tot (???)]
 1.05323E-12                             [Mcor_tot (???)]

 212.40                                  [v0_min  (km/s)]
 167.32                                  [vd_min  (km/s)]
 0.4384                                  [AV_min  (mag)]
 0.0000                                  [YAV_min (mag)]

# j     x_j(%)      Mini_j(%)     Mcor_j(%)     age_j(yr)     Z_j      (L/M)_j    YAV?  Mstars   component_j        a/Fe...       SSP_chi2r SSP_adev(%)   SSP_AV   SSP_x(%)
  1      0.0000     0.0000E+00    0.0000E+00    1.000000E+06  0.00400  1.094E-02    0   1.0000   age020_m42            0.0000     1.0266E-03     3.6284   3.2705   106.1775
  2      0.0000     0.0000E+00    0.0000E+00    3.160000E+06  0.00400  4.007E-02    0   0.9999   age045_m42            0.0000     1.1484E-03     3.6976   2.6201   109.6143
  3      0.0000     0.0000E+00    0.0000E+00    5.010000E+06  0.00400  2.539E-02    0   0.9488   age055_m42            0.0000     1.0694E-03     3.5495   2.9032   108.7589
  4      0.0000     0.0000E+00    0.0000E+00    6.610000E+06  0.00400  2.620E-02    0   0.9220   age061_m42            0.0000     1.1491E-03     3.7015   2.5433   109.9912
  5      0.0000     0.0000E+00    0.0000E+00    1.000000E+07  0.00400  1.322E-02    0   0.8862   age070_m42            0.0000     1.2968E-03     4.5409   2.2336   113.7162
  6      0.0734     1.2595E-03    1.7779E-03    1.445000E+07  0.00400  7.883E-03    0   0.8571   age078_m42            0.0000     1.2215E-03     4.1620   2.5456   111.5804
  7      0.0000     0.0000E+00    0.0000E+00    2.512000E+07  0.00400  5.251E-03    0   0.8174   age090_m42            0.0000     1.3570E-03     4.8852   2.1071   114.1885
  8      0.0000     0.0000E+00    0.0000E+00    4.000000E+07  0.00400  3.649E-03    0   0.7851   age104_m42            0.0000     1.3722E-03     4.9449   1.8942   114.3925
  9      0.0000     0.0000E+00    0.0000E+00    5.500000E+07  0.00400  3.098E-03    0   0.7629   age110_m42            0.0000     1.3366E-03     4.5897   2.0724   113.0727
 10      0.0000     0.0000E+00    0.0000E+00    1.015200E+08  0.00400  2.228E-03    0   0.7207   age116_m42            0.0000     1.3038E-03     4.3812   2.1071   112.5502
 11      0.0000     0.0000E+00    0.0000E+00    2.861200E+08  0.00400  1.093E-03    0   0.6648   age125_m42            0.0000     1.4729E-03     5.2380   1.5380   115.6575
 12      0.0837     1.7163E-02    1.7992E-02    5.088000E+08  0.00400  6.597E-04    0   0.6365   age130_m42            0.0000     1.4156E-03     4.8202   1.5566   115.2160
 13      0.0000     0.0000E+00    0.0000E+00    1.434000E+09  0.00400  2.132E-04    0   0.5798   age139_m42            0.0000     1.3615E-03     4.8898   0.6167   116.1623
 14      0.0000     0.0000E+00    0.0000E+00    4.250000E+09  0.00400  5.895E-05    0   0.5377   age158_m42            0.0000     1.0801E-03     4.0123   0.1568   112.9122
 15      0.0000     0.0000E+00    0.0000E+00    7.500000E+09  0.00400  3.510E-05    0   0.5212   age171_m42            0.0000     1.0816E-03     3.9692  -0.0279   111.9641
 16      0.0000     0.0000E+00    0.0000E+00    1.300000E+10  0.00400  2.005E-05    0   0.5034   age193_m42            0.0000     1.1388E-03     4.0400  -0.1882   111.0587
 17      0.0000     0.0000E+00    0.0000E+00    1.800000E+10  0.00400  1.525E-05    0   0.4967   age213_m42            0.0000     1.1088E-03     4.0362  -0.2164   110.8755
 18      0.0000     0.0000E+00    0.0000E+00    1.000000E+06  0.00800  1.238E-02    0   1.0000   age020_m52            0.0000     1.0222E-03     3.6254   3.2668   106.3934
 19      0.1003     4.4130E-04    7.2431E-04    3.160000E+06  0.00800  3.074E-02    0   0.9966   age045_m52            0.0000     1.0096E-03     3.6040   3.1964   107.0757
 20      0.0000     0.0000E+00    0.0000E+00    5.010000E+06  0.00800  2.668E-02    0   0.9443   age055_m52            0.0000     1.0450E-03     3.5197   2.9749   108.3383
 21      0.0000     0.0000E+00    0.0000E+00    6.610000E+06  0.00800  2.136E-02    0   0.9177   age061_m52            0.0000     1.1846E-03     4.3358   1.7243   115.7174
 22      0.0000     0.0000E+00    0.0000E+00    1.000000E+07  0.00800  1.215E-02    0   0.8827   age070_m52            0.0000     1.3317E-03     4.7941   2.3953   114.2844
 23      0.0694     1.0774E-03    1.5174E-03    1.445000E+07  0.00800  8.717E-03    0   0.8552   age078_m52            0.0000     1.2426E-03     4.3313   2.5182   112.7890
 24      0.0000     0.0000E+00    0.0000E+00    2.512000E+07  0.00800  5.592E-03    0   0.8162   age090_m52            0.0000     1.3992E-03     5.1061   2.1751   115.2469
 25      0.0000     0.0000E+00    0.0000E+00    4.000000E+07  0.00800  3.896E-03    0   0.7841   age104_m52            0.0000     1.3949E-03     5.0576   2.1057   115.1075
 26      0.0000     0.0000E+00    0.0000E+00    1.015200E+08  0.00800  2.148E-03    0   0.7226   age116_m52            0.0000     1.3133E-03     4.6293   2.0642   113.9308
 27      0.0000     0.0000E+00    0.0000E+00    2.861200E+08  0.00800  9.925E-04    0   0.6683   age125_m52            0.0000     1.4227E-03     4.8463   1.6187   116.3927
 28      0.0000     0.0000E+00    0.0000E+00    9.047900E+08  0.00800  3.141E-04    0   0.6138   age135_m52            0.0000     1.3072E-03     4.7610   0.8674   118.7762
 29      0.0000     0.0000E+00    0.0000E+00    1.434000E+09  0.00800  1.719E-04    0   0.5853   age139_m52            0.0000     1.1431E-03     4.6553   0.2568   118.1443
 30      0.0000     0.0000E+00    0.0000E+00    2.500000E+09  0.00800  7.872E-05    0   0.5600   age150_m52            0.0000     1.0131E-03     4.1863  -0.0076   115.0080
 31      0.0000     0.0000E+00    0.0000E+00    4.250000E+09  0.00800  4.336E-05    0   0.5426   age158_m52            0.0000     9.9976E-04     4.0593  -0.0238   114.0035
 32      0.0792     3.3900E-01    2.9696E-01    6.250000E+09  0.00800  3.159E-05    0   0.5319   age166_m52            0.0000     1.0392E-03     4.2302  -0.2156   113.4991
 33      0.0000     0.0000E+00    0.0000E+00    1.300000E+10  0.00800  1.361E-05    0   0.5073   age193_m52            0.0000     1.1181E-03     4.6949  -0.6730   112.3127
 34      0.0000     0.0000E+00    0.0000E+00    1.800000E+10  0.00800  9.886E-06    0   0.4990   age213_m52            0.0000     1.1663E-03     4.9740  -0.7725   111.3529
 35      0.2825     2.4749E-03    4.0759E-03    1.000000E+06  0.02000  1.544E-02    0   1.0000   age020_m62            0.0000     1.0157E-03     3.6283   3.2609   106.7566
 36      0.0000     0.0000E+00    0.0000E+00    3.160000E+06  0.02000  3.762E-02    0   0.9858   age045_m62            0.0000     1.0020E-03     3.6131   3.1994   107.7173
 37      0.0000     0.0000E+00    0.0000E+00    5.010000E+06  0.02000  3.296E-02    0   0.9342   age055_m62            0.0000     1.0820E-03     3.5689   2.8758   109.4621
 38      0.0000     0.0000E+00    0.0000E+00    8.710000E+06  0.02000  1.154E-02    0   0.8861   age067_m62            0.0000     1.8820E-03     7.4915   1.7723   121.5250
 39      0.3075     5.4285E-03    7.5742E-03    1.445000E+07  0.02000  7.663E-03    0   0.8472   age078_m62            0.0000     1.5077E-03     5.8300   2.0258   117.6557
 40      0.0000     0.0000E+00    0.0000E+00    2.512000E+07  0.02000  4.532E-03    0   0.8099   age090_m62            0.0000     1.5807E-03     6.1635   2.0193   117.1831
 41      0.1301     6.4401E-03    8.0555E-03    5.500000E+07  0.02000  2.733E-03    0   0.7595   age110_m62            0.0000     1.3375E-03     4.9046   2.0769   114.9524
 42      0.0000     0.0000E+00    0.0000E+00    1.609000E+08  0.02000  1.369E-03    0   0.6985   age120_m62            0.0000     1.3455E-03     4.7194   1.9572   115.8598
 43      0.0000     0.0000E+00    0.0000E+00    2.861200E+08  0.02000  9.013E-04    0   0.6714   age125_m62            0.0000     1.3875E-03     4.8316   1.7367   117.6077
 44      0.0000     0.0000E+00    0.0000E+00    5.088000E+08  0.02000  5.028E-04    0   0.6449   age130_m62            0.0000     1.2988E-03     4.5490   1.3999   118.5744
 45      0.0000     0.0000E+00    0.0000E+00    9.047900E+08  0.02000  2.428E-04    0   0.6179   age135_m62            0.0000     1.0741E-03     4.2348   0.8088   118.2755
 46      0.1043     1.1167E-01    1.0865E-01    1.434000E+09  0.02000  1.263E-04    0   0.5908   age139_m62            0.0000     9.6318E-04     4.1990   0.3475   117.5982
 47      3.6038     8.1453E+00    7.6102E+00    2.500000E+09  0.02000  5.985E-05    0   0.5673   age150_m62            0.0000     9.3496E-04     4.2705  -0.0221   116.2983
 48      0.0000     0.0000E+00    0.0000E+00    4.250000E+09  0.02000  3.271E-05    0   0.5468   age158_m62            0.0000     1.0356E-03     4.7269  -0.3136   114.6933
 49      0.0000     0.0000E+00    0.0000E+00    1.000000E+10  0.02000  1.360E-05    0   0.5167   age181_m62            0.0000     1.1521E-03     5.3871  -0.6520   113.7444
 50      0.0000     0.0000E+00    0.0000E+00    1.800000E+10  0.02000  7.124E-06    0   0.5013   age213_m62            0.0000     1.2609E-03     5.9473  -0.8603   112.7600
 51      0.0000     0.0000E+00    0.0000E+00    1.000000E+06  0.05000  2.592E-02    0   0.9998   age020_m72            0.0000     9.9775E-04     3.6098   3.2431   107.2451
 52      0.0000     0.0000E+00    0.0000E+00    3.160000E+06  0.05000  4.845E-02    0   0.9577   age045_m72            0.0000     1.0165E-03     3.6017   3.1054   108.0131
 53      0.0000     0.0000E+00    0.0000E+00    5.010000E+06  0.05000  3.072E-02    0   0.9147   age055_m72            0.0000     1.2962E-03     4.7507   2.6017   113.5304
 54      0.0000     0.0000E+00    0.0000E+00    6.610000E+06  0.05000  1.455E-02    0   0.8877   age061_m72            0.0000     2.6365E-03     9.9826   1.7737   124.1889
 55      0.0000     0.0000E+00    0.0000E+00    1.000000E+07  0.05000  9.074E-03    0   0.8524   age070_m72            0.0000     1.5159E-03     5.5888   2.7739   113.2359
 56      0.0000     0.0000E+00    0.0000E+00    2.512000E+07  0.05000  4.250E-03    0   0.7902   age090_m72            0.0000     1.4999E-03     5.5409   2.5114   113.6674
 57      0.0000     0.0000E+00    0.0000E+00    4.000000E+07  0.05000  3.087E-03    0   0.7618   age104_m72            0.0000     1.6071E-03     6.0610   2.2934   115.0360
 58      0.0000     0.0000E+00    0.0000E+00    1.015200E+08  0.05000  1.700E-03    0   0.7096   age116_m72            0.0000     1.4418E-03     5.1499   2.0879   115.8592
 59      0.0000     0.0000E+00    0.0000E+00    2.861200E+08  0.05000  7.384E-04    0   0.6633   age125_m72            0.0000     1.3022E-03     4.7087   1.6261   118.0844
 60      0.0000     0.0000E+00    0.0000E+00    5.088000E+08  0.05000  3.819E-04    0   0.6372   age130_m72            0.0000     1.0756E-03     4.3462   1.1509   119.3100
 61    113.2032     9.1370E+01    9.1943E+01    9.047900E+08  0.05000  1.676E-04    0   0.6110   age135_m72            0.0000     8.9078E-04     4.2709   0.4485   117.8562
 62      0.0000     0.0000E+00    0.0000E+00    1.434000E+09  0.05000  8.837E-05    0   0.5874   age139_m72            0.0000     9.6429E-04     4.5647  -0.0120   117.4199
 63      0.0000     0.0000E+00    0.0000E+00    2.500000E+09  0.05000  4.233E-05    0   0.5598   age150_m72            0.0000     1.0103E-03     5.0076  -0.3200   115.9933
 64      0.0000     0.0000E+00    0.0000E+00    6.250000E+09  0.05000  1.435E-05    0   0.5249   age166_m72            0.0000     1.1878E-03     5.8118  -0.7527   113.5074
 65      0.0000     0.0000E+00    0.0000E+00    1.300000E+10  0.05000  6.513E-06    0   0.5036   age193_m72            0.0000     1.4001E-03     6.5180  -1.0000   113.3974
 66      0.0000     0.0000E+00    0.0000E+00    1.800000E+10  0.05000  4.527E-06    0   0.4945   age213_m72            0.0000     1.7260E-03     7.2211  -1.0000   107.1486


## Synthesis Results - Average & Chains ##

# j      x_j: min, <> & last-chain-values for 1 ...  7 chains
  1      0.0000     18.3729     15.9902     18.6587     20.3262     18.2225     18.6475     19.5176     18.4993
  2      0.0000      0.3498      0.0000      0.7556      0.9827      1.6722      0.4158      0.0000      0.5284
  3      0.0000      0.3781      0.1425      0.5656      0.4783      0.8710      0.8676      2.2362      3.7668
  4      0.0000      0.4054      0.0000      0.3474      0.0000      0.2914      3.5581      0.4414      1.4379
  5      0.0000      0.3845      0.0000      0.0000      1.4504      0.0000      0.0000      0.0000      4.2301
  6      0.0734      0.3132      0.7067      0.0000      0.7097      0.1772      0.0000      0.6196      0.7854
  7      0.0000      0.4646      0.8042      0.2148      0.2197      0.0000      3.0802      1.7172      0.6665
  8      0.0000      0.2942      0.0000      0.3089      0.0000      0.0000      0.7025      0.0000      0.0000
  9      0.0000      0.2988      0.0000      0.2010      0.0000      0.4135      0.0000      0.3202      0.9555
 10      0.0000      0.3511      0.5241      0.6762      0.2699      0.9658      0.9724      0.8230      0.0000
 11      0.0000      0.4735      1.9429      0.5038      1.1296      0.0000      3.5484      0.0000      0.0000
 12      0.0837      0.3929      1.5165      0.0000      2.8560      0.5973      1.0398      1.4609      0.0000
 13      0.0000      0.5629      1.7184      0.8749      0.3004      1.0597      0.7988      0.0279      0.0000
 14      0.0000      0.4983      2.1964      0.5575      1.2203      0.0000      4.2544      0.3941      0.7400
 15      0.0000      0.3100      0.9188      1.6852      0.0770      0.2775      0.0000      1.0785      0.9846
 16      0.0000      0.4019      3.9707      0.2907      0.2312      0.2983      0.0982      0.3740      0.4176
 17      0.0000      1.5601      0.9484      1.2342      0.6732      1.6136      0.5221      1.5447      1.3713
 18      0.0000     14.4468     10.1143     10.7504      9.4853     12.5411      8.1983     12.6727      7.0469
 19      0.1003      0.7486      2.8995      1.8037      0.8680      0.4316      0.0000      0.3204      1.4774
 20      0.0000      0.3299      3.7633      0.4466      0.8736      0.9713      0.0000      0.5758      0.0000
 21      0.0000      0.4232      0.3603      1.2914      2.1704      0.5928      0.0000      0.4667      1.4809
 22      0.0000      0.3692      0.1816      1.0470      0.0356      1.4421      1.6369      0.5428      0.0000
 23      0.0694      0.4730      0.3704      0.3851      1.9802      0.2328      0.9409      0.0000      0.7846
 24      0.0000      0.3492      1.0781      0.7496      0.0000      0.0666      0.0000      0.4310      0.3102
 25      0.0000      0.4103      2.1160      0.4693      1.1177      0.0000      0.7031      0.0000      0.2577
 26      0.0000      0.4242      0.0000      0.0000      1.1072      1.8441      3.5511      0.2505      0.0000
 27      0.0000      0.4017      0.0351      0.0000      1.0158      0.2214      0.3071      0.3034      0.7309
 28      0.0000      0.3094      0.0000      0.6098      2.1164      0.1828      0.0000      0.0000      0.0000
 29      0.0000      0.2776      0.1387      0.6221      0.2766      0.2016      0.0000      0.8296      0.3957
 30      0.0000      0.4429      0.5314      0.0000      1.0086      1.3217      1.6005      0.2040      1.7092
 31      0.0000      0.2778      1.0259      1.8400      0.0000      0.8033      1.1472      0.6129      0.3810
 32      0.0792      0.4499      1.2535      0.7657      0.6269      0.1651      1.5547      0.0000      0.0000
 33      0.0000      0.2453      0.0000      0.2730      0.0591      0.5204      0.8116      0.0000      0.0000
 34      0.0000      0.5184      0.8442      1.2935      0.8335      1.1298      0.1234      0.6372      0.0000
 35      0.2825     13.1882      8.3918     11.7582      6.9751     13.9879      7.7728     10.2964      8.2626
 36      0.0000      0.4909      3.1533      0.5938      1.0478      0.4889      0.9506      0.8945      1.7443
 37      0.0000      0.3372      0.5049      0.4873      0.0000      0.0000      0.0226      0.1643      0.0000
 38      0.0000      0.3110      0.2036      0.4378      0.4467      0.1529      0.0000      0.0000      1.7022
 39      0.3075      0.4190      0.3889      1.0773      2.4072      0.2752      0.5292      1.1939      0.8562
 40      0.0000      0.4619      0.1971      0.2952      1.4820      1.1832      2.0896      0.8517      0.1712
 41      0.1301      0.3560      1.1535      0.1278      1.0738      0.8831      0.6497      0.0000      0.7042
 42      0.0000      0.3543      0.1918      0.6801      0.3182      0.0000      0.6195      0.6266      3.5347
 43      0.0000      0.3269      3.0889      0.2294      0.0000      0.0000      1.2230      0.0000      1.2964
 44      0.0000      0.4790      0.1070      0.2186      3.2606      0.7644      0.0000      2.4730      0.0000
 45      0.0000      0.3800      0.7831      0.9898      0.0000      0.6027      0.8789      1.8229      1.2988
 46      0.1043      0.3747      0.6828      0.0000      0.3196      0.2507      0.8966      0.1121      1.1232
