###################################################################
## OUTPUT of StarlightChains_v04.for    [Cid@UFSC - 01/Apr/2007] ##
###################################################################

## Some input info
KUG0210-078._29_29.txt                   [arq_obs]
Base.CB07.vall.4m                        [arq_base]
Masks.EmLines.NEW.gm                     [arq_masks]
StCv04.C11.config                        [arq_config]
   66                                    [N_base]
    0                                    [N_YAV_components = # of components with extra extinction!]
    0                                    [i_FitPowerLaw (1/0 = Yes/No)]
-9.99                                    [alpha_PowerLaw]
CCM                                      [red_law_option]
 1.458241                                [q_norm = A(l_norm)/A(V)]

## (Re)Sampling Parameters
 3741.00                                 [l_ini (A)]
 7218.00                                 [l_fin (A)]
    1.00                                 [dl    (A)]     (OBS: dl_cushion =    50.00 A)

## Normalization info
 4020.00                                 [l_norm (A) - for base]
 4010.00                                 [llow_norm (A) - window for f_obs]
 4060.00                                 [lupp_norm (A) - window for f_obs]
3.793937E-17                             [fobs_norm (in input units)]

## S/N
 3691.00                                 [llow_SN (A) - window for S/N]
 7268.00                                 [lupp_SN (A) - window for S/N]
   5.504                                 [S/N in S/N window]
   5.893                                 [S/N in norm. window]
   0.050                                 [S/N_err in S/N window]
   0.053                                 [S/N_err in norm. window]
  1.0000                                 [fscale_chi2]

## etc...
    -2007405                             [idum_orig]
  2432                                   [NOl_eff]
  2276                                   [Nl_eff]
   156    NSIGMA                         [Ntot_cliped & clip_method]
 15288210                                [Nglobal_steps]
   7                                     [N_chains]
  26                                     [NEX0s_base = N_base in EX0s-fits]
 0   0   1      156   2.0   2.070E+04    [Clip-Bug, RC-Crash & Burn-In warning-flags, n_censored_weights, wei_nsig_threshold & wei_limit]
    90     89.645     88.853      0.791  [idt_all, wdt_TotTime, wdt_UsrTime & wdt_SysTime (sec)]

## Synthesis Results - Best model ##

 3.34200E-05                             [chi2/Nl_eff]
     7.91336                             [adev (%)]

    97.77632                             [sum-of-x (%)]
 1.86391E-17                             [Flux_tot (units of input spectrum!)]
 1.38237E-12                             [Mini_tot (???)]
 7.01962E-13                             [Mcor_tot (???)]

  25.31                                  [v0_min  (km/s)]
 231.04                                  [vd_min  (km/s)]
-0.5124                                  [AV_min  (mag)]
 0.0000                                  [YAV_min (mag)]

# j     x_j(%)      Mini_j(%)     Mcor_j(%)     age_j(yr)     Z_j      (L/M)_j    YAV?  Mstars   component_j        a/Fe...       SSP_chi2r SSP_adev(%)   SSP_AV   SSP_x(%)
  1      0.0000     0.0000E+00    0.0000E+00    1.000000E+06  0.00400  1.094E-02    0   1.0000   age020_m42            0.0000     1.3172E-04    15.8237   3.4007    77.9119
  2      0.0000     0.0000E+00    0.0000E+00    3.160000E+06  0.00400  4.007E-02    0   0.9999   age045_m42            0.0000     1.0013E-04    13.8329   2.6475    84.0763
  3      0.0000     0.0000E+00    0.0000E+00    5.010000E+06  0.00400  2.539E-02    0   0.9488   age055_m42            0.0000     1.1429E-04    14.7018   2.9800    81.6116
  4      0.0000     0.0000E+00    0.0000E+00    6.610000E+06  0.00400  2.620E-02    0   0.9220   age061_m42            0.0000     9.9482E-05    13.6474   2.5735    84.1961
  5      0.0000     0.0000E+00    0.0000E+00    1.000000E+07  0.00400  1.322E-02    0   0.8862   age070_m42            0.0000     1.0756E-04    13.9788   2.3067    85.0638
  6      0.0000     0.0000E+00    0.0000E+00    1.445000E+07  0.00400  7.883E-03    0   0.8571   age078_m42            0.0000     1.1574E-04    14.4816   2.6379    82.8149
  7      0.0000     0.0000E+00    0.0000E+00    2.512000E+07  0.00400  5.251E-03    0   0.8174   age090_m42            0.0000     1.0737E-04    13.9837   2.1788    85.4224
  8      0.0000     0.0000E+00    0.0000E+00    4.000000E+07  0.00400  3.649E-03    0   0.7851   age104_m42            0.0000     1.0039E-04    13.5496   1.9445    86.4234
  9      0.0000     0.0000E+00    0.0000E+00    5.500000E+07  0.00400  3.098E-03    0   0.7629   age110_m42            0.0000     9.2487E-05    12.9180   2.0828    87.0313
 10      0.0000     0.0000E+00    0.0000E+00    1.015200E+08  0.00400  2.228E-03    0   0.7207   age116_m42            0.0000     8.7012E-05    12.5049   2.0961    87.5594
 11      0.0000     0.0000E+00    0.0000E+00    2.861200E+08  0.00400  1.093E-03    0   0.6648   age125_m42            0.0000     7.9905E-05    11.7109   1.5210    90.1095
 12      0.0000     0.0000E+00    0.0000E+00    5.088000E+08  0.00400  6.597E-04    0   0.6365   age130_m42            0.0000     7.0459E-05    11.0873   1.4996    91.5641
 13      0.0000     0.0000E+00    0.0000E+00    1.434000E+09  0.00400  2.132E-04    0   0.5798   age139_m42            0.0000     5.2810E-05    10.1203   0.5211    94.0294
 14      0.0000     0.0000E+00    0.0000E+00    4.250000E+09  0.00400  5.895E-05    0   0.5377   age158_m42            0.0000     5.3089E-05    10.2895   0.0700    91.0933
 15      0.0000     0.0000E+00    0.0000E+00    7.500000E+09  0.00400  3.510E-05    0   0.5212   age171_m42            0.0000     5.0594E-05     9.9188  -0.1301    90.9365
 16      0.0000     0.0000E+00    0.0000E+00    1.300000E+10  0.00400  2.005E-05    0   0.5034   age193_m42            0.0000     4.8964E-05     9.6453  -0.3054    90.7977
 17      0.0000     0.0000E+00    0.0000E+00    1.800000E+10  0.00400  1.525E-05    0   0.4967   age213_m42            0.0000     5.0345E-05     9.8237  -0.3233    90.2717
 18      0.0000     0.0000E+00    0.0000E+00    1.000000E+06  0.00800  1.238E-02    0   1.0000   age020_m52            0.0000     1.3178E-04    15.8212   3.3961    78.0893
 19      0.0000     0.0000E+00    0.0000E+00    3.160000E+06  0.00800  3.074E-02    0   0.9966   age045_m52            0.0000     1.2936E-04    15.7103   3.3185    78.8420
 20      0.0000     0.0000E+00    0.0000E+00    5.010000E+06  0.00800  2.668E-02    0   0.9443   age055_m52            0.0000     1.1877E-04    14.9697   3.0663    80.7710
 21      0.0000     0.0000E+00    0.0000E+00    6.610000E+06  0.00800  2.136E-02    0   0.9177   age061_m52            0.0000     1.0283E-04    13.9181   1.8070    86.1970
 22      0.0000     0.0000E+00    0.0000E+00    1.000000E+07  0.00800  1.215E-02    0   0.8827   age070_m52            0.0000     1.1508E-04    14.3490   2.4922    84.5260
 23      0.0000     0.0000E+00    0.0000E+00    1.445000E+07  0.00800  8.717E-03    0   0.8552   age078_m52            0.0000     1.1271E-04    14.2824   2.6009    84.0237
 24      0.0000     0.0000E+00    0.0000E+00    2.512000E+07  0.00800  5.592E-03    0   0.8162   age090_m52            0.0000     1.0562E-04    13.8071   2.2409    86.4575
 25      0.0000     0.0000E+00    0.0000E+00    4.000000E+07  0.00800  3.896E-03    0   0.7841   age104_m52            0.0000     9.7444E-05    13.1797   2.1413    87.5416
 26      0.0000     0.0000E+00    0.0000E+00    1.015200E+08  0.00800  2.148E-03    0   0.7226   age116_m52            0.0000     8.7901E-05    12.5329   2.0673    88.0224
 27      0.0000     0.0000E+00    0.0000E+00    2.861200E+08  0.00800  9.925E-04    0   0.6683   age125_m52            0.0000     6.9239E-05    10.9365   1.5625    92.4260
 28      0.0000     0.0000E+00    0.0000E+00    9.047900E+08  0.00800  3.141E-04    0   0.6138   age135_m52            0.0000     4.5087E-05     9.1772   0.7334    97.7513
 29      0.0000     0.0000E+00    0.0000E+00    1.434000E+09  0.00800  1.719E-04    0   0.5853   age139_m52            0.0000     4.6174E-05     9.4230   0.1620    95.6596
 30      0.0000     0.0000E+00    0.0000E+00    2.500000E+09  0.00800  7.872E-05    0   0.5600   age150_m52            0.0000     4.3855E-05     9.1863  -0.1292    94.0884
 31      0.0000     0.0000E+00    0.0000E+00    4.250000E+09  0.00800  4.336E-05    0   0.5426   age158_m52            0.0000     4.5271E-05     9.3215  -0.1428    93.2031
 32      0.0000     0.0000E+00    0.0000E+00    6.250000E+09  0.00800  3.159E-05    0   0.5319   age166_m52            0.0000     4.1379E-05     8.8972  -0.3623    93.9306
 33      5.1384     5.2063E+00    5.2013E+00    1.300000E+10  0.00800  1.361E-05    0   0.5073   age193_m52            0.0000     3.8457E-05     8.4589  -0.8522    94.2567
 34      0.0000     0.0000E+00    0.0000E+00    1.800000E+10  0.00800  9.886E-06    0   0.4990   age213_m52            0.0000     3.7749E-05     8.3342  -0.9806    94.6114
 35      0.0000     0.0000E+00    0.0000E+00    1.000000E+06  0.02000  1.544E-02    0   1.0000   age020_m62            0.0000     1.3265E-04    15.8875   3.3939    78.2351
 36      0.0000     0.0000E+00    0.0000E+00    3.160000E+06  0.02000  3.762E-02    0   0.9858   age045_m62            0.0000     1.3189E-04    15.8048   3.3290    79.0140
 37      0.4327     1.8105E-04    3.3308E-04    5.010000E+06  0.02000  3.296E-02    0   0.9342   age055_m62            0.0000     1.0790E-04    14.2248   2.9298    82.9369
 38      0.0000     0.0000E+00    0.0000E+00    8.710000E+06  0.02000  1.154E-02    0   0.8861   age067_m62            0.0000     1.5057E-04    16.6938   1.9815    84.8780
 39      0.0000     0.0000E+00    0.0000E+00    1.445000E+07  0.02000  7.663E-03    0   0.8472   age078_m62            0.0000     1.1971E-04    14.5427   2.1450    85.9811
 40      0.0000     0.0000E+00    0.0000E+00    2.512000E+07  0.02000  4.532E-03    0   0.8099   age090_m62            0.0000     1.2013E-04    14.4934   2.1382    85.6556
 41      0.0000     0.0000E+00    0.0000E+00    5.500000E+07  0.02000  2.733E-03    0   0.7595   age110_m62            0.0000     9.9773E-05    13.3327   2.1286    86.8110
 42      0.0000     0.0000E+00    0.0000E+00    1.609000E+08  0.02000  1.369E-03    0   0.6985   age120_m62            0.0000     8.1385E-05    11.8528   1.9394    90.3111
 43      3.9847     6.0967E-02    8.0610E-02    2.861200E+08  0.02000  9.013E-04    0   0.6714   age125_m62            0.0000     6.9420E-05    10.8678   1.6718    93.6407
 44     16.5295     4.5335E-01    5.7575E-01    5.088000E+08  0.02000  5.028E-04    0   0.6449   age130_m62            0.0000     5.2450E-05     9.6445   1.2638    97.4849
 45      0.0000     0.0000E+00    0.0000E+00    9.047900E+08  0.02000  2.428E-04    0   0.6179   age135_m62            0.0000     4.3302E-05     9.1349   0.6682    97.5674
 46      0.0000     0.0000E+00    0.0000E+00    1.434000E+09  0.02000  1.263E-04    0   0.5908   age139_m62            0.0000     4.3038E-05     9.0962   0.2214    96.3748
 47      0.0000     0.0000E+00    0.0000E+00    2.500000E+09  0.02000  5.985E-05    0   0.5673   age150_m62            0.0000     4.1199E-05     8.9335  -0.1625    95.9096
 48      0.0000     0.0000E+00    0.0000E+00    4.250000E+09  0.02000  3.271E-05    0   0.5468   age158_m62            0.0000     3.8251E-05     8.5395  -0.4915    96.1853
 49     13.3443     1.3531E+01    1.3768E+01    1.000000E+10  0.02000  1.360E-05    0   0.5167   age181_m62            0.0000     3.7233E-05     8.2647  -0.8761    97.2442
 50     10.8548     2.1012E+01    2.0743E+01    1.800000E+10  0.02000  7.124E-06    0   0.5013   age213_m62            0.0000     4.1667E-05     8.9792  -1.0000    94.5384
 51      0.0000     0.0000E+00    0.0000E+00    1.000000E+06  0.05000  2.592E-02    0   0.9998   age020_m72            0.0000     1.3594E-04    16.0879   3.3888    78.1682
 52      0.0000     0.0000E+00    0.0000E+00    3.160000E+06  0.05000  4.845E-02    0   0.9577   age045_m72            0.0000     1.2276E-04    15.2395   3.2041    80.3283
 53      0.0000     0.0000E+00    0.0000E+00    5.010000E+06  0.05000  3.072E-02    0   0.9147   age055_m72            0.0000     1.2338E-04    14.5628   2.7279    83.0507
 54      0.0000     0.0000E+00    0.0000E+00    6.610000E+06  0.05000  1.455E-02    0   0.8877   age061_m72            0.0000     1.7204E-04    17.8749   2.0303    84.8599
 55      0.0000     0.0000E+00    0.0000E+00    1.000000E+07  0.05000  9.074E-03    0   0.8524   age070_m72            0.0000     1.2456E-04    14.2932   2.9128    82.7304
 56      0.0000     0.0000E+00    0.0000E+00    2.512000E+07  0.05000  4.250E-03    0   0.7902   age090_m72            0.0000     1.1256E-04    13.6433   2.5972    84.6651
 57      0.0000     0.0000E+00    0.0000E+00    4.000000E+07  0.05000  3.087E-03    0   0.7618   age104_m72            0.0000     1.0820E-04    13.3889   2.3688    86.0736
 58      0.0000     0.0000E+00    0.0000E+00    1.015200E+08  0.05000  1.700E-03    0   0.7096   age116_m72            0.0000     8.7510E-05    12.1782   2.0888    89.5200
 59      5.2688     9.8399E-02    1.2853E-01    2.861200E+08  0.05000  7.384E-04    0   0.6633   age125_m72            0.0000     6.0304E-05    10.1154   1.5210    95.7169
 60      0.0000     0.0000E+00    0.0000E+00    5.088000E+08  0.05000  3.819E-04    0   0.6372   age130_m72            0.0000     4.6921E-05     9.4317   1.0112    98.3628
 61     10.2594     8.4414E-01    1.0157E+00    9.047900E+08  0.05000  1.676E-04    0   0.6110   age135_m72            0.0000     4.1743E-05     9.0307   0.2916    97.8771
 62      0.0000     0.0000E+00    0.0000E+00    1.434000E+09  0.05000  8.837E-05    0   0.5874   age139_m72            0.0000     3.9954E-05     8.7561  -0.1710    97.6810
 63      4.9585     1.6154E+00    1.7808E+00    2.500000E+09  0.05000  4.233E-05    0   0.5598   age150_m72            0.0000     3.7540E-05     8.4592  -0.5066    97.5580
 64      0.0000     0.0000E+00    0.0000E+00    6.250000E+09  0.05000  1.435E-05    0   0.5249   age166_m72            0.0000     3.8554E-05     8.3801  -0.9818    97.2533
 65     27.0051     5.7178E+01    5.6706E+01    1.300000E+10  0.05000  6.513E-06    0   0.5036   age193_m72            0.0000     5.5088E-05    10.8000  -1.0000    91.3114
 66      0.0000     0.0000E+00    0.0000E+00    1.800000E+10  0.05000  4.527E-06    0   0.4945   age213_m72            0.0000     7.8418E-05    13.0832  -1.0000    86.6308


## Synthesis Results - Average & Chains ##

# j      x_j: min, <> & last-chain-values for 1 ...  7 chains
  1      0.0000      0.4023      0.0175      0.2132      0.0000      0.0190      0.0052      0.0000      0.0000
  2      0.0000      0.3975      0.0000      0.7089      0.0000      0.1172      0.0815      0.2865      0.1424
  3      0.0000      3.2823      1.8890      3.1072      0.9914      3.7829      4.6401      1.2917      3.0517
  4      0.0000      0.8563      0.8198      0.8561      3.3065      0.6748      0.5395      0.6510      0.8046
  5      0.0000      5.2030      5.1812      5.8879      4.5335      5.7817      6.6682      5.4020      6.0047
  6      0.0000      0.3122      0.0858      0.1041      0.0000      0.0000      0.5384      0.1139      0.0000
  7      0.0000      0.7152      0.7766      0.6140      2.1670      0.6339      0.8810      0.3261      0.8076
  8      0.0000      1.7499      2.0204      1.9570      1.1412      1.9122      1.9306      1.8416      1.9471
  9      0.0000      2.5435      2.8459      2.1217      3.1225      2.5011      2.6209      2.6659      2.6906
 10      0.0000      3.0789      3.5095      2.3696      2.4674      3.4162      3.6460      3.3320      3.8300
 11      0.0000      0.2675      0.0004      0.6650      0.1463      0.0439      0.0000      0.0000      0.0000
 12      0.0000      2.8342      0.0044      3.0262      1.7192      2.7325      3.0124      1.3846      3.3826
 13      0.0000      0.3308      0.0303      0.1642      0.9342      0.3388      0.0000      0.0467      0.1572
 14      0.0000      0.3531      0.0001      0.8337      1.1961      0.0000      0.4092      0.1128      0.1191
 15      0.0000      0.3131      0.0532      0.0000      0.1150      0.1819      0.0271      0.1350      0.0744
 16      0.0000      1.8380      4.6034      1.5878      1.1397      2.1976      0.7856      1.2337      1.1410
 17      0.0000      0.2981      0.0196      0.0194      0.0000      0.2906      0.3641      0.0000      0.0782
 18      0.0000      0.4250      0.0074      0.0000      0.0000      0.0000      0.3858      0.0710      0.0000
 19      0.0000      0.2752      0.1951      0.0000      0.0000      0.0000      0.0580      0.1910      0.0237
 20      0.0000      0.3789      0.0127      0.1584      0.0000      0.1962      0.0000      0.0715      0.0324
 21      0.0000      4.8667      4.2903      6.1931      4.4584      4.9464      5.2875      4.0845      4.9001
 22      0.0000      0.8638      0.8180      0.5548      0.3538      0.8235      0.9642      0.7766      0.5428
 23      0.0000      0.4626      0.3172      0.1131      0.0000      0.4759      0.0000      0.1784      0.2525
 24      0.0000      0.3066      0.0156      0.0000      0.0737      0.2003      0.0803      0.1569      0.1788
 25      0.0000      0.4103      0.0000      1.4243      2.5551      0.0000      0.5137      0.1207      0.0254
 26      0.0000      0.3070      0.0000      0.1146      0.6885      0.0212      0.0156      0.0940      0.2754
 27      0.0000      0.3084      0.0000      0.3234      0.9708      0.6645      0.2851      0.0000      0.0000
 28      0.0000      0.2639      0.0010      0.3256      0.0265      0.0516      0.2349      0.2320      0.0000
 29      0.0000      0.3922      0.0000      0.0000      0.0000      0.0205      0.4486      0.1298      0.1485
 30      0.0000      0.3705      0.0415      0.4421      0.0000      0.0477      0.4976      0.1550      0.0000
 31      0.0000      1.0560      0.0001      1.2290      0.0000      0.8057      0.4676      1.2495      2.5156
 32      0.0000      0.3525      0.1261      0.6795      0.5189      0.6535      0.1060      0.2759      0.2422
 33      5.1384      2.2838      2.6416      2.0575      0.8488      2.7762      2.5941      2.5655      2.7727
 34      0.0000      1.9301      2.1529      1.7542      1.6278      1.9893      2.0851      2.1004      2.3280
 35      0.0000      0.8763      0.8491      0.3838      0.6240      0.3306      1.0169      0.8127      0.5612
 36      0.0000      1.3742      1.6744      1.3134      1.3784      2.1512      1.4952      0.0937      1.1450
 37      0.4327      2.7376      1.9588      2.5847      1.7334      3.5362      2.9743      1.6234      2.4455
 38      0.0000      0.5560      0.0086      0.3610      1.2446      0.3918      0.1602      0.2574      0.7937
 39      0.0000      0.3028      0.0006      0.3210      1.8181      0.0815      0.0000      0.0747      0.2067
 40      0.0000      0.3093      0.0003      0.4195      0.0000      0.0045      0.0247      0.0195      0.0000
 41      0.0000      0.3920      0.0165      0.0000      0.0000      0.0000      0.5688      0.0522      0.2968
 42      0.0000      1.5586      0.7472      1.1360      0.5329      1.7258      1.7439      4.6789      1.4315
 43      3.9847      2.0181      2.6110      1.5393      1.5049      2.1282      2.1406      2.3347      1.9393
 44     16.5295      0.4472      0.6156      0.1981      0.7007      0.0000      0.2418      0.4604      0.5058
 45      0.0000      0.4236      0.0617      0.3608      2.9020      0.4973      0.6834      0.1997      0.0000
 46      0.0000      0.3317      0.0000      0.0013      0.3208      0.1812      0.0000      0.0804      0.2039
