###################################################################
## OUTPUT of StarlightChains_v04.for    [Cid@UFSC - 01/Apr/2007] ##
###################################################################

## Some input info
KUG0210-078._50_48.txt                   [arq_obs]
Base.CB07.vall.4m                        [arq_base]
Masks.EmLines.NEW.gm                     [arq_masks]
StCv04.C11.config                        [arq_config]
   66                                    [N_base]
    0                                    [N_YAV_components = # of components with extra extinction!]
    0                                    [i_FitPowerLaw (1/0 = Yes/No)]
-9.99                                    [alpha_PowerLaw]
CCM                                      [red_law_option]
 1.458241                                [q_norm = A(l_norm)/A(V)]

## (Re)Sampling Parameters
 3741.00                                 [l_ini (A)]
 7218.00                                 [l_fin (A)]
    1.00                                 [dl    (A)]     (OBS: dl_cushion =    50.00 A)

## Normalization info
 4020.00                                 [l_norm (A) - for base]
 4010.00                                 [llow_norm (A) - window for f_obs]
 4060.00                                 [lupp_norm (A) - window for f_obs]
3.773514E-18                             [fobs_norm (in input units)]

## S/N
 3691.00                                 [llow_SN (A) - window for S/N]
 7268.00                                 [lupp_SN (A) - window for S/N]
   2.723                                 [S/N in S/N window]
   1.666                                 [S/N in norm. window]
   0.007                                 [S/N_err in S/N window]
   0.004                                 [S/N_err in norm. window]
  1.0000                                 [fscale_chi2]

## etc...
    -2007965                             [idum_orig]
  2358                                   [NOl_eff]
  2206                                   [Nl_eff]
   152    NSIGMA                         [Ntot_cliped & clip_method]
  5232010                                [Nglobal_steps]
   7                                     [N_chains]
   7                                     [NEX0s_base = N_base in EX0s-fits]
 0   0   1      152   2.0   2.064E+03    [Clip-Bug, RC-Crash & Burn-In warning-flags, n_censored_weights, wei_nsig_threshold & wei_limit]
    46     45.688     45.176      0.512  [idt_all, wdt_TotTime, wdt_UsrTime & wdt_SysTime (sec)]

## Synthesis Results - Best model ##

 1.86273E-05                             [chi2/Nl_eff]
    33.00112                             [adev (%)]

   130.00000                             [sum-of-x (%)]
 4.42548E-16                             [Flux_tot (units of input spectrum!)]
 4.04523E-14                             [Mini_tot (???)]
 4.04523E-14                             [Mcor_tot (???)]

 -72.23                                  [v0_min  (km/s)]
   2.51                                  [vd_min  (km/s)]
 3.3521                                  [AV_min  (mag)]
 0.0000                                  [YAV_min (mag)]

# j     x_j(%)      Mini_j(%)     Mcor_j(%)     age_j(yr)     Z_j      (L/M)_j    YAV?  Mstars   component_j        a/Fe...       SSP_chi2r SSP_adev(%)   SSP_AV   SSP_x(%)
  1    130.0000     1.0000E+02    1.0000E+02    1.000000E+06  0.00400  1.094E-02    0   1.0000   age020_m42            0.0000     1.4731E-05    30.2744   2.6068   181.2677
  2      0.0000     0.0000E+00    0.0000E+00    3.160000E+06  0.00400  4.007E-02    0   0.9999   age045_m42            0.0000     1.4517E-05    31.1139   1.9431   188.3994
  3      0.0000     0.0000E+00    0.0000E+00    5.010000E+06  0.00400  2.539E-02    0   0.9488   age055_m42            0.0000     1.4663E-05    30.8086   2.2387   185.8206
  4      0.0000     0.0000E+00    0.0000E+00    6.610000E+06  0.00400  2.620E-02    0   0.9220   age061_m42            0.0000     1.4646E-05    31.3226   1.8832   187.7739
  5      0.0000     0.0000E+00    0.0000E+00    1.000000E+07  0.00400  1.322E-02    0   0.8862   age070_m42            0.0000     1.5019E-05    32.6744   1.6297   189.9896
  6      0.0000     0.0000E+00    0.0000E+00    1.445000E+07  0.00400  7.883E-03    0   0.8571   age078_m42            0.0000     1.5021E-05    32.1974   1.9335   186.9375
  7      0.0000     0.0000E+00    0.0000E+00    2.512000E+07  0.00400  5.251E-03    0   0.8174   age090_m42            0.0000     1.5113E-05    33.0276   1.5123   190.1086
  8      0.0000     0.0000E+00    0.0000E+00    4.000000E+07  0.00400  3.649E-03    0   0.7851   age104_m42            0.0000     1.5083E-05    32.9968   1.2926   190.8644
  9      0.0000     0.0000E+00    0.0000E+00    5.500000E+07  0.00400  3.098E-03    0   0.7629   age110_m42            0.0000     1.4803E-05    32.5090   1.4420   191.0581
 10      0.0000     0.0000E+00    0.0000E+00    1.015200E+08  0.00400  2.228E-03    0   0.7207   age116_m42            0.0000     1.4688E-05    32.2389   1.4626   191.1935
 11      0.0000     0.0000E+00    0.0000E+00    2.861200E+08  0.00400  1.093E-03    0   0.6648   age125_m42            0.0000     1.4977E-05    33.2171   0.9259   193.8685
 12      0.0000     0.0000E+00    0.0000E+00    5.088000E+08  0.00400  6.597E-04    0   0.6365   age130_m42            0.0000     1.4769E-05    32.7159   0.9138   195.4726
 13      0.0000     0.0000E+00    0.0000E+00    1.434000E+09  0.00400  2.132E-04    0   0.5798   age139_m42            0.0000     1.5065E-05    32.6166  -0.0238   196.3785
 14      0.0000     0.0000E+00    0.0000E+00    4.250000E+09  0.00400  5.895E-05    0   0.5377   age158_m42            0.0000     1.5397E-05    31.2175  -0.4843   189.8196
 15      0.0000     0.0000E+00    0.0000E+00    7.500000E+09  0.00400  3.510E-05    0   0.5212   age171_m42            0.0000     1.5555E-05    30.8854  -0.6711   188.2150
 16      0.0000     0.0000E+00    0.0000E+00    1.300000E+10  0.00400  2.005E-05    0   0.5034   age193_m42            0.0000     1.5689E-05    30.6557  -0.8362   186.9195
 17      0.0000     0.0000E+00    0.0000E+00    1.800000E+10  0.00400  1.525E-05    0   0.4967   age213_m42            0.0000     1.5651E-05    30.6627  -0.8642   186.5063
 18      0.0000     0.0000E+00    0.0000E+00    1.000000E+06  0.00800  1.238E-02    0   1.0000   age020_m52            0.0000     1.4701E-05    30.2602   2.5995   181.8714
 19      0.0000     0.0000E+00    0.0000E+00    3.160000E+06  0.00800  3.074E-02    0   0.9966   age045_m52            0.0000     1.4671E-05    30.1945   2.5218   183.3968
 20      0.0000     0.0000E+00    0.0000E+00    5.010000E+06  0.00800  2.668E-02    0   0.9443   age055_m52            0.0000     1.4722E-05    30.7112   2.3149   184.7233
 21      0.0000     0.0000E+00    0.0000E+00    6.610000E+06  0.00800  2.136E-02    0   0.9177   age061_m52            0.0000     1.5246E-05    32.4083   1.1346   191.7350
 22      0.0000     0.0000E+00    0.0000E+00    1.000000E+07  0.00800  1.215E-02    0   0.8827   age070_m52            0.0000     1.5140E-05    32.9074   1.7997   190.2171
 23      0.0000     0.0000E+00    0.0000E+00    1.445000E+07  0.00800  8.717E-03    0   0.8552   age078_m52            0.0000     1.5039E-05    32.3688   1.9084   188.8387
 24      0.0000     0.0000E+00    0.0000E+00    2.512000E+07  0.00800  5.592E-03    0   0.8162   age090_m52            0.0000     1.5114E-05    33.1953   1.5781   192.0526
 25      0.0000     0.0000E+00    0.0000E+00    4.000000E+07  0.00800  3.896E-03    0   0.7841   age104_m52            0.0000     1.5020E-05    33.0662   1.4954   192.7963
 26      0.0000     0.0000E+00    0.0000E+00    1.015200E+08  0.00800  2.148E-03    0   0.7226   age116_m52            0.0000     1.4940E-05    32.5781   1.4397   191.8003
 27      0.0000     0.0000E+00    0.0000E+00    2.861200E+08  0.00800  9.925E-04    0   0.6683   age125_m52            0.0000     1.4867E-05    32.7745   0.9852   196.6846
 28      0.0000     0.0000E+00    0.0000E+00    9.047900E+08  0.00800  3.141E-04    0   0.6138   age135_m52            0.0000     1.4848E-05    32.3852   0.2055   202.5231
 29      0.0000     0.0000E+00    0.0000E+00    1.434000E+09  0.00800  1.719E-04    0   0.5853   age139_m52            0.0000     1.5368E-05    32.0583  -0.3740   197.8838
 30      0.0000     0.0000E+00    0.0000E+00    2.500000E+09  0.00800  7.872E-05    0   0.5600   age150_m52            0.0000     1.5421E-05    30.8776  -0.6602   193.8157
 31      0.0000     0.0000E+00    0.0000E+00    4.250000E+09  0.00800  4.336E-05    0   0.5426   age158_m52            0.0000     1.5502E-05    30.7386  -0.6769   192.1218
 32      0.0000     0.0000E+00    0.0000E+00    6.250000E+09  0.00800  3.159E-05    0   0.5319   age166_m52            0.0000     1.5672E-05    30.4036  -0.8757   191.5536
 33      0.0000     0.0000E+00    0.0000E+00    1.300000E+10  0.00800  1.361E-05    0   0.5073   age193_m52            0.0000     1.6379E-05    35.1817  -1.0000   176.2438
 34      0.0000     0.0000E+00    0.0000E+00    1.800000E+10  0.00800  9.886E-06    0   0.4990   age213_m52            0.0000     1.6795E-05    36.7688  -1.0000   170.7644
 35      0.0000     0.0000E+00    0.0000E+00    1.000000E+06  0.02000  1.544E-02    0   1.0000   age020_m62            0.0000     1.4700E-05    30.2070   2.5899   182.6502
 36      0.0000     0.0000E+00    0.0000E+00    3.160000E+06  0.02000  3.762E-02    0   0.9858   age045_m62            0.0000     1.4680E-05    30.1508   2.5278   184.3157
 37      0.0000     0.0000E+00    0.0000E+00    5.010000E+06  0.02000  3.296E-02    0   0.9342   age055_m62            0.0000     1.4629E-05    30.7752   2.2085   187.2252
 38      0.0000     0.0000E+00    0.0000E+00    8.710000E+06  0.02000  1.154E-02    0   0.8861   age067_m62            0.0000     1.6019E-05    35.7764   1.2675   194.8602
 39      0.0000     0.0000E+00    0.0000E+00    1.445000E+07  0.02000  7.663E-03    0   0.8472   age078_m62            0.0000     1.5445E-05    33.9460   1.4648   193.1410
 40      0.0000     0.0000E+00    0.0000E+00    2.512000E+07  0.02000  4.532E-03    0   0.8099   age090_m62            0.0000     1.5521E-05    34.1967   1.4620   191.9566
 41      0.0000     0.0000E+00    0.0000E+00    5.500000E+07  0.02000  2.733E-03    0   0.7595   age110_m62            0.0000     1.5123E-05    33.0089   1.4790   191.4676
 42      0.0000     0.0000E+00    0.0000E+00    1.609000E+08  0.02000  1.369E-03    0   0.6985   age120_m62            0.0000     1.4876E-05    32.7806   1.3356   194.9657
 43      0.0000     0.0000E+00    0.0000E+00    2.861200E+08  0.02000  9.013E-04    0   0.6714   age125_m62            0.0000     1.4744E-05    32.8076   1.0995   199.1840
 44      0.0000     0.0000E+00    0.0000E+00    5.088000E+08  0.02000  5.028E-04    0   0.6449   age130_m62            0.0000     1.4513E-05    32.1970   0.7207   204.0033
 45      0.0000     0.0000E+00    0.0000E+00    9.047900E+08  0.02000  2.428E-04    0   0.6179   age135_m62            0.0000     1.4900E-05    31.5598   0.1383   201.7617
 46      0.0000     0.0000E+00    0.0000E+00    1.434000E+09  0.02000  1.263E-04    0   0.5908   age139_m62            0.0000     1.5279E-05    31.1112  -0.3061   198.4995
 47      0.0000     0.0000E+00    0.0000E+00    2.500000E+09  0.02000  5.985E-05    0   0.5673   age150_m62            0.0000     1.5524E-05    30.3937  -0.6826   196.1974
 48      0.0000     0.0000E+00    0.0000E+00    4.250000E+09  0.02000  3.271E-05    0   0.5468   age158_m62            0.0000     1.5824E-05    29.7204  -0.9957   194.4406
 49      0.0000     0.0000E+00    0.0000E+00    1.000000E+10  0.02000  1.360E-05    0   0.5167   age181_m62            0.0000     1.6526E-05    34.3445  -1.0000   179.5771
 50      0.0000     0.0000E+00    0.0000E+00    1.800000E+10  0.02000  7.124E-06    0   0.5013   age213_m62            0.0000     1.7421E-05    37.8008  -1.0000   169.0889
 51      0.0000     0.0000E+00    0.0000E+00    1.000000E+06  0.05000  2.592E-02    0   0.9998   age020_m72            0.0000     1.4626E-05    30.1941   2.5707   183.6358
 52      0.0000     0.0000E+00    0.0000E+00    3.160000E+06  0.05000  4.845E-02    0   0.9577   age045_m72            0.0000     1.4685E-05    30.2961   2.4360   184.7528
 53      0.0000     0.0000E+00    0.0000E+00    5.010000E+06  0.05000  3.072E-02    0   0.9147   age055_m72            0.0000     1.5159E-05    32.5376   2.0029   189.1078
 54      0.0000     0.0000E+00    0.0000E+00    6.610000E+06  0.05000  1.455E-02    0   0.8877   age061_m72            0.0000     1.6587E-05    37.2749   1.3000   196.2555
 55      0.0000     0.0000E+00    0.0000E+00    1.000000E+07  0.05000  9.074E-03    0   0.8524   age070_m72            0.0000     1.5255E-05    32.6322   2.1678   188.7720
 56      0.0000     0.0000E+00    0.0000E+00    2.512000E+07  0.05000  4.250E-03    0   0.7902   age090_m72            0.0000     1.5196E-05    33.1255   1.9134   189.3101
 57      0.0000     0.0000E+00    0.0000E+00    4.000000E+07  0.05000  3.087E-03    0   0.7618   age104_m72            0.0000     1.5248E-05    33.6409   1.7037   191.0217
 58      0.0000     0.0000E+00    0.0000E+00    1.015200E+08  0.05000  1.700E-03    0   0.7096   age116_m72            0.0000     1.5004E-05    33.1567   1.4753   194.2306
 59      0.0000     0.0000E+00    0.0000E+00    2.861200E+08  0.05000  7.384E-04    0   0.6633   age125_m72            0.0000     1.4632E-05    32.4773   0.9657   201.7496
 60      0.0000     0.0000E+00    0.0000E+00    5.088000E+08  0.05000  3.819E-04    0   0.6372   age130_m72            0.0000     1.4664E-05    31.6060   0.4680   204.8433
 61      0.0000     0.0000E+00    0.0000E+00    9.047900E+08  0.05000  1.676E-04    0   0.6110   age135_m72            0.0000     1.5323E-05    30.4145  -0.2323   200.5966
 62      0.0000     0.0000E+00    0.0000E+00    1.434000E+09  0.05000  8.837E-05    0   0.5874   age139_m72            0.0000     1.5675E-05    30.4541  -0.6804   198.5389
 63      0.0000     0.0000E+00    0.0000E+00    2.500000E+09  0.05000  4.233E-05    0   0.5598   age150_m72            0.0000     1.5828E-05    29.6933  -0.9995   196.4717
 64      0.0000     0.0000E+00    0.0000E+00    6.250000E+09  0.05000  1.435E-05    0   0.5249   age166_m72            0.0000     1.6864E-05    36.0934  -1.0000   174.9360
 65      0.0000     0.0000E+00    0.0000E+00    1.300000E+10  0.05000  6.513E-06    0   0.5036   age193_m72            0.0000     1.8432E-05    40.8196  -1.0000   163.7256
 66      0.0000     0.0000E+00    0.0000E+00    1.800000E+10  0.05000  4.527E-06    0   0.4945   age213_m72            0.0000     1.9564E-05    43.5182  -1.0000   155.8007


## Synthesis Results - Average & Chains ##

# j      x_j: min, <> & last-chain-values for 1 ...  7 chains
  1    130.0000      8.7308      0.7070      0.7888     15.1263     17.5399     23.9789      0.3971      0.7578
  2      0.0000      0.1293      0.0093      0.0201      0.0000      0.0097      0.0291      0.0056      0.0089
  3      0.0000      0.1624      0.0050      0.0171      0.0064      0.0601      0.0365      0.0000      0.0210
  4      0.0000      0.0995      0.0036      0.0176      0.0000      0.0296      0.0215      0.0063      0.0215
  5      0.0000      0.1301      0.0000      0.0000      0.0000      0.0643      0.0069      0.0084      0.0000
  6      0.0000      0.1505      0.0066      0.0113      0.0017      0.1087      0.0240      0.0066      0.0107
  7      0.0000      0.1182      0.0080      0.0000      0.0012      0.0406      0.0000      0.0027      0.0000
  8      0.0000      0.1019      0.0000      0.0334      0.0983      0.0000      0.0784      0.0052      0.0000
  9      0.0000      0.1162      0.0000      0.0020      0.0355      0.0199      0.0078      0.0107      0.0000
 10      0.0000      0.1615      0.0000      0.0000      0.0034      0.0009      0.0174      0.0000      0.0228
 11      0.0000      0.1359      0.0114      0.0027      0.0337      0.0000      0.0323      0.0076      0.0000
 12      0.0000      0.1629      0.0026      0.0020      0.0201      0.0000      0.0342      0.0004      0.0135
 13      0.0000      0.1207      0.0157      0.0145      0.0000      0.0052      0.0000      0.0000      0.0077
 14      0.0000      0.1358      0.0057      0.0000      0.0000      0.0251      0.0225      0.0014      0.0062
 15      0.0000      0.1865      0.0047      0.0000      0.0110      0.0523      0.0119      0.0000      0.0120
 16      0.0000      0.1113      0.0119      0.0000      0.0143      0.0628      0.0252      0.0000      0.0160
 17      0.0000      0.1289      0.0019      0.0000      0.0284      0.0000      0.0112      0.0000      0.0361
 18      0.0000      0.1275      0.0010      0.0189      0.0022      0.0162      0.0122      0.0062      0.0036
 19      0.0000      0.1141      0.0000      0.0068      0.0159      0.0000      0.0007      0.0000      0.0000
 20      0.0000      0.1557      0.0011      0.0019      0.0000      0.0302      0.0000      0.0000      0.0091
 21      0.0000      0.1256      0.0106      0.0000      0.0000      0.0196      0.0000      0.0115      0.0166
 22      0.0000      0.1282      0.0000      0.0000      0.0000      0.0000      0.0348      0.0062      0.0066
 23      0.0000      0.1413      0.0151      0.0097      0.0000      0.0000      0.0373      0.0053      0.0131
 24      0.0000      0.1465      0.0091      0.0000      0.0000      0.0000      0.0397      0.0000      0.0095
 25      0.0000      0.1064      0.0019      0.0007      0.0000      0.0085      0.0000      0.0043      0.0042
 26      0.0000      0.1860      0.0021      0.0186      0.0000      0.0110      0.0000      0.0000      0.0060
 27      0.0000      0.1734      0.0000      0.0000      0.0275      0.0134      0.0111      0.0020      0.0000
 28      0.0000      0.1338      0.0323      0.0060      0.0000      0.0119      0.0261      0.0076      0.0000
 29      0.0000      0.1358      0.0036      0.0000      0.0198      0.0274      0.0479      0.0010      0.0228
 30      0.0000      0.1600      0.0000      0.0000      0.0359      0.0433      0.0489      0.0025      0.0162
 31      0.0000      0.1905      0.0149      0.0000      0.0798      0.0000      0.2390      0.0008      0.0000
 32      0.0000      0.1589      0.0040      0.0537      0.0194      0.0181      0.0066      0.0000      0.0032
 33      0.0000      0.1486      0.0001      0.0000      0.0000      0.0000      0.0700      0.0018      0.0111
 34      0.0000      0.1522      0.0000      0.0000      0.0198      0.0111      0.0479      0.0007      0.0075
 35      0.0000      0.1151      0.0199      0.0015      0.0156      0.0983      0.0149      0.0000      0.0084
 36      0.0000      0.1657      0.0245      0.0000      0.0162      0.0420      0.0382      0.0000      0.0094
 37      0.0000      0.1340      0.0141      0.0000      0.0057      0.0088      0.0201      0.0069      0.0069
 38      0.0000      0.1462      0.0067      0.0294      0.0285      0.0000      0.0447      0.0000      0.0000
 39      0.0000      0.1108      0.0036      0.0092      0.0000      0.0000      0.0058      0.0231      0.0156
 40      0.0000      0.1083      0.0000      0.0076      0.0044      0.0020      0.0151      0.0000      0.0000
 41      0.0000      0.1708      0.0006      0.0000      0.0094      0.0000      0.0394      0.0000      0.0078
 42      0.0000      0.1358      0.0129      0.0335      0.0206      0.0000      0.0461      0.0115      0.0018
 43      0.0000      0.1203      0.0105      0.0099      0.0055      0.0337      0.0208      0.0000      0.0004
 44      0.0000      0.1341      0.0000      0.0282      0.0376      0.0000      0.0000      0.0017      0.0011
 45      0.0000      0.1444      0.0035      0.0104      0.0005      0.0000      0.0000      0.0044      0.0035
 46      0.0000      0.1623      0.0073      0.0027      0.0224      0.0075      0.1166      0.0000      0.0102
