###################################################################
## OUTPUT of StarlightChains_v04.for    [Cid@UFSC - 01/Apr/2007] ##
###################################################################

## Some input info
KUG0210-078._5_58.txt                    [arq_obs]
Base.CB07.vall.4m                        [arq_base]
Masks.EmLines.NEW.gm                     [arq_masks]
StCv04.C11.config                        [arq_config]
   66                                    [N_base]
    0                                    [N_YAV_components = # of components with extra extinction!]
    0                                    [i_FitPowerLaw (1/0 = Yes/No)]
-9.99                                    [alpha_PowerLaw]
CCM                                      [red_law_option]
 1.458241                                [q_norm = A(l_norm)/A(V)]

## (Re)Sampling Parameters
 3741.00                                 [l_ini (A)]
 7218.00                                 [l_fin (A)]
    1.00                                 [dl    (A)]     (OBS: dl_cushion =    50.00 A)

## Normalization info
 4020.00                                 [l_norm (A) - for base]
 4010.00                                 [llow_norm (A) - window for f_obs]
 4060.00                                 [lupp_norm (A) - window for f_obs]
1.388403E-18                             [fobs_norm (in input units)]

## S/N
 3691.00                                 [llow_SN (A) - window for S/N]
 7268.00                                 [lupp_SN (A) - window for S/N]
   2.714                                 [S/N in S/N window]
   0.374                                 [S/N in norm. window]
   0.013                                 [S/N_err in S/N window]
   0.002                                 [S/N_err in norm. window]
  1.0000                                 [fscale_chi2]

## etc...
    -2007212                             [idum_orig]
  2196                                   [NOl_eff]
  2168                                   [Nl_eff]
    28    NSIGMA                         [Ntot_cliped & clip_method]
  5279820                                [Nglobal_steps]
   7                                     [N_chains]
   7                                     [NEX0s_base = N_base in EX0s-fits]
 0   0   1       28   2.0   3.242E+02    [Clip-Bug, RC-Crash & Burn-In warning-flags, n_censored_weights, wei_nsig_threshold & wei_limit]
    52     51.380     50.967      0.413  [idt_all, wdt_TotTime, wdt_UsrTime & wdt_SysTime (sec)]

## Synthesis Results - Best model ##

 2.57128E-05                             [chi2/Nl_eff]
    41.80258                             [adev (%)]

   130.00000                             [sum-of-x (%)]
 3.40493E-17                             [Flux_tot (units of input spectrum!)]
 7.45410E-12                             [Mini_tot (???)]
 3.68745E-12                             [Mcor_tot (???)]

 -65.94                                  [v0_min  (km/s)]
   4.43                                  [vd_min  (km/s)]
 2.1870                                  [AV_min  (mag)]
 0.0000                                  [YAV_min (mag)]

# j     x_j(%)      Mini_j(%)     Mcor_j(%)     age_j(yr)     Z_j      (L/M)_j    YAV?  Mstars   component_j        a/Fe...       SSP_chi2r SSP_adev(%)   SSP_AV   SSP_x(%)
  1      0.0000     0.0000E+00    0.0000E+00    1.000000E+06  0.00400  1.094E-02    0   1.0000   age020_m42            0.0000     1.7421E-05    87.1170   4.0000   438.4337
  2      0.0000     0.0000E+00    0.0000E+00    3.160000E+06  0.00400  4.007E-02    0   0.9999   age045_m42            0.0000     1.3098E-05    68.5388   4.0000   352.5674
  3      0.0000     0.0000E+00    0.0000E+00    5.010000E+06  0.00400  2.539E-02    0   0.9488   age055_m42            0.0000     1.4120E-05    75.6088   4.0000   392.4727
  4      0.0000     0.0000E+00    0.0000E+00    6.610000E+06  0.00400  2.620E-02    0   0.9220   age061_m42            0.0000     1.3208E-05    67.0909   4.0000   342.1797
  5      0.0000     0.0000E+00    0.0000E+00    1.000000E+07  0.00400  1.322E-02    0   0.8862   age070_m42            0.0000     1.4538E-05    68.5121   3.7428   344.5385
  6      0.0000     0.0000E+00    0.0000E+00    1.445000E+07  0.00400  7.883E-03    0   0.8571   age078_m42            0.0000     1.4189E-05    69.5411   4.0000   346.5965
  7      0.0000     0.0000E+00    0.0000E+00    2.512000E+07  0.00400  5.251E-03    0   0.8174   age090_m42            0.0000     1.4900E-05    69.0476   3.6053   347.3909
  8      0.0000     0.0000E+00    0.0000E+00    4.000000E+07  0.00400  3.649E-03    0   0.7851   age104_m42            0.0000     1.4892E-05    68.7427   3.3865   348.9715
  9      0.0000     0.0000E+00    0.0000E+00    5.500000E+07  0.00400  3.098E-03    0   0.7629   age110_m42            0.0000     1.4416E-05    67.4054   3.5647   345.5602
 10      0.0000     0.0000E+00    0.0000E+00    1.015200E+08  0.00400  2.228E-03    0   0.7207   age116_m42            0.0000     1.4153E-05    66.5533   3.5994   344.1876
 11      0.0000     0.0000E+00    0.0000E+00    2.861200E+08  0.00400  1.093E-03    0   0.6648   age125_m42            0.0000     1.5212E-05    68.2605   3.0013   357.8655
 12      0.0000     0.0000E+00    0.0000E+00    5.088000E+08  0.00400  6.597E-04    0   0.6365   age130_m42            0.0000     1.4672E-05    66.7372   3.0185   357.1142
 13      0.0000     0.0000E+00    0.0000E+00    1.434000E+09  0.00400  2.132E-04    0   0.5798   age139_m42            0.0000     1.4693E-05    65.9650   2.0842   358.6052
 14      0.0000     0.0000E+00    0.0000E+00    4.250000E+09  0.00400  5.895E-05    0   0.5377   age158_m42            0.0000     1.3677E-05    64.3065   1.6828   340.2275
 15      0.0000     0.0000E+00    0.0000E+00    7.500000E+09  0.00400  3.510E-05    0   0.5212   age171_m42            0.0000     1.3540E-05    63.6111   1.5092   335.9742
 16      0.0000     0.0000E+00    0.0000E+00    1.300000E+10  0.00400  2.005E-05    0   0.5034   age193_m42            0.0000     1.3421E-05    63.0276   1.3547   332.6829
 17      0.0000     0.0000E+00    0.0000E+00    1.800000E+10  0.00400  1.525E-05    0   0.4967   age213_m42            0.0000     1.3453E-05    63.1601   1.3288   331.6920
 18      0.0000     0.0000E+00    0.0000E+00    1.000000E+06  0.00800  1.238E-02    0   1.0000   age020_m52            0.0000     1.7353E-05    87.0004   4.0000   438.7881
 19      0.0000     0.0000E+00    0.0000E+00    3.160000E+06  0.00800  3.074E-02    0   0.9966   age045_m52            0.0000     1.6449E-05    84.3697   4.0000   430.9104
 20      0.0000     0.0000E+00    0.0000E+00    5.010000E+06  0.00800  2.668E-02    0   0.9443   age055_m52            0.0000     1.4618E-05    77.6399   4.0000   401.8512
 21      0.0000     0.0000E+00    0.0000E+00    6.610000E+06  0.00800  2.136E-02    0   0.9177   age061_m52            0.0000     1.4285E-05    68.1933   3.2527   347.5594
 22      0.0000     0.0000E+00    0.0000E+00    1.000000E+07  0.00800  1.215E-02    0   0.8827   age070_m52            0.0000     1.4934E-05    69.5353   3.8995   346.8510
 23      0.0000     0.0000E+00    0.0000E+00    1.445000E+07  0.00800  8.717E-03    0   0.8552   age078_m52            0.0000     1.4310E-05    68.9727   4.0000   346.0854
 24      0.0000     0.0000E+00    0.0000E+00    2.512000E+07  0.00800  5.592E-03    0   0.8162   age090_m52            0.0000     1.5187E-05    69.4198   3.6642   351.9679
 25      0.0000     0.0000E+00    0.0000E+00    4.000000E+07  0.00800  3.896E-03    0   0.7841   age104_m52            0.0000     1.5131E-05    68.9522   3.5875   352.9488
 26      0.0000     0.0000E+00    0.0000E+00    1.015200E+08  0.00800  2.148E-03    0   0.7226   age116_m52            0.0000     1.4575E-05    67.5061   3.5514   348.9120
 27      0.0000     0.0000E+00    0.0000E+00    2.861200E+08  0.00800  9.925E-04    0   0.6683   age125_m52            0.0000     1.4865E-05    66.7145   3.0883   359.2749
 28      0.0000     0.0000E+00    0.0000E+00    9.047900E+08  0.00800  3.141E-04    0   0.6138   age135_m52            0.0000     1.4853E-05    65.6562   2.3341   367.2629
 29      0.0000     0.0000E+00    0.0000E+00    1.434000E+09  0.00800  1.719E-04    0   0.5853   age139_m52            0.0000     1.4712E-05    65.6915   1.7576   359.4133
 30      0.0000     0.0000E+00    0.0000E+00    2.500000E+09  0.00800  7.872E-05    0   0.5600   age150_m52            0.0000     1.3723E-05    63.4107   1.5374   343.8551
 31      0.0000     0.0000E+00    0.0000E+00    4.250000E+09  0.00800  4.336E-05    0   0.5426   age158_m52            0.0000     1.3637E-05    63.2522   1.5261   340.2189
 32      0.0000     0.0000E+00    0.0000E+00    6.250000E+09  0.00800  3.159E-05    0   0.5319   age166_m52            0.0000     1.3470E-05    62.1605   1.3460   337.2059
 33      0.0000     0.0000E+00    0.0000E+00    1.300000E+10  0.00800  1.361E-05    0   0.5073   age193_m52            0.0000     1.3365E-05    60.6578   0.9135   330.0853
 34      0.0000     0.0000E+00    0.0000E+00    1.800000E+10  0.00800  9.886E-06    0   0.4990   age213_m52            0.0000     1.3169E-05    59.5233   0.8313   325.1024
 35      0.0000     0.0000E+00    0.0000E+00    1.000000E+06  0.02000  1.544E-02    0   1.0000   age020_m62            0.0000     1.7261E-05    86.8595   4.0000   439.2981
 36      0.0000     0.0000E+00    0.0000E+00    3.160000E+06  0.02000  3.762E-02    0   0.9858   age045_m62            0.0000     1.6487E-05    84.5728   4.0000   433.7945
 37      0.0000     0.0000E+00    0.0000E+00    5.010000E+06  0.02000  3.296E-02    0   0.9342   age055_m62            0.0000     1.3913E-05    74.2824   4.0000   390.9691
 38      0.0000     0.0000E+00    0.0000E+00    8.710000E+06  0.02000  1.154E-02    0   0.8861   age067_m62            0.0000     1.8214E-05    75.5311   3.2491   369.9586
 39      0.0000     0.0000E+00    0.0000E+00    1.445000E+07  0.02000  7.663E-03    0   0.8472   age078_m62            0.0000     1.6137E-05    71.7104   3.5108   359.1018
 40      0.0000     0.0000E+00    0.0000E+00    2.512000E+07  0.02000  4.532E-03    0   0.8099   age090_m62            0.0000     1.6492E-05    72.0814   3.4952   358.9067
 41      0.0000     0.0000E+00    0.0000E+00    5.500000E+07  0.02000  2.733E-03    0   0.7595   age110_m62            0.0000     1.5026E-05    68.8292   3.5683   350.7706
 42      0.0000     0.0000E+00    0.0000E+00    1.609000E+08  0.02000  1.369E-03    0   0.6985   age120_m62            0.0000     1.4721E-05    67.0563   3.4427   354.8943
 43      0.0000     0.0000E+00    0.0000E+00    2.861200E+08  0.02000  9.013E-04    0   0.6714   age125_m62            0.0000     1.4716E-05    66.1809   3.2129   361.8668
 44      0.0000     0.0000E+00    0.0000E+00    5.088000E+08  0.02000  5.028E-04    0   0.6449   age130_m62            0.0000     1.4303E-05    64.6390   2.8795   364.9832
 45      0.0000     0.0000E+00    0.0000E+00    9.047900E+08  0.02000  2.428E-04    0   0.6179   age135_m62            0.0000     1.4177E-05    64.3967   2.3149   359.6248
 46      0.0000     0.0000E+00    0.0000E+00    1.434000E+09  0.02000  1.263E-04    0   0.5908   age139_m62            0.0000     1.3987E-05    63.9288   1.8846   352.5128
 47      0.0000     0.0000E+00    0.0000E+00    2.500000E+09  0.02000  5.985E-05    0   0.5673   age150_m62            0.0000     1.3494E-05    62.2789   1.5521   343.4144
 48      0.0000     0.0000E+00    0.0000E+00    4.250000E+09  0.02000  3.271E-05    0   0.5468   age158_m62            0.0000     1.3203E-05    60.3099   1.2876   334.9707
 49      0.0000     0.0000E+00    0.0000E+00    1.000000E+10  0.02000  1.360E-05    0   0.5167   age181_m62            0.0000     1.3161E-05    58.6574   0.9801   327.9579
 50      0.0000     0.0000E+00    0.0000E+00    1.800000E+10  0.02000  7.124E-06    0   0.5013   age213_m62            0.0000     1.3047E-05    57.3889   0.8029   321.0134
 51      0.0000     0.0000E+00    0.0000E+00    1.000000E+06  0.05000  2.592E-02    0   0.9998   age020_m72            0.0000     1.7079E-05    86.7168   4.0000   438.3808
 52      0.0000     0.0000E+00    0.0000E+00    3.160000E+06  0.05000  4.845E-02    0   0.9577   age045_m72            0.0000     1.5453E-05    80.8499   4.0000   420.8264
 53      0.0000     0.0000E+00    0.0000E+00    5.010000E+06  0.05000  3.072E-02    0   0.9147   age055_m72            0.0000     1.4978E-05    72.2631   4.0000   360.9406
 54      0.0000     0.0000E+00    0.0000E+00    6.610000E+06  0.05000  1.455E-02    0   0.8877   age061_m72            0.0000     2.1379E-05    80.2311   3.2047   384.5176
 55      0.0000     0.0000E+00    0.0000E+00    1.000000E+07  0.05000  9.074E-03    0   0.8524   age070_m72            0.0000     1.6292E-05    76.8866   4.0000   386.5159
 56      0.0000     0.0000E+00    0.0000E+00    2.512000E+07  0.05000  4.250E-03    0   0.7902   age090_m72            0.0000     1.5738E-05    70.5137   3.9845   349.6856
 57      0.0000     0.0000E+00    0.0000E+00    4.000000E+07  0.05000  3.087E-03    0   0.7618   age104_m72            0.0000     1.6230E-05    71.0700   3.7547   355.5388
 58      0.0000     0.0000E+00    0.0000E+00    1.015200E+08  0.05000  1.700E-03    0   0.7096   age116_m72            0.0000     1.5198E-05    68.2223   3.5624   356.4363
 59      0.0000     0.0000E+00    0.0000E+00    2.861200E+08  0.05000  7.384E-04    0   0.6633   age125_m72            0.0000     1.4577E-05    65.4452   3.1036   363.4972
 60      0.0000     0.0000E+00    0.0000E+00    5.088000E+08  0.05000  3.819E-04    0   0.6372   age130_m72            0.0000     1.4114E-05    64.0978   2.6570   362.8754
 61      0.0000     0.0000E+00    0.0000E+00    9.047900E+08  0.05000  1.676E-04    0   0.6110   age135_m72            0.0000     1.3443E-05    62.2989   2.0162   349.1124
 62      0.0000     0.0000E+00    0.0000E+00    1.434000E+09  0.05000  8.837E-05    0   0.5874   age139_m72            0.0000     1.3729E-05    62.3378   1.5580   347.2020
 63      0.0000     0.0000E+00    0.0000E+00    2.500000E+09  0.05000  4.233E-05    0   0.5598   age150_m72            0.0000     1.3197E-05    59.8700   1.2994   336.1130
 64      0.0000     0.0000E+00    0.0000E+00    6.250000E+09  0.05000  1.435E-05    0   0.5249   age166_m72            0.0000     1.3144E-05    58.2540   0.8943   325.1705
 65      3.8134     2.0573E+00    2.0944E+00    1.300000E+10  0.05000  6.513E-06    0   0.5036   age193_m72            0.0000     1.3077E-05    56.6636   0.6526   322.9564
 66    126.1866     9.7943E+01    9.7906E+01    1.800000E+10  0.05000  4.527E-06    0   0.4945   age213_m72            0.0000     1.3068E-05    55.8297   0.5154   319.0638


## Synthesis Results - Average & Chains ##

# j      x_j: min, <> & last-chain-values for 1 ...  7 chains
  1      0.0000      1.1618      0.0210      0.0340      0.0000      0.0000      0.0000      0.0013      0.1093
  2      0.0000      1.0623      0.0000      0.0000      0.1234      0.1065      0.0536      0.0792      0.1554
  3      0.0000      1.0874      0.0311      0.0465      0.1474      0.0038      0.0000      0.0000      0.0142
  4      0.0000      0.8096      0.1525      0.0756      0.0000      0.0155      0.0000      0.0784      0.1294
  5      0.0000      0.7838      0.0294      0.5954      0.1890      0.0000      0.0000      0.0421      0.0024
  6      0.0000      1.0329      0.1130      0.0188      0.2879      0.0671      0.0625      0.0770      0.0083
  7      0.0000      0.9865      0.1338      0.0000      0.2668      0.0000      0.0857      0.0000      0.2185
  8      0.0000      0.9681      0.0000      0.3625      0.1075      0.0283      0.0000      0.0000      0.0889
  9      0.0000      0.8195      0.0104      0.2209      0.0000      0.0111      0.0000      0.0000      0.0446
 10      0.0000      0.7244      0.0000      0.2317      0.0631      0.0000      0.0160      0.0000      0.0315
 11      0.0000      0.8778      0.0281      0.0820      0.2467      0.0434      0.0175      0.0240      0.0411
 12      0.0000      0.8591      0.0000      0.8430      0.0000      0.0328      0.0000      0.0000      0.0000
 13      0.0000      1.0235      0.0283      0.1639      0.1414      0.0251      0.0735      0.2030      0.1298
 14      0.0000      0.8786      0.0000      0.1045      0.9139      0.0230      0.1714      0.0000      0.1104
 15      0.0000      0.9384      0.0162      0.2105      0.0287      0.0224      0.1213      0.0000      0.0684
 16      0.0000      1.2216      0.0000      0.0504      0.0000      0.0106      0.0000      0.0384      0.0000
 17      0.0000      0.8182      0.0000      0.0000      0.1662      0.0381      0.2104      0.0000      0.1837
 18      0.0000      0.7850      0.1044      0.0113      0.1818      0.0106      0.0000      0.1025      0.0000
 19      0.0000      0.8678      0.0000      0.0000      0.1199      0.0316      0.0000      0.1485      0.0000
 20      0.0000      1.0171      0.0000      0.0196      0.0000      0.0000      0.0000      0.0000      0.0763
 21      0.0000      0.9255      0.0000      0.0378      0.0000      0.0065      0.0000      0.0000      0.0000
 22      0.0000      0.8495      0.0070      0.0784      0.4612      0.0000      0.0897      0.0644      0.0064
 23      0.0000      0.9317      0.0520      0.0721      0.2077      0.0000      0.0623      0.0562      0.3099
 24      0.0000      1.2274      0.0000      0.2953      0.0602      0.0440      0.0534      0.1024      0.1520
 25      0.0000      1.4657      0.0261      0.0188      0.0765      0.0114      0.0000      0.1445      0.0000
 26      0.0000      1.2322      0.0198      0.0000      0.4916      0.0000      0.1834      0.3093      0.0529
 27      0.0000      0.8588      0.0000      0.0000      0.1323      0.0349      0.0346      0.0000      0.1771
 28      0.0000      0.9830      0.0062      0.1891      0.0988      0.0000      0.1131      0.0000      0.0000
 29      0.0000      1.2161      0.0054      0.5706      0.0502      0.0055      0.0733      0.0892      0.0000
 30      0.0000      0.6284      0.1033      0.0870      0.0406      0.0000      0.0659      0.0923      0.0000
 31      0.0000      1.1373      0.0650      0.0621      0.1681      0.0050      0.0000      0.0000      0.2244
 32      0.0000      0.7713      0.1828      0.6615      0.0000      0.0000      0.0012      0.0000      0.0000
 33      0.0000      0.9238      0.0000      0.3336      0.3835      0.0185      0.1855      0.0124      0.0000
 34      0.0000      0.8777      0.0234      0.0237      0.2216      0.0000      0.0000      0.0152      0.0945
 35      0.0000      0.8925      0.0000      0.0000      0.5238      0.0000      0.0649      0.0000      0.1966
 36      0.0000      0.9582      0.0578      0.2451      0.3036      0.0976      0.0079      0.0791      0.0000
 37      0.0000      0.7778      0.1225      0.0000      0.0392      0.0000      0.0000      0.0000      0.2561
 38      0.0000      0.7763      0.0986      0.0556      0.4028      0.0023      0.0081      0.1345      0.0779
 39      0.0000      1.1073      0.0000      0.0000      0.0000      0.1002      0.0229      0.0296      0.0000
 40      0.0000      0.9331      0.0000      0.1942      0.0488      0.0494      0.0000      0.0724      0.0000
 41      0.0000      1.1863      0.1254      0.6879      0.0000      0.0041      0.0000      0.2064      0.0000
 42      0.0000      1.1346      0.0178      0.0881      0.2166      0.0305      0.1322      0.0000      0.0000
 43      0.0000      1.2843      0.0257      0.0845      0.3464      0.0000      0.0380      0.2658      0.0011
 44      0.0000      0.8723      0.0156      0.2806      0.0000      0.0000      0.1228      0.0309      0.0399
 45      0.0000      1.0545      0.0875      0.0982      0.1117      0.0235      0.0678      0.0261      0.0000
 46      0.0000      1.0554      0.0000      0.0910      0.0721      0.0000      0.2417      0.1007      0.1210
