###################################################################
## OUTPUT of StarlightChains_v04.for    [Cid@UFSC - 01/Apr/2007] ##
###################################################################

## Some input info
KUG0210-078._4_56.txt                    [arq_obs]
Base.CB07.vall.4m                        [arq_base]
Masks.EmLines.NEW.gm                     [arq_masks]
StCv04.C11.config                        [arq_config]
   66                                    [N_base]
    0                                    [N_YAV_components = # of components with extra extinction!]
    0                                    [i_FitPowerLaw (1/0 = Yes/No)]
-9.99                                    [alpha_PowerLaw]
CCM                                      [red_law_option]
 1.458241                                [q_norm = A(l_norm)/A(V)]

## (Re)Sampling Parameters
 3741.00                                 [l_ini (A)]
 7218.00                                 [l_fin (A)]
    1.00                                 [dl    (A)]     (OBS: dl_cushion =    50.00 A)

## Normalization info
 4020.00                                 [l_norm (A) - for base]
 4010.00                                 [llow_norm (A) - window for f_obs]
 4060.00                                 [lupp_norm (A) - window for f_obs]
4.464384E-18                             [fobs_norm (in input units)]

## S/N
 3691.00                                 [llow_SN (A) - window for S/N]
 7268.00                                 [lupp_SN (A) - window for S/N]
   3.234                                 [S/N in S/N window]
   1.459                                 [S/N in norm. window]
   0.013                                 [S/N_err in S/N window]
   0.006                                 [S/N_err in norm. window]
  1.0000                                 [fscale_chi2]

## etc...
    -2007207                             [idum_orig]
  2406                                   [NOl_eff]
  2392                                   [Nl_eff]
    14    NSIGMA                         [Ntot_cliped & clip_method]
  6107430                                [Nglobal_steps]
   7                                     [N_chains]
  44                                     [NEX0s_base = N_base in EX0s-fits]
 0   0   1       14   2.0   6.942E+02    [Clip-Bug, RC-Crash & Burn-In warning-flags, n_censored_weights, wei_nsig_threshold & wei_limit]
   390    389.332    388.482      0.850  [idt_all, wdt_TotTime, wdt_UsrTime & wdt_SysTime (sec)]

## Synthesis Results - Best model ##

 2.06949E-05                             [chi2/Nl_eff]
    61.85048                             [adev (%)]

   130.00000                             [sum-of-x (%)]
 9.81015E-16                             [Flux_tot (units of input spectrum!)]
 1.92495E-13                             [Mini_tot (???)]
 1.37282E-13                             [Mcor_tot (???)]

   0.00                                  [v0_min  (km/s)]
 150.00                                  [vd_min  (km/s)]
 3.8196                                  [AV_min  (mag)]
 0.0000                                  [YAV_min (mag)]

# j     x_j(%)      Mini_j(%)     Mcor_j(%)     age_j(yr)     Z_j      (L/M)_j    YAV?  Mstars   component_j        a/Fe...       SSP_chi2r SSP_adev(%)   SSP_AV   SSP_x(%)
  1     19.4569     6.9722E+00    9.7763E+00    1.000000E+06  0.00400  1.094E-02    0   1.0000   age020_m42            0.0000     1.6300E-05    68.4780   3.8823   155.6115
  2      0.0000     0.0000E+00    0.0000E+00    3.160000E+06  0.00400  4.007E-02    0   0.9999   age045_m42            0.0000     1.6858E-05    67.3187   3.1687   165.2538
  3      1.7672     2.7285E-01    3.6300E-01    5.010000E+06  0.00400  2.539E-02    0   0.9488   age055_m42            0.0000     1.6713E-05    68.6384   3.4848   161.5473
  4      8.6184     1.2895E+00    1.6672E+00    6.610000E+06  0.00400  2.620E-02    0   0.9220   age061_m42            0.0000     1.7154E-05    67.9419   3.0977   165.4090
  5      0.0000     0.0000E+00    0.0000E+00    1.000000E+07  0.00400  1.322E-02    0   0.8862   age070_m42            0.0000     1.8510E-05    70.8693   2.8211   168.5462
  6      0.0000     0.0000E+00    0.0000E+00    1.445000E+07  0.00400  7.883E-03    0   0.8571   age078_m42            0.0000     1.8126E-05    70.9556   3.1438   164.6279
  7      0.0000     0.0000E+00    0.0000E+00    2.512000E+07  0.00400  5.251E-03    0   0.8174   age090_m42            0.0000     1.8863E-05    71.3014   2.6932   169.3453
  8      0.0000     0.0000E+00    0.0000E+00    4.000000E+07  0.00400  3.649E-03    0   0.7851   age104_m42            0.0000     1.8824E-05    70.5215   2.4679   170.6091
  9      0.0000     0.0000E+00    0.0000E+00    5.500000E+07  0.00400  3.098E-03    0   0.7629   age110_m42            0.0000     1.8339E-05    68.8262   2.6201   170.6528
 10      0.0000     0.0000E+00    0.0000E+00    1.015200E+08  0.00400  2.228E-03    0   0.7207   age116_m42            0.0000     1.8145E-05    67.7993   2.6415   170.8583
 11      0.0000     0.0000E+00    0.0000E+00    2.861200E+08  0.00400  1.093E-03    0   0.6648   age125_m42            0.0000     1.9140E-05    68.6272   2.0724   175.5843
 12      3.9823     2.3665E+01    2.1121E+01    5.088000E+08  0.00400  6.597E-04    0   0.6365   age130_m42            0.0000     1.8745E-05    66.9441   2.0636   176.9527
 13      0.0000     0.0000E+00    0.0000E+00    1.434000E+09  0.00400  2.132E-04    0   0.5798   age139_m42            0.0000     1.8668E-05    64.9467   1.0990   180.0731
 14      0.0000     0.0000E+00    0.0000E+00    4.250000E+09  0.00400  5.895E-05    0   0.5377   age158_m42            0.0000     1.7544E-05    64.0854   0.6537   173.5943
 15      0.0000     0.0000E+00    0.0000E+00    7.500000E+09  0.00400  3.510E-05    0   0.5212   age171_m42            0.0000     1.7440E-05    63.3123   0.4649   172.4103
 16      0.0000     0.0000E+00    0.0000E+00    1.300000E+10  0.00400  2.005E-05    0   0.5034   age193_m42            0.0000     1.7418E-05    62.3006   0.2984   171.4501
 17      0.0000     0.0000E+00    0.0000E+00    1.800000E+10  0.00400  1.525E-05    0   0.4967   age213_m42            0.0000     1.7411E-05    62.5940   0.2752   170.7487
 18     10.3272     3.2702E+00    4.5855E+00    1.000000E+06  0.00800  1.238E-02    0   1.0000   age020_m52            0.0000     1.6290E-05    68.5279   3.8794   155.8809
 19      0.0000     0.0000E+00    0.0000E+00    3.160000E+06  0.00800  3.074E-02    0   0.9966   age045_m52            0.0000     1.6298E-05    68.6758   3.8027   157.2661
 20      0.0000     0.0000E+00    0.0000E+00    5.010000E+06  0.00800  2.668E-02    0   0.9443   age055_m52            0.0000     1.6688E-05    68.8713   3.5661   160.2368
 21      2.4246     4.4499E-01    5.7261E-01    6.610000E+06  0.00800  2.136E-02    0   0.9177   age061_m52            0.0000     1.8227E-05    70.5740   2.3236   170.4345
 22      8.3120     2.6819E+00    3.3194E+00    1.000000E+07  0.00800  1.215E-02    0   0.8827   age070_m52            0.0000     1.8853E-05    71.9455   2.9978   168.2870
 23      7.0119     3.1534E+00    3.7815E+00    1.445000E+07  0.00800  8.717E-03    0   0.8552   age078_m52            0.0000     1.8244E-05    70.9165   3.1113   166.7717
 24     11.1019     7.7830E+00    8.9073E+00    2.512000E+07  0.00800  5.592E-03    0   0.8162   age090_m52            0.0000     1.9046E-05    71.3238   2.7575   171.2417
 25      0.0000     0.0000E+00    0.0000E+00    4.000000E+07  0.00800  3.896E-03    0   0.7841   age104_m52            0.0000     1.8902E-05    70.4824   2.6689   172.5336
 26      2.5521     4.6577E+00    4.7193E+00    1.015200E+08  0.00800  2.148E-03    0   0.7226   age116_m52            0.0000     1.8452E-05    68.9674   2.6105   172.0690
 27      0.0000     0.0000E+00    0.0000E+00    2.861200E+08  0.00800  9.925E-04    0   0.6683   age125_m52            0.0000     1.8835E-05    66.5439   2.1272   178.6643
 28      0.0000     0.0000E+00    0.0000E+00    9.047900E+08  0.00800  3.141E-04    0   0.6138   age135_m52            0.0000     1.8654E-05    63.8248   1.3328   185.5645
 29      0.0000     0.0000E+00    0.0000E+00    1.434000E+09  0.00800  1.719E-04    0   0.5853   age139_m52            0.0000     1.8298E-05    64.2744   0.7495   182.0184
 30      0.0000     0.0000E+00    0.0000E+00    2.500000E+09  0.00800  7.872E-05    0   0.5600   age150_m52            0.0000     1.7462E-05    62.7115   0.4815   177.3416
 31      0.0000     0.0000E+00    0.0000E+00    4.250000E+09  0.00800  4.336E-05    0   0.5426   age158_m52            0.0000     1.7402E-05    62.8602   0.4661   175.7193
 32      0.2480     3.0777E+01    2.2954E+01    6.250000E+09  0.00800  3.159E-05    0   0.5319   age166_m52            0.0000     1.7355E-05    61.3542   0.2647   175.6081
 33      0.0000     0.0000E+00    0.0000E+00    1.300000E+10  0.00800  1.361E-05    0   0.5073   age193_m52            0.0000     1.7453E-05    59.2360  -0.2035   174.3530
 34      0.0000     0.0000E+00    0.0000E+00    1.800000E+10  0.00800  9.886E-06    0   0.4990   age213_m52            0.0000     1.7431E-05    57.6345  -0.3131   173.5288
 35     21.0275     5.3389E+00    7.4862E+00    1.000000E+06  0.02000  1.544E-02    0   1.0000   age020_m62            0.0000     1.6288E-05    68.6278   3.8747   156.2902
 36     27.0599     2.8198E+00    3.8978E+00    3.160000E+06  0.02000  3.762E-02    0   0.9858   age045_m62            0.0000     1.6329E-05    68.7836   3.8145   157.6061
 37      0.0000     0.0000E+00    0.0000E+00    5.010000E+06  0.02000  3.296E-02    0   0.9342   age055_m62            0.0000     1.6713E-05    67.8456   3.4450   163.4948
 38      0.0000     0.0000E+00    0.0000E+00    8.710000E+06  0.02000  1.154E-02    0   0.8861   age067_m62            0.0000     2.2384E-05    77.9049   2.4538   172.4095
 39      0.0000     0.0000E+00    0.0000E+00    1.445000E+07  0.02000  7.663E-03    0   0.8472   age078_m62            0.0000     1.9941E-05    73.7262   2.6452   171.8556
 40      0.0000     0.0000E+00    0.0000E+00    2.512000E+07  0.02000  4.532E-03    0   0.8099   age090_m62            0.0000     2.0274E-05    74.1955   2.6379   171.2609
 41      0.0000     0.0000E+00    0.0000E+00    5.500000E+07  0.02000  2.733E-03    0   0.7595   age110_m62            0.0000     1.8855E-05    70.6324   2.6520   171.3018
 42      0.0000     0.0000E+00    0.0000E+00    1.609000E+08  0.02000  1.369E-03    0   0.6985   age120_m62            0.0000     1.8698E-05    67.7368   2.4922   175.7733
 43      0.0000     0.0000E+00    0.0000E+00    2.861200E+08  0.02000  9.013E-04    0   0.6714   age125_m62            0.0000     1.8863E-05    65.8043   2.2446   180.5434
 44      0.0000     0.0000E+00    0.0000E+00    5.088000E+08  0.02000  5.028E-04    0   0.6449   age130_m62            0.0000     1.8447E-05    62.8716   1.8677   185.1518
 45      0.0000     0.0000E+00    0.0000E+00    9.047900E+08  0.02000  2.428E-04    0   0.6179   age135_m62            0.0000     1.7908E-05    62.7869   1.2780   184.2807
 46      0.0000     0.0000E+00    0.0000E+00    1.434000E+09  0.02000  1.263E-04    0   0.5908   age139_m62            0.0000     1.7650E-05    62.7562   0.8336   181.6485
 47      0.0000     0.0000E+00    0.0000E+00    2.500000E+09  0.02000  5.985E-05    0   0.5673   age150_m62            0.0000     1.7239E-05    61.3635   0.4663   179.2748
 48      0.0000     0.0000E+00    0.0000E+00    4.250000E+09  0.02000  3.271E-05    0   0.5468   age158_m62            0.0000     1.7244E-05    59.0664   0.1593   177.7640
 49      0.0000     0.0000E+00    0.0000E+00    1.000000E+10  0.02000  1.360E-05    0   0.5167   age181_m62            0.0000     1.7475E-05    56.2956  -0.1891   176.8947
 50      0.0000     0.0000E+00    0.0000E+00    1.800000E+10  0.02000  7.124E-06    0   0.5013   age213_m62            0.0000     1.7608E-05    54.2361  -0.4021   175.5711
 51      0.0000     0.0000E+00    0.0000E+00    1.000000E+06  0.05000  2.592E-02    0   0.9998   age020_m72            0.0000     1.6300E-05    68.9893   3.8670   156.3287
 52      0.0000     0.0000E+00    0.0000E+00    3.160000E+06  0.05000  4.845E-02    0   0.9577   age045_m72            0.0000     1.6362E-05    68.3893   3.6996   159.5029
 53      0.0000     0.0000E+00    0.0000E+00    5.010000E+06  0.05000  3.072E-02    0   0.9147   age055_m72            0.0000     1.8621E-05    72.3845   3.2183   166.0785
 54      2.6683     7.1892E-01    8.9486E-01    6.610000E+06  0.05000  1.455E-02    0   0.8877   age061_m72            0.0000     2.4875E-05    81.7627   2.4775   174.2107
 55      0.0000     0.0000E+00    0.0000E+00    1.000000E+07  0.05000  9.074E-03    0   0.8524   age070_m72            0.0000     1.9124E-05    73.0092   3.3829   166.1017
 56      3.3732     3.1115E+00    3.4475E+00    2.512000E+07  0.05000  4.250E-03    0   0.7902   age090_m72            0.0000     1.9230E-05    72.3050   3.0989   168.5215
 57      0.0000     0.0000E+00    0.0000E+00    4.000000E+07  0.05000  3.087E-03    0   0.7618   age104_m72            0.0000     1.9712E-05    72.3376   2.8744   171.0522
 58      0.0000     0.0000E+00    0.0000E+00    1.015200E+08  0.05000  1.700E-03    0   0.7096   age116_m72            0.0000     1.9086E-05    69.0539   2.6319   175.1324
 59      0.0000     0.0000E+00    0.0000E+00    2.861200E+08  0.05000  7.384E-04    0   0.6633   age125_m72            0.0000     1.8590E-05    63.8498   2.1130   182.9518
 60      0.0000     0.0000E+00    0.0000E+00    5.088000E+08  0.05000  3.819E-04    0   0.6372   age130_m72            0.0000     1.7934E-05    61.9975   1.6201   185.9830
 61      0.0000     0.0000E+00    0.0000E+00    9.047900E+08  0.05000  1.676E-04    0   0.6110   age135_m72            0.0000     1.7054E-05    60.2521   0.9194   183.0944
 62      0.0686     3.0436E+00    2.5069E+00    1.434000E+09  0.05000  8.837E-05    0   0.5874   age139_m72            0.0000     1.7370E-05    60.4101   0.4635   181.9637
 63      0.0000     0.0000E+00    0.0000E+00    2.500000E+09  0.05000  4.233E-05    0   0.5598   age150_m72            0.0000     1.7163E-05    58.3984   0.1543   179.5754
 64      0.0000     0.0000E+00    0.0000E+00    6.250000E+09  0.05000  1.435E-05    0   0.5249   age166_m72            0.0000     1.7373E-05    55.6620  -0.2922   176.5662
 65      0.0000     0.0000E+00    0.0000E+00    1.300000E+10  0.05000  6.513E-06    0   0.5036   age193_m72            0.0000     1.7729E-05    53.0678  -0.5716   177.9646
 66      0.0000     0.0000E+00    0.0000E+00    1.800000E+10  0.05000  4.527E-06    0   0.4945   age213_m72            0.0000     1.7929E-05    51.4743  -0.7364   177.6803


## Synthesis Results - Average & Chains ##

# j      x_j: min, <> & last-chain-values for 1 ...  7 chains
  1     19.4569      1.5194      0.2725      0.0517      0.2747      0.8308      0.0000      0.3577      0.0243
  2      0.0000      1.6788      0.1270      0.9506      1.0388      0.0000      0.0000      0.1884      0.0000
  3      1.7672      1.5146      0.1652      0.0570      0.1662      0.0000      0.6365      2.1572      0.0000
  4      8.6184      1.5866      0.3732      0.0000      0.3199      0.3481      0.0000      0.2129      0.0000
  5      0.0000      1.6559      0.1403      0.9255      0.0000      1.5620      0.2931      0.8446      0.7671
  6      0.0000      1.7718      0.1188      0.0000      0.2491      0.1239      0.0000      0.0000      0.0000
  7      0.0000      1.1883      0.1956      0.0000      0.0000      0.1590      0.0000      0.4210      0.2730
  8      0.0000      1.5718      0.2255      0.0000      1.3958      0.1827      0.0652      0.4488      0.0000
  9      0.0000      1.5787      0.0867      0.6268      0.0000      0.0000      0.3241      2.4782      0.0072
 10      0.0000      1.0762      0.1119      0.0000      0.0401      0.0000      0.0000      0.0000      0.0000
 11      0.0000      1.3450      0.1384      0.4546      0.6020      1.6021      0.2065      0.0000      1.1757
 12      3.9823      1.2553      0.3797      0.0000      0.0000      0.0000      0.0046      0.6430      0.0001
 13      0.0000      1.4551      0.3950      0.2667      0.0617      1.8680      0.0000      0.9984      0.0000
 14      0.0000      1.5237      0.3051      0.4943      2.3002      0.0000      0.4188      0.0314      1.7206
 15      0.0000      1.7136      0.1002      0.0000      1.5072      0.0000      0.4561      0.5764      0.5122
 16      0.0000      2.8294      5.8257      4.0604      5.4674      8.5625      6.4324      3.2977      6.7813
 17      0.0000     19.1620     50.1476     50.3180     56.2201     45.3395     55.3004     54.1385    101.2063
 18     10.3272      1.4208      0.2307      1.8437      0.7247      0.0726      1.5696      0.0569      0.2233
 19      0.0000      1.4770      0.2712      0.5964      1.4914      2.4304      0.6761      0.0475      0.4707
 20      0.0000      1.3732      0.1082      0.2035      0.2796      0.4016      0.9567      0.8250      0.2016
 21      2.4246      2.1231      0.1605      0.2513      0.6210      0.3672      0.0000      0.8246      0.0931
 22      8.3120      0.9288      0.3888      0.2044      0.0620      0.4712      0.4415      0.2419      0.2582
 23      7.0119      1.6495      0.1977      0.1189      0.0000      0.4659      0.8082      1.4850      0.0000
 24     11.1019      1.3374      0.2029      0.6821      1.2088      3.4584      0.0000      0.3030      0.4902
 25      0.0000      1.4628      0.1283      0.9937      0.0000      0.0000      0.0000      0.0000      0.5939
 26      2.5521      1.5479      0.1721      0.3465      0.2753      0.0000      0.7211      0.8680      0.6119
 27      0.0000      1.0781      0.2269      0.0101      0.0000      0.0607      0.0001      0.0000      0.1856
 28      0.0000      1.6433      0.2156      0.0000      0.0000      0.0000      0.3031      0.1155      0.0577
 29      0.0000      1.4415      0.2012      0.8342      0.0551      1.3540      0.1142      0.4728      0.0835
 30      0.0000      1.0747      0.0960      1.7093      0.0000      0.1955      0.3833      0.4257      0.3294
 31      0.0000      1.4976      0.1349      1.7759      0.3794      0.4945      1.4018      0.4258      0.1262
 32      0.2480      1.5764      0.3781      0.5563      1.1853      0.4865      0.3539      1.9355      2.4858
 33      0.0000      2.1425      0.2492      0.7111      0.6093      0.7580      0.6855      0.1823      0.0000
 34      0.0000     14.9402     61.6656     46.0266     45.0462     44.3862     47.0055     45.7491      1.2713
 35     21.0275      1.0355      0.1809      0.0000      0.0000      0.2091      0.0000      0.1705      0.3067
 36     27.0599      1.3525      0.2202      0.1642      0.0000      0.5427      0.0000      0.0000      0.1900
 37      0.0000      1.8101      0.0804      0.6065      0.5105      0.5403      0.0000      0.0102      0.2964
 38      0.0000      1.3157      0.4184      0.3778      0.1633      0.0000      0.6202      0.0417      0.9877
 39      0.0000      1.3678      0.1780      0.8183      0.0000      0.0081      0.3413      0.9566      0.5201
 40      0.0000      1.5747      0.1660      0.0000      0.0000      0.7470      0.5189      0.0724      0.0000
 41      0.0000      1.1141      0.2307      0.0000      0.4289      0.8575      0.0000      0.5825      0.6877
 42      0.0000      1.3267      0.1370      0.4624      0.4905      0.5572      0.1078      0.6365      0.0000
 43      0.0000      1.1915      0.1018      0.1078      0.0000      0.1909      0.0000      1.0145      0.0000
 44      0.0000      2.0930      0.2400      1.1567      0.0000      0.2347      0.3290      0.3768      0.4551
 45      0.0000      1.7511      0.0978      0.5463      0.0000      0.0351      2.5420      0.0000      0.0000
 46      0.0000      1.5725      0.1872      0.0000      0.0000      0.0000      0.4089      0.0883      0.0000
