###################################################################
## OUTPUT of StarlightChains_v04.for    [Cid@UFSC - 01/Apr/2007] ##
###################################################################

## Some input info
KUG0210-078._28_31.txt                   [arq_obs]
Base.CB07.vall.4m                        [arq_base]
Masks.EmLines.NEW.gm                     [arq_masks]
StCv04.C11.config                        [arq_config]
   66                                    [N_base]
    0                                    [N_YAV_components = # of components with extra extinction!]
    0                                    [i_FitPowerLaw (1/0 = Yes/No)]
-9.99                                    [alpha_PowerLaw]
CCM                                      [red_law_option]
 1.458241                                [q_norm = A(l_norm)/A(V)]

## (Re)Sampling Parameters
 3741.00                                 [l_ini (A)]
 7218.00                                 [l_fin (A)]
    1.00                                 [dl    (A)]     (OBS: dl_cushion =    50.00 A)

## Normalization info
 4020.00                                 [l_norm (A) - for base]
 4010.00                                 [llow_norm (A) - window for f_obs]
 4060.00                                 [lupp_norm (A) - window for f_obs]
5.003548E-17                             [fobs_norm (in input units)]

## S/N
 3691.00                                 [llow_SN (A) - window for S/N]
 7268.00                                 [lupp_SN (A) - window for S/N]
   8.767                                 [S/N in S/N window]
  10.414                                 [S/N in norm. window]
   0.064                                 [S/N_err in S/N window]
   0.077                                 [S/N_err in norm. window]
  1.0000                                 [fscale_chi2]

## etc...
    -2007379                             [idum_orig]
  2432                                   [NOl_eff]
  2276                                   [Nl_eff]
   156    NSIGMA                         [Ntot_cliped & clip_method]
 15544480                                [Nglobal_steps]
   7                                     [N_chains]
  38                                     [NEX0s_base = N_base in EX0s-fits]
 0   0   1      156   2.0   2.730E+04    [Clip-Bug, RC-Crash & Burn-In warning-flags, n_censored_weights, wei_nsig_threshold & wei_limit]
    96     95.460     94.983      0.477  [idt_all, wdt_TotTime, wdt_UsrTime & wdt_SysTime (sec)]

## Synthesis Results - Best model ##

 1.74694E-04                             [chi2/Nl_eff]
     7.56503                             [adev (%)]

    93.35103                             [sum-of-x (%)]
 3.99599E-17                             [Flux_tot (units of input spectrum!)]
 1.65939E-12                             [Mini_tot (???)]
 8.38591E-13                             [Mcor_tot (???)]

 -64.31                                  [v0_min  (km/s)]
 134.89                                  [vd_min  (km/s)]
-0.1162                                  [AV_min  (mag)]
 0.0000                                  [YAV_min (mag)]

# j     x_j(%)      Mini_j(%)     Mcor_j(%)     age_j(yr)     Z_j      (L/M)_j    YAV?  Mstars   component_j        a/Fe...       SSP_chi2r SSP_adev(%)   SSP_AV   SSP_x(%)
  1      0.0000     0.0000E+00    0.0000E+00    1.000000E+06  0.00400  1.094E-02    0   1.0000   age020_m42            0.0000     2.4172E-04    10.4908   3.0133    80.4664
  2      0.0000     0.0000E+00    0.0000E+00    3.160000E+06  0.00400  4.007E-02    0   0.9999   age045_m42            0.0000     2.2642E-04     9.8288   2.2203    87.8899
  3      0.2726     2.7696E-04    5.1998E-04    5.010000E+06  0.00400  2.539E-02    0   0.9488   age055_m42            0.0000     2.3036E-04     9.9373   2.5743    84.7665
  4      0.0000     0.0000E+00    0.0000E+00    6.610000E+06  0.00400  2.620E-02    0   0.9220   age061_m42            0.0000     2.2981E-04     9.5953   2.1523    87.8924
  5      0.6414     1.2515E-03    2.1947E-03    1.000000E+07  0.00400  1.322E-02    0   0.8862   age070_m42            0.0000     2.1685E-04     8.6019   1.9262    87.9713
  6      0.0000     0.0000E+00    0.0000E+00    1.445000E+07  0.00400  7.883E-03    0   0.8571   age078_m42            0.0000     2.2048E-04     8.9017   2.2632    85.4582
  7      0.0000     0.0000E+00    0.0000E+00    2.512000E+07  0.00400  5.251E-03    0   0.8174   age090_m42            0.0000     2.1589E-04     8.4481   1.8019    88.2826
  8      0.0000     0.0000E+00    0.0000E+00    4.000000E+07  0.00400  3.649E-03    0   0.7851   age104_m42            0.0000     2.1427E-04     8.3736   1.5571    89.5758
  9      0.0000     0.0000E+00    0.0000E+00    5.500000E+07  0.00400  3.098E-03    0   0.7629   age110_m42            0.0000     2.2872E-04     8.7813   1.6740    90.6954
 10      0.0000     0.0000E+00    0.0000E+00    1.015200E+08  0.00400  2.228E-03    0   0.7207   age116_m42            0.0000     2.4580E-04     9.1266   1.6718    91.5845
 11      0.0000     0.0000E+00    0.0000E+00    2.861200E+08  0.00400  1.093E-03    0   0.6648   age125_m42            0.0000     2.4573E-04     8.3559   1.1035    94.1478
 12      0.0000     0.0000E+00    0.0000E+00    5.088000E+08  0.00400  6.597E-04    0   0.6365   age130_m42            0.0000     2.6983E-04     8.9209   1.0569    96.2250
 13      0.1268     1.5342E-02    1.7602E-02    1.434000E+09  0.00400  2.132E-04    0   0.5798   age139_m42            0.0000     2.4389E-04     8.5947   0.0487    99.5121
 14      0.0000     0.0000E+00    0.0000E+00    4.250000E+09  0.00400  5.895E-05    0   0.5377   age158_m42            0.0000     2.1522E-04     9.2517  -0.4135    96.4561
 15      0.0000     0.0000E+00    0.0000E+00    7.500000E+09  0.00400  3.510E-05    0   0.5212   age171_m42            0.0000     2.2227E-04     9.6452  -0.6231    96.4468
 16      1.4703     1.8917E+00    1.8844E+00    1.300000E+10  0.00400  2.005E-05    0   0.5034   age193_m42            0.0000     2.3236E-04    10.0301  -0.8041    96.3662
 17      1.4787     2.5012E+00    2.4584E+00    1.800000E+10  0.00400  1.525E-05    0   0.4967   age213_m42            0.0000     2.2820E-04     9.9146  -0.8185    95.7269
 18     26.6280     5.5485E-02    1.0979E-01    1.000000E+06  0.00800  1.238E-02    0   1.0000   age020_m52            0.0000     2.4178E-04    10.4994   3.0088    80.6498
 19      0.0000     0.0000E+00    0.0000E+00    3.160000E+06  0.00800  3.074E-02    0   0.9966   age045_m52            0.0000     2.3956E-04    10.4348   2.9238    81.5696
 20      0.0000     0.0000E+00    0.0000E+00    5.010000E+06  0.00800  2.668E-02    0   0.9443   age055_m52            0.0000     2.3077E-04     9.9820   2.6680    83.7276
 21      0.0000     0.0000E+00    0.0000E+00    6.610000E+06  0.00800  2.136E-02    0   0.9177   age061_m52            0.0000     1.9493E-04     8.4250   1.4265    89.0643
 22      0.0000     0.0000E+00    0.0000E+00    1.000000E+07  0.00800  1.215E-02    0   0.8827   age070_m52            0.0000     2.1476E-04     8.4538   2.1272    87.0693
 23      0.0000     0.0000E+00    0.0000E+00    1.445000E+07  0.00800  8.717E-03    0   0.8552   age078_m52            0.0000     2.1829E-04     8.7570   2.2240    86.7736
 24      0.0000     0.0000E+00    0.0000E+00    2.512000E+07  0.00800  5.592E-03    0   0.8162   age090_m52            0.0000     2.1542E-04     8.2914   1.8640    89.3751
 25      0.0000     0.0000E+00    0.0000E+00    4.000000E+07  0.00800  3.896E-03    0   0.7841   age104_m52            0.0000     2.1847E-04     8.2613   1.7508    90.8299
 26      0.0000     0.0000E+00    0.0000E+00    1.015200E+08  0.00800  2.148E-03    0   0.7226   age116_m52            0.0000     2.3194E-04     8.6887   1.6540    91.8362
 27      0.5432     1.4117E-02    1.8669E-02    2.861200E+08  0.00800  9.925E-04    0   0.6683   age125_m52            0.0000     2.6967E-04     8.9011   1.1182    97.1928
 28      0.0000     0.0000E+00    0.0000E+00    9.047900E+08  0.00800  3.141E-04    0   0.6138   age135_m52            0.0000     2.7121E-04     9.2924   0.2436   103.8393
 29      8.7306     1.3102E+00    1.5174E+00    1.434000E+09  0.00800  1.719E-04    0   0.5853   age139_m52            0.0000     2.3309E-04     8.9326  -0.3236   101.4333
 30      0.0000     0.0000E+00    0.0000E+00    2.500000E+09  0.00800  7.872E-05    0   0.5600   age150_m52            0.0000     2.3837E-04     9.9580  -0.6386   100.1918
 31      0.8659     5.1517E-01    5.5313E-01    4.250000E+09  0.00800  4.336E-05    0   0.5426   age158_m52            0.0000     2.3736E-04    10.0289  -0.6513    99.1982
 32      0.0000     0.0000E+00    0.0000E+00    6.250000E+09  0.00800  3.159E-05    0   0.5319   age166_m52            0.0000     2.6083E-04    10.7345  -0.8928   100.4245
 33      0.0000     0.0000E+00    0.0000E+00    1.300000E+10  0.00800  1.361E-05    0   0.5073   age193_m52            0.0000     3.4788E-04    13.6686  -1.0000    93.1863
 34     29.1850     7.6155E+01    7.5196E+01    1.800000E+10  0.00800  9.886E-06    0   0.4990   age213_m52            0.0000     4.2495E-04    15.6385  -1.0000    90.6014
 35      0.2561     4.2791E-04    8.4675E-04    1.000000E+06  0.02000  1.544E-02    0   1.0000   age020_m62            0.0000     2.4219E-04    10.5114   3.0051    80.8147
 36      7.1843     4.9263E-03    9.6097E-03    3.160000E+06  0.02000  3.762E-02    0   0.9858   age045_m62            0.0000     2.4176E-04    10.4858   2.9416    81.5808
 37      0.0000     0.0000E+00    0.0000E+00    5.010000E+06  0.02000  3.296E-02    0   0.9342   age055_m62            0.0000     2.3096E-04     9.9224   2.5136    86.4084
 38      1.1404     2.5493E-03    4.4700E-03    8.710000E+06  0.02000  1.154E-02    0   0.8861   age067_m62            0.0000     2.2252E-04     8.7272   1.6904    85.7962
 39      0.0000     0.0000E+00    0.0000E+00    1.445000E+07  0.02000  7.663E-03    0   0.8472   age078_m62            0.0000     2.0584E-04     7.9824   1.8033    88.0560
 40      0.0000     0.0000E+00    0.0000E+00    2.512000E+07  0.02000  4.532E-03    0   0.8099   age090_m62            0.0000     2.1007E-04     7.8900   1.7974    87.7343
 41      0.0000     0.0000E+00    0.0000E+00    5.500000E+07  0.02000  2.733E-03    0   0.7595   age110_m62            0.0000     2.1830E-04     8.2124   1.7421    89.9371
 42      0.0000     0.0000E+00    0.0000E+00    1.609000E+08  0.02000  1.369E-03    0   0.6985   age120_m62            0.0000     2.5768E-04     8.7803   1.5151    94.4720
 43      0.0000     0.0000E+00    0.0000E+00    2.861200E+08  0.02000  9.013E-04    0   0.6714   age125_m62            0.0000     2.9538E-04     9.1597   1.2223    98.5664
 44      0.0000     0.0000E+00    0.0000E+00    5.088000E+08  0.02000  5.028E-04    0   0.6449   age130_m62            0.0000     3.1633E-04     9.8991   0.7727   103.6078
 45      0.0000     0.0000E+00    0.0000E+00    9.047900E+08  0.02000  2.428E-04    0   0.6179   age135_m62            0.0000     2.6879E-04     9.8785   0.1601   103.9985
 46      0.0000     0.0000E+00    0.0000E+00    1.434000E+09  0.02000  1.263E-04    0   0.5908   age139_m62            0.0000     2.4840E-04     9.9698  -0.2887   102.6819
 47      0.0000     0.0000E+00    0.0000E+00    2.500000E+09  0.02000  5.985E-05    0   0.5673   age150_m62            0.0000     2.6161E-04    10.8154  -0.6943   102.5721
 48      0.0000     0.0000E+00    0.0000E+00    4.250000E+09  0.02000  3.271E-05    0   0.5468   age158_m62            0.0000     3.0249E-04    11.7604  -1.0000   102.4897
 49      0.0000     0.0000E+00    0.0000E+00    1.000000E+10  0.02000  1.360E-05    0   0.5167   age181_m62            0.0000     4.3432E-04    14.8625  -1.0000    95.4631
 50      0.0000     0.0000E+00    0.0000E+00    1.800000E+10  0.02000  7.124E-06    0   0.5013   age213_m62            0.0000     5.8119E-04    18.1438  -1.0000    89.9543
 51      0.0000     0.0000E+00    0.0000E+00    1.000000E+06  0.05000  2.592E-02    0   0.9998   age020_m72            0.0000     2.4496E-04    10.5764   3.0037    80.6581
 52      0.0000     0.0000E+00    0.0000E+00    3.160000E+06  0.05000  4.845E-02    0   0.9577   age045_m72            0.0000     2.3708E-04    10.3162   2.8019    83.2996
 53      0.0000     0.0000E+00    0.0000E+00    5.010000E+06  0.05000  3.072E-02    0   0.9147   age055_m72            0.0000     2.1734E-04     8.5336   2.3725    85.2371
 54      0.0000     0.0000E+00    0.0000E+00    6.610000E+06  0.05000  1.455E-02    0   0.8877   age061_m72            0.0000     2.3961E-04     9.0522   1.7686    85.1429
 55      0.0000     0.0000E+00    0.0000E+00    1.000000E+07  0.05000  9.074E-03    0   0.8524   age070_m72            0.0000     2.2056E-04     8.6136   2.5565    84.9284
 56      5.0917     3.0905E-02    4.8325E-02    2.512000E+07  0.05000  4.250E-03    0   0.7902   age090_m72            0.0000     2.1922E-04     8.1678   2.2291    87.2926
 57      0.0000     0.0000E+00    0.0000E+00    4.000000E+07  0.05000  3.087E-03    0   0.7618   age104_m72            0.0000     2.2146E-04     7.9635   1.9984    88.8547
 58      0.0000     0.0000E+00    0.0000E+00    1.015200E+08  0.05000  1.700E-03    0   0.7096   age116_m72            0.0000     2.5011E-04     8.4712   1.6777    93.3920
 59      0.0000     0.0000E+00    0.0000E+00    2.861200E+08  0.05000  7.384E-04    0   0.6633   age125_m72            0.0000     3.1234E-04     9.5001   1.0496   101.2658
 60      0.0000     0.0000E+00    0.0000E+00    5.088000E+08  0.05000  3.819E-04    0   0.6372   age130_m72            0.0000     2.9473E-04    10.0211   0.5042   104.8710
 61      0.0000     0.0000E+00    0.0000E+00    9.047900E+08  0.05000  1.676E-04    0   0.6110   age135_m72            0.0000     2.7586E-04    10.9739  -0.2480   104.9392
 62      0.0000     0.0000E+00    0.0000E+00    1.434000E+09  0.05000  8.837E-05    0   0.5874   age139_m72            0.0000     2.7765E-04    11.1107  -0.7132   104.7074
 63      0.0000     0.0000E+00    0.0000E+00    2.500000E+09  0.05000  4.233E-05    0   0.5598   age150_m72            0.0000     3.1961E-04    12.1717  -1.0000   103.6853
 64      9.7360     1.7502E+01    1.8179E+01    6.250000E+09  0.05000  1.435E-05    0   0.5249   age166_m72            0.0000     4.8082E-04    16.2729  -1.0000    92.9938
 65      0.0000     0.0000E+00    0.0000E+00    1.300000E+10  0.05000  6.513E-06    0   0.5036   age193_m72            0.0000     6.9542E-04    20.8736  -1.0000    86.9360
 66      0.0000     0.0000E+00    0.0000E+00    1.800000E+10  0.05000  4.527E-06    0   0.4945   age213_m72            0.0000     8.4230E-04    23.5054  -1.0000    82.4483


## Synthesis Results - Average & Chains ##

# j      x_j: min, <> & last-chain-values for 1 ...  7 chains
  1      0.0000      0.2549      0.0000      0.3261      0.3101      0.3692      0.4768      0.0046      1.9005
  2      0.0000      0.1521      0.1164      0.0000      0.2260      0.0724      0.4178      0.0000      0.5410
  3      0.2726      0.1636      0.0651      0.1875      1.1949      0.3332      0.4433      0.5252      0.1671
  4      0.0000      0.2760      0.1095      0.1269      0.2383      0.0055      0.9116      0.0000      1.9192
  5      0.6414      0.1453      0.0000      0.0000      0.3419      0.0179      0.5384      1.1835      0.3146
  6      0.0000      0.2226      0.0803      0.8864      0.4467      0.2306      0.1969      0.0283      0.0000
  7      0.0000      0.1652      0.0000      0.5237      0.4490      0.0756      0.2378      0.0313      0.0000
  8      0.0000      0.2231      0.2891      0.2017      0.5272      0.4315      0.1034      0.0244      0.6086
  9      0.0000      0.1864      0.0000      0.0548      0.0188      0.1798      0.2501      0.1244      0.1283
 10      0.0000      0.2337      0.4110      2.2615      0.0000      0.0000      1.1011      0.0000      0.2556
 11      0.0000      0.2149      0.6687      0.9366      0.0000      0.0000      0.2027      0.1679      1.5922
 12      0.0000      0.1815      0.0570      0.3598      0.0000      0.0653      0.7297      0.0000      0.0000
 13      0.1268      0.2196      0.1674      0.0330      0.0893      0.1414      0.1974      0.4651      0.4553
 14      0.0000      0.1775      0.2081      0.2002      0.3981      0.1800      0.2531      0.1319      0.7689
 15      0.0000      0.1434      0.4827      0.0000      0.0000      0.0699      0.0000      0.9782      1.0564
 16      1.4703      0.1497      0.3104      0.3670      0.4257      0.1426      0.4989      0.5601      0.5077
 17      1.4787      0.1492      0.0000      0.4770      1.1514      0.2143      0.0000      0.6302      0.0000
 18     26.6280      3.9448      3.5073      4.3717      3.8254      4.2922      3.7808      2.9528      2.7506
 19      0.0000      0.2065      0.0000      0.0936      0.2699      0.2464      0.2587      0.1647      0.2979
 20      0.0000      0.1935      0.7649      0.4192      0.0000      0.2717      0.6836      0.8107      0.3816
 21      0.0000      0.1260      0.0116      0.2595      0.1397      0.2540      0.4664      0.0049      0.7758
 22      0.0000      0.4949      0.2619      1.3025      0.7408      0.0000      0.5312      0.9355      0.3868
 23      0.0000      1.0672      1.2899      0.0154      0.1700      0.8004      1.3726      0.0000      0.6798
 24      0.0000      0.1531      0.0674      0.1348      0.5208      0.3860      0.0551      0.3560      1.0732
 25      0.0000      0.1652      0.2657      0.0000      0.3425      0.7579      0.3755      0.0000      0.4022
 26      0.0000      0.2771      0.8373      0.0834      0.0186      0.1231      0.3714      0.1379      0.6896
 27      0.5432      0.2153      0.0397      0.0000      0.3828      0.0000      0.1778      0.3756      0.7768
 28      0.0000      0.1828      0.0095      0.0000      1.9359      0.4187      1.0348      0.0162      0.0259
 29      8.7306      0.1563      0.0504      1.5019      0.1690      0.2015      0.0183      0.3341      0.0000
 30      0.0000      0.1558      0.2497      0.9182      0.0000      0.0000      0.0977      0.9919      0.3328
 31      0.8659      0.1779      0.1079      0.0000      0.9124      0.5769      0.0389      1.3090      1.2490
 32      0.0000      0.1465      0.0000      0.1069      0.0593      0.4248      1.1325      0.8021      0.0000
 33      0.0000      6.2059      6.3871      5.2441      4.9856      6.2043      6.1750      5.1122      5.8178
 34     29.1850      5.5525      5.5922      3.8451      5.6734      6.0044      4.8281      3.8480      4.6231
 35      0.2561      0.9527      0.7543      0.9825      0.6331      0.5895      0.1819      1.4689      1.4216
 36      7.1843      0.3074      0.4822      0.8854      0.2893      0.0020      0.1913      0.4658      0.8509
 37      0.0000      0.2067      0.0000      0.9890      0.7554      0.2912      0.3882      0.9105      0.0693
 38      1.1404     27.6527     26.0758     25.6420     25.1401     24.3968     27.7116     28.1096     24.7076
 39      0.0000      2.5077      2.1813      3.1557      3.0845      2.8168      2.2579      2.4042      2.7361
 40      0.0000      0.5503      0.4079      0.0000      0.6737      0.8929      0.1896      1.2515      0.4288
 41      0.0000      0.1546      0.2279      0.4548      0.0000      0.2594      0.0945      0.0000      0.3353
 42      0.0000      0.2108      0.1660      0.1236      0.0000      0.0000      0.0571      1.7510      0.8487
 43      0.0000      0.2486      1.0944      0.0435      0.0000      0.0000      0.1155      0.1551      0.9948
 44      0.0000      0.1728      0.0808      0.7798      0.6670      0.2096      0.5389      0.7374      0.8350
 45      0.0000      0.2072      0.7224      1.7647      0.0074      0.0000      0.7593      0.0000      0.9206
 46      0.0000      0.1497      0.2457      0.0000      0.4552      0.0358      0.0844      0.0764      0.2150
