###################################################################
## OUTPUT of StarlightChains_v04.for    [Cid@UFSC - 01/Apr/2007] ##
###################################################################

## Some input info
KUG0210-078._27_28.txt                   [arq_obs]
Base.CB07.vall.4m                        [arq_base]
Masks.EmLines.NEW.gm                     [arq_masks]
StCv04.C11.config                        [arq_config]
   66                                    [N_base]
    0                                    [N_YAV_components = # of components with extra extinction!]
    0                                    [i_FitPowerLaw (1/0 = Yes/No)]
-9.99                                    [alpha_PowerLaw]
CCM                                      [red_law_option]
 1.458241                                [q_norm = A(l_norm)/A(V)]

## (Re)Sampling Parameters
 3741.00                                 [l_ini (A)]
 7218.00                                 [l_fin (A)]
    1.00                                 [dl    (A)]     (OBS: dl_cushion =    50.00 A)

## Normalization info
 4020.00                                 [l_norm (A) - for base]
 4010.00                                 [llow_norm (A) - window for f_obs]
 4060.00                                 [lupp_norm (A) - window for f_obs]
2.549427E-17                             [fobs_norm (in input units)]

## S/N
 3691.00                                 [llow_SN (A) - window for S/N]
 7268.00                                 [lupp_SN (A) - window for S/N]
   5.620                                 [S/N in S/N window]
   6.494                                 [S/N in norm. window]
   0.038                                 [S/N_err in S/N window]
   0.044                                 [S/N_err in norm. window]
  1.0000                                 [fscale_chi2]

## etc...
    -2007348                             [idum_orig]
  2430                                   [NOl_eff]
  1939                                   [Nl_eff]
   491    NSIGMA                         [Ntot_cliped & clip_method]
 10703280                                [Nglobal_steps]
   7                                     [N_chains]
  43                                     [NEX0s_base = N_base in EX0s-fits]
 0   0   1        0   2.0   2.523E+04    [Clip-Bug, RC-Crash & Burn-In warning-flags, n_censored_weights, wei_nsig_threshold & wei_limit]
    72     72.580     72.183      0.398  [idt_all, wdt_TotTime, wdt_UsrTime & wdt_SysTime (sec)]

## Synthesis Results - Best model ##

 1.01449E-05                             [chi2/Nl_eff]
     6.30804                             [adev (%)]

    92.78063                             [sum-of-x (%)]
 4.00998E-17                             [Flux_tot (units of input spectrum!)]
 1.86554E-12                             [Mini_tot (???)]
 9.27924E-13                             [Mcor_tot (???)]

  52.02                                  [v0_min  (km/s)]
 270.46                                  [vd_min  (km/s)]
 0.3930                                  [AV_min  (mag)]
 0.0000                                  [YAV_min (mag)]

# j     x_j(%)      Mini_j(%)     Mcor_j(%)     age_j(yr)     Z_j      (L/M)_j    YAV?  Mstars   component_j        a/Fe...       SSP_chi2r SSP_adev(%)   SSP_AV   SSP_x(%)
  1      6.2850     1.3310E-02    2.6758E-02    1.000000E+06  0.00400  1.094E-02    0   1.0000   age020_m42            0.0000     1.8700E-05     9.5129   3.1160    78.2267
  2      0.0000     0.0000E+00    0.0000E+00    3.160000E+06  0.00400  4.007E-02    0   0.9999   age045_m42            0.0000     1.7083E-05     8.9985   2.4199    82.5528
  3      0.0000     0.0000E+00    0.0000E+00    5.010000E+06  0.00400  2.539E-02    0   0.9488   age055_m42            0.0000     1.7370E-05     9.1284   2.7228    81.1342
  4      0.5836     5.1601E-04    9.5650E-04    6.610000E+06  0.00400  2.620E-02    0   0.9220   age061_m42            0.0000     1.6352E-05     8.7918   2.3378    83.0689
  5      0.0744     1.3041E-04    2.3235E-04    1.000000E+07  0.00400  1.322E-02    0   0.8862   age070_m42            0.0000     1.3745E-05     7.8698   1.9883    87.6461
  6      0.0000     0.0000E+00    0.0000E+00    1.445000E+07  0.00400  7.883E-03    0   0.8571   age078_m42            0.0000     1.4536E-05     8.1538   2.3163    85.3196
  7      0.0000     0.0000E+00    0.0000E+00    2.512000E+07  0.00400  5.251E-03    0   0.8174   age090_m42            0.0000     1.3263E-05     7.6697   1.8499    88.5434
  8      0.0000     0.0000E+00    0.0000E+00    4.000000E+07  0.00400  3.649E-03    0   0.7851   age104_m42            0.0000     1.3125E-05     7.6306   1.6343    88.8141
  9      0.0000     0.0000E+00    0.0000E+00    5.500000E+07  0.00400  3.098E-03    0   0.7629   age110_m42            0.0000     1.4019E-05     7.9592   1.8211    87.3810
 10      0.0000     0.0000E+00    0.0000E+00    1.015200E+08  0.00400  2.228E-03    0   0.7207   age116_m42            0.0000     1.4466E-05     8.1145   1.8640    86.6137
 11      0.0000     0.0000E+00    0.0000E+00    2.861200E+08  0.00400  1.093E-03    0   0.6648   age125_m42            0.0000     1.3259E-05     7.6117   1.2712    90.1398
 12      0.0000     0.0000E+00    0.0000E+00    5.088000E+08  0.00400  6.597E-04    0   0.6365   age130_m42            0.0000     1.3725E-05     7.7849   1.2986    89.3498
 13      0.0000     0.0000E+00    0.0000E+00    1.434000E+09  0.00400  2.132E-04    0   0.5798   age139_m42            0.0000     1.2036E-05     7.2356   0.3768    89.2788
 14      0.0000     0.0000E+00    0.0000E+00    4.250000E+09  0.00400  5.895E-05    0   0.5377   age158_m42            0.0000     1.3139E-05     7.7159  -0.0060    83.5346
 15      0.0000     0.0000E+00    0.0000E+00    7.500000E+09  0.00400  3.510E-05    0   0.5212   age171_m42            0.0000     1.3447E-05     7.8128  -0.1720    82.0999
 16      0.0000     0.0000E+00    0.0000E+00    1.300000E+10  0.00400  2.005E-05    0   0.5034   age193_m42            0.0000     1.3932E-05     7.9379  -0.3215    81.0206
 17      0.0000     0.0000E+00    0.0000E+00    1.800000E+10  0.00400  1.525E-05    0   0.4967   age213_m42            0.0000     1.3839E-05     7.8903  -0.3463    80.7534
 18      0.0000     0.0000E+00    0.0000E+00    1.000000E+06  0.00800  1.238E-02    0   1.0000   age020_m52            0.0000     1.8697E-05     9.5104   3.1131    78.3566
 19      4.8977     3.6912E-03    7.3957E-03    3.160000E+06  0.00800  3.074E-02    0   0.9966   age045_m52            0.0000     1.8536E-05     9.4704   3.0415    78.8929
 20      0.0000     0.0000E+00    0.0000E+00    5.010000E+06  0.00800  2.668E-02    0   0.9443   age055_m52            0.0000     1.7354E-05     9.1246   2.7991    80.6458
 21      0.0000     0.0000E+00    0.0000E+00    6.610000E+06  0.00800  2.136E-02    0   0.9177   age061_m52            0.0000     1.3190E-05     7.7573   1.5004    88.2279
 22      0.0000     0.0000E+00    0.0000E+00    1.000000E+07  0.00800  1.215E-02    0   0.8827   age070_m52            0.0000     1.3419E-05     7.6746   2.1455    88.3363
 23     14.0996     3.7473E-02    6.4429E-02    1.445000E+07  0.00800  8.717E-03    0   0.8552   age078_m52            0.0000     1.4169E-05     7.9875   2.2824    86.5147
 24      0.0000     0.0000E+00    0.0000E+00    2.512000E+07  0.00800  5.592E-03    0   0.8162   age090_m52            0.0000     1.2936E-05     7.4767   1.9134    89.6062
 25      0.0000     0.0000E+00    0.0000E+00    4.000000E+07  0.00800  3.896E-03    0   0.7841   age104_m52            0.0000     1.3062E-05     7.5319   1.8463    89.3956
 26      0.0000     0.0000E+00    0.0000E+00    1.015200E+08  0.00800  2.148E-03    0   0.7226   age116_m52            0.0000     1.3731E-05     7.8256   1.8197    87.7909
 27      0.0000     0.0000E+00    0.0000E+00    2.861200E+08  0.00800  9.925E-04    0   0.6683   age125_m52            0.0000     1.3382E-05     7.6794   1.3657    90.0808
 28      0.0000     0.0000E+00    0.0000E+00    9.047900E+08  0.00800  3.141E-04    0   0.6138   age135_m52            0.0000     1.2772E-05     7.4327   0.6512    90.3088
 29      0.2608     3.5146E-02    4.1357E-02    1.434000E+09  0.00800  1.719E-04    0   0.5853   age139_m52            0.0000     1.2167E-05     7.2460   0.0855    87.8963
 30      0.5075     1.4935E-01    1.6815E-01    2.500000E+09  0.00800  7.872E-05    0   0.5600   age150_m52            0.0000     1.3034E-05     7.6481  -0.1260    83.3623
 31      0.0000     0.0000E+00    0.0000E+00    4.250000E+09  0.00800  4.336E-05    0   0.5426   age158_m52            0.0000     1.3235E-05     7.7194  -0.1382    82.4572
 32      0.0000     0.0000E+00    0.0000E+00    6.250000E+09  0.00800  3.159E-05    0   0.5319   age166_m52            0.0000     1.3787E-05     7.8555  -0.3069    81.1999
 33      0.0000     0.0000E+00    0.0000E+00    1.300000E+10  0.00800  1.361E-05    0   0.5073   age193_m52            0.0000     1.4358E-05     7.9509  -0.7245    78.8552
 34      2.2256     5.2157E+00    5.2325E+00    1.800000E+10  0.00800  9.886E-06    0   0.4990   age213_m52            0.0000     1.5136E-05     8.1353  -0.7953    77.1493
 35      0.0000     0.0000E+00    0.0000E+00    1.000000E+06  0.02000  1.544E-02    0   1.0000   age020_m62            0.0000     1.8754E-05     9.5263   3.1072    78.6052
 36      0.6399     3.9408E-04    7.8102E-04    3.160000E+06  0.02000  3.762E-02    0   0.9858   age045_m62            0.0000     1.8725E-05     9.5434   3.0462    79.2988
 37      0.0000     0.0000E+00    0.0000E+00    5.010000E+06  0.02000  3.296E-02    0   0.9342   age055_m62            0.0000     1.7328E-05     9.1185   2.6918    81.8001
 38     16.2945     3.2713E-02    5.8276E-02    8.710000E+06  0.02000  1.154E-02    0   0.8861   age067_m62            0.0000     1.0661E-05     6.4166   1.4575    97.2837
 39     11.8599     3.5856E-02    6.1072E-02    1.445000E+07  0.02000  7.663E-03    0   0.8472   age078_m62            0.0000     1.2236E-05     7.1525   1.7508    92.1639
 40      0.0000     0.0000E+00    0.0000E+00    2.512000E+07  0.02000  4.532E-03    0   0.8099   age090_m62            0.0000     1.2029E-05     7.0456   1.7370    92.1713
 41      0.0000     0.0000E+00    0.0000E+00    5.500000E+07  0.02000  2.733E-03    0   0.7595   age110_m62            0.0000     1.2860E-05     7.4869   1.8262    88.8821
 42      0.0000     0.0000E+00    0.0000E+00    1.609000E+08  0.02000  1.369E-03    0   0.6985   age120_m62            0.0000     1.3396E-05     7.7066   1.7110    89.3596
 43      0.0000     0.0000E+00    0.0000E+00    2.861200E+08  0.02000  9.013E-04    0   0.6714   age125_m62            0.0000     1.3350E-05     7.6577   1.4877    90.8217
 44      0.0000     0.0000E+00    0.0000E+00    5.088000E+08  0.02000  5.028E-04    0   0.6449   age130_m62            0.0000     1.3944E-05     7.8643   1.1752    90.4585
 45      0.0000     0.0000E+00    0.0000E+00    9.047900E+08  0.02000  2.428E-04    0   0.6179   age135_m62            0.0000     1.2927E-05     7.6141   0.6413    87.7903
 46      5.4280     9.9568E-01    1.1826E+00    1.434000E+09  0.02000  1.263E-04    0   0.5908   age139_m62            0.0000     1.2553E-05     7.5249   0.2233    85.4944
 47      0.0000     0.0000E+00    0.0000E+00    2.500000E+09  0.02000  5.985E-05    0   0.5673   age150_m62            0.0000     1.3409E-05     7.8176  -0.0942    82.4717
 48      0.0000     0.0000E+00    0.0000E+00    4.250000E+09  0.02000  3.271E-05    0   0.5468   age158_m62            0.0000     1.4360E-05     8.0432  -0.3461    79.8340
 49      0.0000     0.0000E+00    0.0000E+00    1.000000E+10  0.02000  1.360E-05    0   0.5167   age181_m62            0.0000     1.5064E-05     8.1247  -0.6264    77.0883
 50      4.1006     1.3335E+01    1.3440E+01    1.800000E+10  0.02000  7.124E-06    0   0.5013   age213_m62            0.0000     1.5799E-05     8.2699  -0.7840    74.6810
 51      2.4832     2.2195E-03    4.4613E-03    1.000000E+06  0.05000  2.592E-02    0   0.9998   age020_m72            0.0000     1.8759E-05     9.5113   3.0959    78.7400
 52      0.0000     0.0000E+00    0.0000E+00    3.160000E+06  0.05000  4.845E-02    0   0.9577   age045_m72            0.0000     1.8407E-05     9.4471   2.9439    79.8322
 53      0.0000     0.0000E+00    0.0000E+00    5.010000E+06  0.05000  3.072E-02    0   0.9147   age055_m72            0.0000     1.4665E-05     8.0970   2.3733    86.8914
 54      4.5140     7.1876E-03    1.2827E-02    6.610000E+06  0.05000  1.455E-02    0   0.8877   age061_m72            0.0000     1.4449E-05     8.0265   1.4228   101.6341
 55      0.0000     0.0000E+00    0.0000E+00    1.000000E+07  0.05000  9.074E-03    0   0.8524   age070_m72            0.0000     1.6703E-05     8.9202   2.5410    86.9858
 56      0.0000     0.0000E+00    0.0000E+00    2.512000E+07  0.05000  4.250E-03    0   0.7902   age090_m72            0.0000     1.4635E-05     8.0760   2.2573    88.1681
 57      0.0000     0.0000E+00    0.0000E+00    4.000000E+07  0.05000  3.087E-03    0   0.7618   age104_m72            0.0000     1.4025E-05     7.8191   2.0258    89.8764
 58      0.0000     0.0000E+00    0.0000E+00    1.015200E+08  0.05000  1.700E-03    0   0.7096   age116_m72            0.0000     1.3317E-05     7.5795   1.8276    90.0315
 59      2.8855     9.0533E-02    1.2073E-01    2.861200E+08  0.05000  7.384E-04    0   0.6633   age125_m72            0.0000     1.3308E-05     7.6110   1.3999    90.1795
 60      0.0000     0.0000E+00    0.0000E+00    5.088000E+08  0.05000  3.819E-04    0   0.6372   age130_m72            0.0000     1.3086E-05     7.6694   0.9784    88.7665
 61      0.0000     0.0000E+00    0.0000E+00    9.047900E+08  0.05000  1.676E-04    0   0.6110   age135_m72            0.0000     1.3419E-05     7.9005   0.3656    83.9746
 62      0.0000     0.0000E+00    0.0000E+00    1.434000E+09  0.05000  8.837E-05    0   0.5874   age139_m72            0.0000     1.3156E-05     7.7083  -0.0782    83.0535
 63      0.0000     0.0000E+00    0.0000E+00    2.500000E+09  0.05000  4.233E-05    0   0.5598   age150_m72            0.0000     1.4447E-05     8.0743  -0.3248    79.7136
 64      0.0000     0.0000E+00    0.0000E+00    6.250000E+09  0.05000  1.435E-05    0   0.5249   age166_m72            0.0000     1.5281E-05     8.1699  -0.7008    76.0181
 65      0.0000     0.0000E+00    0.0000E+00    1.300000E+10  0.05000  6.513E-06    0   0.5036   age193_m72            0.0000     1.6345E-05     8.3826  -0.9191    74.6074
 66     15.6409     8.0045E+01    7.9578E+01    1.800000E+10  0.05000  4.527E-06    0   0.4945   age213_m72            0.0000     1.6995E-05     8.4038  -1.0000    71.9713


## Synthesis Results - Average & Chains ##

# j      x_j: min, <> & last-chain-values for 1 ...  7 chains
  1      6.2850      0.1456      0.0000      0.9302      0.0000      0.3811      0.0799      0.4039      0.0585
  2      0.0000      0.2415      0.3234      0.5191      0.6491      0.1360      0.7178      1.1767      0.0215
  3      0.0000      0.1923      0.2353      0.9307      0.9391      1.1305      0.7263      0.0000      0.4587
  4      0.5836      0.1947      0.6905      1.3112      0.5442      0.1301      0.2051      1.1107      1.4977
  5      0.0744      0.2203      0.6164      1.8497      0.0000      0.2096      1.2190      0.0511      1.1322
  6      0.0000      0.1969      0.0000      0.0073      0.0000      0.0265      0.2190      0.8406      0.2392
  7      0.0000      0.1862      0.2852      0.1053      0.3208      0.0855      1.3032      1.4556      0.0000
  8      0.0000      0.2080      0.0000      0.6410      0.4725      0.0000      0.0000      0.5510      1.3557
  9      0.0000      0.1575      0.0000      0.0196      0.3696      0.0000      0.5016      0.0000      0.1150
 10      0.0000      0.2444      0.4613      1.9071      0.0000      0.6037      0.0000      0.6471      0.4233
 11      0.0000      0.1988      0.7383      0.2349      0.3947      0.0000      0.5462      0.4271      0.0000
 12      0.0000      0.1977      0.5621      0.4879      1.0058      1.4801      1.3078      0.0426      0.0000
 13      0.0000      0.2024      0.0576      0.0000      0.9637      1.3921      0.0318      0.0000      1.1658
 14      0.0000      0.1570      0.0164      0.2326      0.7591      1.2522      0.5995      0.0000      0.5733
 15      0.0000      0.1655      0.1906      0.0094      0.5758      0.6111      0.7589      0.5254      0.0000
 16      0.0000      0.2116      2.7302      0.0000      0.4761      0.1963      0.0000      1.0408      0.3363
 17      0.0000      0.2069      1.0709      0.0000      0.0000      0.3224      0.0191      1.1435      0.9897
 18      0.0000      0.1608      0.0000      0.2667      0.8898      0.0000      0.0000      0.3634      0.4381
 19      4.8977      0.2111      0.0635      0.3632      0.9892      1.7933      0.0000      1.0665      0.0000
 20      0.0000      0.2402      0.3607      0.9811      0.0776      0.0000      1.6732      0.1425      1.0784
 21      0.0000      0.1892      0.0000      0.3205      1.0430      0.3320      1.0025      0.2722      1.0983
 22      0.0000      0.2178      0.4701      0.9442      0.2862      0.2628      0.2935      0.0150      0.0000
 23     14.0996      0.2181      0.5904      1.1304      1.8246      0.1307      1.0187      0.0000      0.5425
 24      0.0000      0.2135      0.5581      0.0000      0.5356      1.7398      0.2457      0.8966      1.5343
 25      0.0000      0.1199      0.8715      0.0435      0.1734      1.2887      0.4028      0.0000      0.2911
 26      0.0000      0.2293      0.0000      0.0000      0.6043      0.5133      0.5661      0.3990      0.1847
 27      0.0000      2.5220      2.7341      2.0307      3.8062      1.5049      3.3025      2.8869      1.5366
 28      0.0000      0.1708      0.0000      0.1632      0.1623      0.2435      0.7078      0.0000      0.7125
 29      0.2608      0.2213      0.0149      0.5555      1.7291      0.0000      0.0000      0.1054      1.0236
 30      0.5075      0.2111      1.7674      1.2003      0.0000      0.0000      0.0000      0.0000      0.5063
 31      0.0000      0.1909      1.0688      0.5078      0.5781      0.0000      0.3701      1.1167      1.3259
 32      0.0000      0.2169      0.0000      0.6189      0.8827      0.2808      0.4542      2.9047      0.1269
 33      0.0000      1.0908      0.7255      0.8641      0.8086      1.0287      1.4826      0.6945      0.9131
 34      2.2256     33.8279     26.2413     26.1532     23.1747     24.2433     24.3716     21.9735     24.1291
 35      0.0000      0.2437      0.8298      0.0000      0.1141      0.9159      0.0000      1.1810      0.1922
 36      0.6399      0.2251      0.2492      0.3941      0.5839      1.5435      0.8315      1.1443      0.9359
 37      0.0000      0.1758      0.6499      0.6798      0.6090      0.7664      0.1610      0.3095      0.2712
 38     16.2945      0.1844      0.4028      0.7294      0.6203      0.0000      0.0000      0.7202      0.4792
 39     11.8599      0.1923      0.4896      0.9279      0.8189      1.1302      0.2795      0.0723      0.7296
 40      0.0000      0.1578      0.9049      1.0039      0.0760      0.0000      0.6722      0.7862      0.3592
 41      0.0000      0.2291      0.4673      0.4510      0.8599      0.5212      1.5553      0.1188      0.6787
 42      0.0000      1.2797      0.5854      0.8241      1.3732      1.6943      2.6235      1.2578      1.5371
 43      0.0000      4.4582      3.1782      4.6790      2.8065      2.8351      4.1325      4.2533      3.5103
 44      0.0000      0.1566      0.0000      0.2152      0.5491      1.0602      0.3143      0.7731      0.4571
 45      0.0000      0.1864      0.7163      0.7348      0.9638      0.0000      0.0000      1.7484      0.8127
 46      5.4280      0.1600      0.0000      0.4935      0.1927      0.0000      0.3133      0.2286      0.3637
