###################################################################
## OUTPUT of StarlightChains_v04.for    [Cid@UFSC - 01/Apr/2007] ##
###################################################################

## Some input info
KUG0210-078._45_41.txt                   [arq_obs]
Base.CB07.vall.4m                        [arq_base]
Masks.EmLines.NEW.gm                     [arq_masks]
StCv04.C11.config                        [arq_config]
   66                                    [N_base]
    0                                    [N_YAV_components = # of components with extra extinction!]
    0                                    [i_FitPowerLaw (1/0 = Yes/No)]
-9.99                                    [alpha_PowerLaw]
CCM                                      [red_law_option]
 1.458241                                [q_norm = A(l_norm)/A(V)]

## (Re)Sampling Parameters
 3741.00                                 [l_ini (A)]
 7218.00                                 [l_fin (A)]
    1.00                                 [dl    (A)]     (OBS: dl_cushion =    50.00 A)

## Normalization info
 4020.00                                 [l_norm (A) - for base]
 4010.00                                 [llow_norm (A) - window for f_obs]
 4060.00                                 [lupp_norm (A) - window for f_obs]
9.724959E-18                             [fobs_norm (in input units)]

## S/N
 3691.00                                 [llow_SN (A) - window for S/N]
 7268.00                                 [lupp_SN (A) - window for S/N]
   4.371                                 [S/N in S/N window]
   4.815                                 [S/N in norm. window]
   0.010                                 [S/N_err in S/N window]
   0.011                                 [S/N_err in norm. window]
  1.0000                                 [fscale_chi2]

## etc...
    -2007869                             [idum_orig]
  2427                                   [NOl_eff]
  2406                                   [Nl_eff]
    21    NSIGMA                         [Ntot_cliped & clip_method]
  5725580                                [Nglobal_steps]
   7                                     [N_chains]
  41                                     [NEX0s_base = N_base in EX0s-fits]
 0   0   1       21   2.0   1.856E+03    [Clip-Bug, RC-Crash & Burn-In warning-flags, n_censored_weights, wei_nsig_threshold & wei_limit]
    64     63.218     62.646      0.572  [idt_all, wdt_TotTime, wdt_UsrTime & wdt_SysTime (sec)]

## Synthesis Results - Best model ##

 7.74837E-06                             [chi2/Nl_eff]
    19.85059                             [adev (%)]

   112.24776                             [sum-of-x (%)]
 6.92251E-18                             [Flux_tot (units of input spectrum!)]
 2.96281E-13                             [Mini_tot (???)]
 1.49266E-13                             [Mcor_tot (???)]

 480.11                                  [v0_min  (km/s)]
 442.67                                  [vd_min  (km/s)]
-0.3391                                  [AV_min  (mag)]
 0.0000                                  [YAV_min (mag)]

# j     x_j(%)      Mini_j(%)     Mcor_j(%)     age_j(yr)     Z_j      (L/M)_j    YAV?  Mstars   component_j        a/Fe...       SSP_chi2r SSP_adev(%)   SSP_AV   SSP_x(%)
  1      0.9671     1.8400E-03    3.6523E-03    1.000000E+06  0.00400  1.094E-02    0   1.0000   age020_m42            0.0000     1.0683E-05    23.4619   2.9114    90.0929
  2      0.0000     0.0000E+00    0.0000E+00    3.160000E+06  0.00400  4.007E-02    0   0.9999   age045_m42            0.0000     9.3662E-06    21.9791   2.1263    98.5979
  3      0.0000     0.0000E+00    0.0000E+00    5.010000E+06  0.00400  2.539E-02    0   0.9488   age055_m42            0.0000     9.8921E-06    22.6582   2.4730    95.2156
  4      0.0000     0.0000E+00    0.0000E+00    6.610000E+06  0.00400  2.620E-02    0   0.9220   age061_m42            0.0000     9.3509E-06    22.0063   2.0540    98.8631
  5      3.3705     5.3069E-03    9.3350E-03    1.000000E+07  0.00400  1.322E-02    0   0.8862   age070_m42            0.0000     9.8611E-06    23.5178   1.8299    99.2776
  6      0.0000     0.0000E+00    0.0000E+00    1.445000E+07  0.00400  7.883E-03    0   0.8571   age078_m42            0.0000     1.0121E-05    23.7201   2.1641    96.3806
  7      0.0000     0.0000E+00    0.0000E+00    2.512000E+07  0.00400  5.251E-03    0   0.8174   age090_m42            0.0000     9.8667E-06    23.6974   1.7051    99.7574
  8      0.0000     0.0000E+00    0.0000E+00    4.000000E+07  0.00400  3.649E-03    0   0.7851   age104_m42            0.0000     9.5920E-06    23.2662   1.4634   101.1466
  9      0.0000     0.0000E+00    0.0000E+00    5.500000E+07  0.00400  3.098E-03    0   0.7629   age110_m42            0.0000     9.2348E-06    22.2545   1.5809   102.3271
 10      0.7826     7.3114E-03    1.0459E-02    1.015200E+08  0.00400  2.228E-03    0   0.7207   age116_m42            0.0000     9.0206E-06    21.5703   1.5741   103.4176
 11      0.0000     0.0000E+00    0.0000E+00    2.861200E+08  0.00400  1.093E-03    0   0.6648   age125_m42            0.0000     8.9035E-06    21.7855   1.0089   106.5213
 12      2.0830     6.5725E-02    8.3037E-02    5.088000E+08  0.00400  6.597E-04    0   0.6365   age130_m42            0.0000     8.5597E-06    20.7115   0.9592   108.7953
 13      5.3195     5.1936E-01    5.9771E-01    1.434000E+09  0.00400  2.132E-04    0   0.5798   age139_m42            0.0000     7.8543E-06    20.0776  -0.0213   111.4122
 14      0.0000     0.0000E+00    0.0000E+00    4.250000E+09  0.00400  5.895E-05    0   0.5377   age158_m42            0.0000     7.8591E-06    19.9284  -0.4671   106.9480
 15      0.0000     0.0000E+00    0.0000E+00    7.500000E+09  0.00400  3.510E-05    0   0.5212   age171_m42            0.0000     7.8491E-06    19.6350  -0.6676   106.5465
 16      0.0000     0.0000E+00    0.0000E+00    1.300000E+10  0.00400  2.005E-05    0   0.5034   age193_m42            0.0000     7.9038E-06    19.4315  -0.8417   106.2006
 17     14.6317     1.9971E+01    1.9690E+01    1.800000E+10  0.00400  1.525E-05    0   0.4967   age213_m42            0.0000     7.9560E-06    19.5773  -0.8591   105.5619
 18      2.5193     4.2359E-03    8.4079E-03    1.000000E+06  0.00800  1.238E-02    0   1.0000   age020_m52            0.0000     1.0688E-05    23.4560   2.9060    90.3108
 19      0.0000     0.0000E+00    0.0000E+00    3.160000E+06  0.00800  3.074E-02    0   0.9966   age045_m52            0.0000     1.0515E-05    23.2868   2.8233    91.3507
 20      0.0080     6.2762E-06    1.1764E-05    5.010000E+06  0.00800  2.668E-02    0   0.9443   age055_m52            0.0000     1.0058E-05    22.8917   2.5647    94.0238
 21      0.0000     0.0000E+00    0.0000E+00    6.610000E+06  0.00800  2.136E-02    0   0.9177   age061_m52            0.0000     9.7616E-06    23.5071   1.3406   100.0025
 22      0.0000     0.0000E+00    0.0000E+00    1.000000E+07  0.00800  1.215E-02    0   0.8827   age070_m52            0.0000     1.0203E-05    24.2431   2.0326    98.2477
 23      0.0000     0.0000E+00    0.0000E+00    1.445000E+07  0.00800  8.717E-03    0   0.8552   age078_m52            0.0000     1.0018E-05    23.6511   2.1263    97.8744
 24      0.0000     0.0000E+00    0.0000E+00    2.512000E+07  0.00800  5.592E-03    0   0.8162   age090_m52            0.0000     9.8417E-06    23.7468   1.7686   100.9903
 25      0.0000     0.0000E+00    0.0000E+00    4.000000E+07  0.00800  3.896E-03    0   0.7841   age104_m52            0.0000     9.4834E-06    23.0983   1.6580   102.5692
 26      0.0000     0.0000E+00    0.0000E+00    1.015200E+08  0.00800  2.148E-03    0   0.7226   age116_m52            0.0000     9.0518E-06    22.0338   1.5603   103.6357
 27     10.3755     2.1760E-01    2.8865E-01    2.861200E+08  0.00800  9.925E-04    0   0.6683   age125_m52            0.0000     8.6048E-06    20.7295   1.0253   109.7818
 28      0.0000     0.0000E+00    0.0000E+00    9.047900E+08  0.00800  3.141E-04    0   0.6138   age135_m52            0.0000     7.8406E-06    19.4880   0.1786   116.1322
 29      0.0000     0.0000E+00    0.0000E+00    1.434000E+09  0.00800  1.719E-04    0   0.5853   age139_m52            0.0000     7.6951E-06    19.9072  -0.3805   112.8820
 30      0.0000     0.0000E+00    0.0000E+00    2.500000E+09  0.00800  7.872E-05    0   0.5600   age150_m52            0.0000     7.6535E-06    19.2858  -0.6761   110.6017
 31      0.0000     0.0000E+00    0.0000E+00    4.250000E+09  0.00800  4.336E-05    0   0.5426   age158_m52            0.0000     7.7664E-06    19.3304  -0.6866   109.3453
 32      0.0000     0.0000E+00    0.0000E+00    6.250000E+09  0.00800  3.159E-05    0   0.5319   age166_m52            0.0000     7.7439E-06    18.9092  -0.9153   110.1766
 33      0.0000     0.0000E+00    0.0000E+00    1.300000E+10  0.00800  1.361E-05    0   0.5073   age193_m52            0.0000     8.9402E-06    21.4388  -1.0000    99.8596
 34      0.0000     0.0000E+00    0.0000E+00    1.800000E+10  0.00800  9.886E-06    0   0.4990   age213_m52            0.0000     9.8772E-06    22.5306  -1.0000    96.5157
 35      0.0000     5.2601E-08    1.0441E-07    1.000000E+06  0.02000  1.544E-02    0   1.0000   age020_m62            0.0000     1.0721E-05    23.5073   2.9046    90.4524
 36      0.0000     0.0000E+00    0.0000E+00    3.160000E+06  0.02000  3.762E-02    0   0.9858   age045_m62            0.0000     1.0639E-05    23.3994   2.8389    91.4224
 37      0.0427     2.6965E-05    5.0002E-05    5.010000E+06  0.02000  3.296E-02    0   0.9342   age055_m62            0.0000     9.6411E-06    22.2309   2.4140    97.0770
 38      0.0000     0.0000E+00    0.0000E+00    8.710000E+06  0.02000  1.154E-02    0   0.8861   age067_m62            0.0000     1.2220E-05    28.3134   1.5959    97.5034
 39      0.0000     0.0000E+00    0.0000E+00    1.445000E+07  0.02000  7.663E-03    0   0.8472   age078_m62            0.0000     1.0586E-05    25.3054   1.7096    99.5705
 40      0.0000     0.0000E+00    0.0000E+00    2.512000E+07  0.02000  4.532E-03    0   0.8099   age090_m62            0.0000     1.0561E-05    25.3802   1.7006    99.3970
 41      0.0000     0.0000E+00    0.0000E+00    5.500000E+07  0.02000  2.733E-03    0   0.7595   age110_m62            0.0000     9.5645E-06    23.2170   1.6461   101.6382
 42      8.0738     1.2276E-01    1.7020E-01    1.609000E+08  0.02000  1.369E-03    0   0.6985   age120_m62            0.0000     8.9817E-06    21.4872   1.4197   106.8419
 43      0.0000     0.0000E+00    0.0000E+00    2.861200E+08  0.02000  9.013E-04    0   0.6714   age125_m62            0.0000     8.7594E-06    20.4413   1.1286   111.5148
 44      9.0556     3.7489E-01    4.7989E-01    5.088000E+08  0.02000  5.028E-04    0   0.6449   age130_m62            0.0000     8.2218E-06    19.1773   0.6956   116.4750
 45      3.9525     3.3885E-01    4.1559E-01    9.047900E+08  0.02000  2.428E-04    0   0.6179   age135_m62            0.0000     7.6909E-06    19.1531   0.1053   115.7735
 46      0.0000     0.0000E+00    0.0000E+00    1.434000E+09  0.02000  1.263E-04    0   0.5908   age139_m62            0.0000     7.6824E-06    19.2747  -0.3288   113.5867
 47      0.0000     0.0000E+00    0.0000E+00    2.500000E+09  0.02000  5.985E-05    0   0.5673   age150_m62            0.0000     7.7240E-06    18.9623  -0.7194   112.7014
 48      0.0000     0.0000E+00    0.0000E+00    4.250000E+09  0.02000  3.271E-05    0   0.5468   age158_m62            0.0000     7.7706E-06    18.4252  -1.0000   111.4222
 49      0.0000     0.0000E+00    0.0000E+00    1.000000E+10  0.02000  1.360E-05    0   0.5167   age181_m62            0.0000     9.3404E-06    20.5597  -1.0000   101.9756
 50      3.9352     1.1498E+01    1.1441E+01    1.800000E+10  0.02000  7.124E-06    0   0.5013   age213_m62            0.0000     1.1407E-05    23.0711  -1.0000    95.3260
 51      0.0000     0.0000E+00    0.0000E+00    1.000000E+06  0.05000  2.592E-02    0   0.9998   age020_m72            0.0000     1.0845E-05    23.6911   2.9024    90.2626
 52      0.0000     0.0000E+00    0.0000E+00    3.160000E+06  0.05000  4.845E-02    0   0.9577   age045_m72            0.0000     1.0172E-05    22.8288   2.6977    93.4966
 53      0.2984     2.0219E-04    3.6710E-04    5.010000E+06  0.05000  3.072E-02    0   0.9147   age055_m72            0.0000     1.0565E-05    24.5969   2.2734    96.1055
 54      0.0000     0.0000E+00    0.0000E+00    6.610000E+06  0.05000  1.455E-02    0   0.8877   age061_m72            0.0000     1.3386E-05    30.1959   1.6681    97.1738
 55      0.0000     0.0000E+00    0.0000E+00    1.000000E+07  0.05000  9.074E-03    0   0.8524   age070_m72            0.0000     1.0656E-05    24.7424   2.4479    95.8859
 56      0.0000     0.0000E+00    0.0000E+00    2.512000E+07  0.05000  4.250E-03    0   0.7902   age090_m72            0.0000     1.0077E-05    24.1097   2.1286    98.7121
 57      0.0000     0.0000E+00    0.0000E+00    4.000000E+07  0.05000  3.087E-03    0   0.7618   age104_m72            0.0000     9.9925E-06    24.1287   1.8979   100.6297
 58      0.1390     1.7014E-03    2.3965E-03    1.015200E+08  0.05000  1.700E-03    0   0.7096   age116_m72            0.0000     9.2224E-06    22.1541   1.5817   105.7038
 59      0.0000     0.0000E+00    0.0000E+00    2.861200E+08  0.05000  7.384E-04    0   0.6633   age125_m72            0.0000     8.5230E-06    19.7506   0.9660   114.1798
 60     19.9868     1.0894E+00    1.3778E+00    5.088000E+08  0.05000  3.819E-04    0   0.6372   age130_m72            0.0000     7.9008E-06    19.0819   0.4372   117.3039
 61      0.0000     0.0000E+00    0.0000E+00    9.047900E+08  0.05000  1.676E-04    0   0.6110   age135_m72            0.0000     7.6619E-06    18.9390  -0.2810   115.7239
 62      1.2736     3.0000E-01    3.4978E-01    1.434000E+09  0.05000  8.837E-05    0   0.5874   age139_m72            0.0000     7.7554E-06    18.8922  -0.7357   114.9811
 63     12.5319     6.1624E+00    6.8474E+00    2.500000E+09  0.05000  4.233E-05    0   0.5598   age150_m72            0.0000     7.8815E-06    18.3598  -1.0000   112.5550
 64      0.0000     0.0000E+00    0.0000E+00    6.250000E+09  0.05000  1.435E-05    0   0.5249   age166_m72            0.0000     1.0107E-05    21.8499  -1.0000    98.9305
 65      0.0000     0.0000E+00    0.0000E+00    1.300000E+10  0.05000  6.513E-06    0   0.5036   age193_m72            0.0000     1.3386E-05    25.3928  -1.0000    91.7344
 66     12.9010     5.9319E+01    5.8224E+01    1.800000E+10  0.05000  4.527E-06    0   0.4945   age213_m72            0.0000     1.5810E-05    27.4558  -1.0000    86.7432


## Synthesis Results - Average & Chains ##

# j      x_j: min, <> & last-chain-values for 1 ...  7 chains
  1      0.9671      0.6398      1.1407      0.7557      1.5049      1.8119      0.2010      3.1655      1.5417
  2      0.0000      0.7153      2.5592      1.5917      0.4747      1.1085      3.5343      0.0000      1.9109
  3      0.0000      0.8758      0.9421      0.0000      2.0019      1.3011      1.4709      0.0000      0.9348
  4      0.0000      0.9830      3.2755      0.7667      0.6876      2.6228      0.0609      2.6463      1.3238
  5      3.3705      0.6695      2.9272      0.7083      0.0000      0.4906      0.9899      0.5879      1.0685
  6      0.0000      0.7376      0.0000      0.8604      2.1080      5.6876      0.7092      0.0000      2.3084
  7      0.0000      0.7424      0.0000      0.2783      5.1023      0.0000      2.3945      0.9835      0.6270
  8      0.0000      0.6712      0.0000      2.4203      0.0000      3.0598      2.3470      1.4540      3.0532
  9      0.0000      0.6392      4.3959      0.1217      1.8205      1.6649      1.8875      0.0000      0.3506
 10      0.7826      0.8188      0.0000      0.0000      0.0000      3.6545      6.5280      1.5592      0.0000
 11      0.0000      0.6736      0.0000      0.0420      2.4690      0.0000      1.3797      0.2882      0.0000
 12      2.0830      0.9276      0.0000      0.0000      0.7993      7.4449      0.6398      0.0833      1.9168
 13      5.3195      0.6402      0.0000      1.0984      1.0314      0.5301      0.3275      0.0000      0.5694
 14      0.0000      0.7674      2.4641      1.5278      0.0000      0.0000      0.3252      0.6386      0.6184
 15      0.0000      0.6001      1.2165      0.7046      0.1375      0.0000      0.0000      0.7865      2.2826
 16      0.0000      0.9963      2.6797      1.8536      3.2486      0.2368      0.2771      2.8984      0.0000
 17     14.6317      0.5903      0.5279      1.6976      0.0000      0.7736      0.7519      1.6010      0.0000
 18      2.5193      0.8871      3.6857      0.4145      0.6827      2.5781      2.2912      0.1312      0.0000
 19      0.0000      0.7911      3.6647      0.9225      3.0330      0.5244      0.0000      2.7005      1.3489
 20      0.0080      0.7850      2.1359      0.9695      0.7658      1.4735      1.0742      1.0304      1.5208
 21      0.0000      0.6402      0.0000      0.0000      0.0000      1.0630      0.9513      0.8715      0.0000
 22      0.0000      1.0059      0.2973      4.3132      2.7660      1.8348      0.0000      0.9700      2.4148
 23      0.0000      0.9052      2.7275      1.7554      0.0000      0.0000      4.7369      2.8168      0.3467
 24      0.0000      0.7169      0.9086      0.4723      1.4836      0.2163      0.0185      2.0321      1.0793
 25      0.0000      0.5724      1.4867      0.2666      0.0000      1.8318      2.2368      1.5438      1.9622
 26      0.0000      0.6382      0.1171      1.3813      1.2036      0.0000      0.9762      2.1527      3.0856
 27     10.3755      0.9660      0.0000      0.7201      0.0000      1.3081      1.4193      0.6888      1.4480
 28      0.0000      0.8227      0.8887      1.3610      0.0000      0.7327      0.0300      1.8226      0.0000
 29      0.0000      0.7339      2.0971      0.0000      2.2997      0.0000      0.4368      0.7613      0.5117
 30      0.0000      0.6498      0.6504      0.3726      0.4129      0.0000      0.0982      1.0289      1.4655
 31      0.0000      0.6953      0.0000      0.3996      0.7770      0.0740      0.0000      0.3347      0.5730
 32      0.0000      0.8934      0.0853      2.1890      0.0000      3.1232      3.1895      1.9894      0.0000
 33      0.0000      0.6030      1.6661      0.8048      0.9276      0.0000      0.0000      1.0760      4.3596
 34      0.0000      0.7644      0.3834      1.0457      0.1135      0.0000      1.8966      0.9848      0.6052
 35      0.0000      0.9309      1.4050      3.5261      0.4713      3.0847      2.5215      7.6477      0.5833
 36      0.0000      1.5834      0.0000      0.0000      0.6886      1.3378      4.0107      1.7032      2.7201
 37      0.0427      1.0696      2.1632      0.0000      3.5157      0.9072      3.2342      0.1962      2.0869
 38      0.0000      0.8638      0.4364      0.6504      0.0000      0.4013      0.0000      2.3569      0.4688
 39      0.0000      0.8515      3.3053      1.5834      0.0000      0.0000      1.7881      0.4571      1.4735
 40      0.0000      0.5844      0.0000      0.4327      2.6508      1.9420      0.0000      1.1147      0.8821
 41      0.0000      0.7193      0.0000      1.4464      0.0000      0.0000      1.7399      2.3581      0.8249
 42      8.0738      0.6070      0.3694      2.5937      0.8473      0.9582      0.5534      0.0000      0.9566
 43      0.0000      0.5804      2.2227      0.8510      0.4674      0.0000      2.8375      0.2308      0.3660
 44      9.0556      0.9043      2.2903      0.1204      2.8412      1.3717      2.2227      3.7078      0.6314
 45      3.9525      0.7723      1.4922      1.5086      0.5895      2.1120      1.6307      0.0359      1.3094
 46      0.0000      0.9814      0.0000      0.0000      0.5496      0.3591      2.3031      0.0000      2.1764
