###################################################################
## OUTPUT of StarlightChains_v04.for    [Cid@UFSC - 01/Apr/2007] ##
###################################################################

## Some input info
KUG0210-078._41_47.txt                   [arq_obs]
Base.CB07.vall.4m                        [arq_base]
Masks.EmLines.NEW.gm                     [arq_masks]
StCv04.C11.config                        [arq_config]
   66                                    [N_base]
    0                                    [N_YAV_components = # of components with extra extinction!]
    0                                    [i_FitPowerLaw (1/0 = Yes/No)]
-9.99                                    [alpha_PowerLaw]
CCM                                      [red_law_option]
 1.458241                                [q_norm = A(l_norm)/A(V)]

## (Re)Sampling Parameters
 3741.00                                 [l_ini (A)]
 7218.00                                 [l_fin (A)]
    1.00                                 [dl    (A)]     (OBS: dl_cushion =    50.00 A)

## Normalization info
 4020.00                                 [l_norm (A) - for base]
 4010.00                                 [llow_norm (A) - window for f_obs]
 4060.00                                 [lupp_norm (A) - window for f_obs]
7.002519E-18                             [fobs_norm (in input units)]

## S/N
 3691.00                                 [llow_SN (A) - window for S/N]
 7268.00                                 [lupp_SN (A) - window for S/N]
   3.538                                 [S/N in S/N window]
   3.085                                 [S/N in norm. window]
   0.010                                 [S/N_err in S/N window]
   0.009                                 [S/N_err in norm. window]
  1.0000                                 [fscale_chi2]

## etc...
    -2007759                             [idum_orig]
  2411                                   [NOl_eff]
  2126                                   [Nl_eff]
   285    NSIGMA                         [Ntot_cliped & clip_method]
 10759630                                [Nglobal_steps]
   7                                     [N_chains]
  38                                     [NEX0s_base = N_base in EX0s-fits]
 0   0   1      285   2.0   5.266E+03    [Clip-Bug, RC-Crash & Burn-In warning-flags, n_censored_weights, wei_nsig_threshold & wei_limit]
   173    170.427    168.123      2.304  [idt_all, wdt_TotTime, wdt_UsrTime & wdt_SysTime (sec)]

## Synthesis Results - Best model ##

 1.48194E-05                             [chi2/Nl_eff]
    15.91590                             [adev (%)]

   130.00000                             [sum-of-x (%)]
 1.53628E-16                             [Flux_tot (units of input spectrum!)]
 2.95006E-14                             [Mini_tot (???)]
 2.09321E-14                             [Mcor_tot (???)]

 -54.82                                  [v0_min  (km/s)]
 478.34                                  [vd_min  (km/s)]
 2.1040                                  [AV_min  (mag)]
 0.0000                                  [YAV_min (mag)]

# j     x_j(%)      Mini_j(%)     Mcor_j(%)     age_j(yr)     Z_j      (L/M)_j    YAV?  Mstars   component_j        a/Fe...       SSP_chi2r SSP_adev(%)   SSP_AV   SSP_x(%)
  1      5.7442     2.1033E+00    2.9643E+00    1.000000E+06  0.00400  1.094E-02    0   1.0000   age020_m42            0.0000     1.4272E-05    14.4243   2.4154   139.3567
  2     31.2699     3.1261E+00    4.4053E+00    3.160000E+06  0.00400  4.007E-02    0   0.9999   age045_m42            0.0000     1.3967E-05    14.5863   1.7590   144.6689
  3     23.4009     3.6920E+00    4.9369E+00    5.010000E+06  0.00400  2.539E-02    0   0.9488   age055_m42            0.0000     1.4108E-05    14.4981   2.0481   143.0107
  4      0.0000     0.0000E+00    0.0000E+00    6.610000E+06  0.00400  2.620E-02    0   0.9220   age061_m42            0.0000     1.4000E-05    14.6194   1.6910   144.7752
  5      0.0000     0.0000E+00    0.0000E+00    1.000000E+07  0.00400  1.322E-02    0   0.8862   age070_m42            0.0000     1.4197E-05    14.9575   1.4205   147.9129
  6      8.1103     4.1214E+00    4.9784E+00    1.445000E+07  0.00400  7.883E-03    0   0.8571   age078_m42            0.0000     1.4253E-05    14.8428   1.7271   145.2617
  7      0.0000     0.0000E+00    0.0000E+00    2.512000E+07  0.00400  5.251E-03    0   0.8174   age090_m42            0.0000     1.4240E-05    15.1034   1.3000   148.3141
  8      0.0000     0.0000E+00    0.0000E+00    4.000000E+07  0.00400  3.649E-03    0   0.7851   age104_m42            0.0000     1.4200E-05    15.0922   1.0829   148.8027
  9      0.0000     0.0000E+00    0.0000E+00    5.500000E+07  0.00400  3.098E-03    0   0.7629   age110_m42            0.0000     1.4016E-05    14.9355   1.2387   148.3367
 10      2.7120     4.8761E+00    4.9528E+00    1.015200E+08  0.00400  2.228E-03    0   0.7207   age116_m42            0.0000     1.3907E-05    14.8435   1.2624   148.1842
 11      0.0000     0.0000E+00    0.0000E+00    2.861200E+08  0.00400  1.093E-03    0   0.6648   age125_m42            0.0000     1.4036E-05    15.2596   0.7162   151.0568
 12      0.0000     0.0000E+00    0.0000E+00    5.088000E+08  0.00400  6.597E-04    0   0.6365   age130_m42            0.0000     1.3897E-05    15.0681   0.7176   151.3950
 13      0.0000     0.0000E+00    0.0000E+00    1.434000E+09  0.00400  2.132E-04    0   0.5798   age139_m42            0.0000     1.4064E-05    14.8828  -0.2117   151.5740
 14      0.0000     0.0000E+00    0.0000E+00    4.250000E+09  0.00400  5.895E-05    0   0.5377   age158_m42            0.0000     1.4346E-05    14.3276  -0.6587   145.5688
 15      0.0000     0.0000E+00    0.0000E+00    7.500000E+09  0.00400  3.510E-05    0   0.5212   age171_m42            0.0000     1.4477E-05    14.2307  -0.8429   144.0877
 16      0.0000     0.0000E+00    0.0000E+00    1.300000E+10  0.00400  2.005E-05    0   0.5034   age193_m42            0.0000     1.4616E-05    14.2521  -1.0000   142.8664
 17      0.0000     0.0000E+00    0.0000E+00    1.800000E+10  0.00400  1.525E-05    0   0.4967   age213_m42            0.0000     1.4623E-05    14.4546  -1.0000   141.5886
 18      4.9105     1.5889E+00    2.2394E+00    1.000000E+06  0.00800  1.238E-02    0   1.0000   age020_m52            0.0000     1.4250E-05    14.4123   2.4095   139.7205
 19      0.0000     0.0000E+00    0.0000E+00    3.160000E+06  0.00800  3.074E-02    0   0.9966   age045_m52            0.0000     1.4240E-05    14.4115   2.3400   140.5842
 20      0.0000     0.0000E+00    0.0000E+00    5.010000E+06  0.00800  2.668E-02    0   0.9443   age055_m52            0.0000     1.4174E-05    14.4668   2.1235   142.2003
 21      0.0000     0.0000E+00    0.0000E+00    6.610000E+06  0.00800  2.136E-02    0   0.9177   age061_m52            0.0000     1.4323E-05    14.7523   0.9254   149.2363
 22      0.0000     0.0000E+00    0.0000E+00    1.000000E+07  0.00800  1.215E-02    0   0.8827   age070_m52            0.0000     1.4281E-05    15.1285   1.5927   148.1287
 23      0.0141     6.4976E-03    7.8314E-03    1.445000E+07  0.00800  8.717E-03    0   0.8552   age078_m52            0.0000     1.4212E-05    14.8856   1.6992   146.9285
 24      6.7230     4.8160E+00    5.5399E+00    2.512000E+07  0.00800  5.592E-03    0   0.8162   age090_m52            0.0000     1.4196E-05    15.2002   1.3657   149.8842
 25      5.1475     5.2927E+00    5.8488E+00    4.000000E+07  0.00800  3.896E-03    0   0.7841   age104_m52            0.0000     1.4110E-05    15.1720   1.2904   150.0635
 26      0.0000     0.0000E+00    0.0000E+00    1.015200E+08  0.00800  2.148E-03    0   0.7226   age116_m52            0.0000     1.4019E-05    14.9603   1.2382   148.9152
 27      0.0000     0.0000E+00    0.0000E+00    2.861200E+08  0.00800  9.925E-04    0   0.6683   age125_m52            0.0000     1.3811E-05    15.0100   0.7797   153.0098
 28      0.0690     8.8037E-01    7.6157E-01    9.047900E+08  0.00800  3.141E-04    0   0.6138   age135_m52            0.0000     1.3638E-05    14.7957   0.0236   155.8805
 29      0.0000     0.0000E+00    0.0000E+00    1.434000E+09  0.00800  1.719E-04    0   0.5853   age139_m52            0.0000     1.3996E-05    14.6647  -0.5614   152.7546
 30      0.1906     9.7006E+00    7.6561E+00    2.500000E+09  0.00800  7.872E-05    0   0.5600   age150_m52            0.0000     1.4115E-05    14.1753  -0.8316   148.4050
 31      0.0000     0.0000E+00    0.0000E+00    4.250000E+09  0.00800  4.336E-05    0   0.5426   age158_m52            0.0000     1.4193E-05    14.1146  -0.8460   146.8924
 32      0.0000     0.0000E+00    0.0000E+00    6.250000E+09  0.00800  3.159E-05    0   0.5319   age166_m52            0.0000     1.4363E-05    14.3166  -1.0000   144.8577
 33      0.0000     0.0000E+00    0.0000E+00    1.300000E+10  0.00800  1.361E-05    0   0.5073   age193_m52            0.0000     1.5942E-05    20.7178  -1.0000   127.7956
 34      0.0000     0.0000E+00    0.0000E+00    1.800000E+10  0.00800  9.886E-06    0   0.4990   age213_m52            0.0000     1.6687E-05    22.3223  -1.0000   123.1965
 35      7.8107     2.0265E+00    2.8560E+00    1.000000E+06  0.02000  1.544E-02    0   1.0000   age020_m62            0.0000     1.4255E-05    14.4145   2.4044   140.1384
 36      0.0000     0.0000E+00    0.0000E+00    3.160000E+06  0.02000  3.762E-02    0   0.9858   age045_m62            0.0000     1.4238E-05    14.4214   2.3392   141.5413
 37      0.0000     0.0000E+00    0.0000E+00    5.010000E+06  0.02000  3.296E-02    0   0.9342   age055_m62            0.0000     1.4001E-05    14.4949   2.0139   144.3856
 38      0.0000     0.0000E+00    0.0000E+00    8.710000E+06  0.02000  1.154E-02    0   0.8861   age067_m62            0.0000     1.4961E-05    16.6374   1.0377   154.0577
 39      0.0000     0.0000E+00    0.0000E+00    1.445000E+07  0.02000  7.663E-03    0   0.8472   age078_m62            0.0000     1.4489E-05    15.6220   1.2438   151.4163
 40      0.0000     0.0000E+00    0.0000E+00    2.512000E+07  0.02000  4.532E-03    0   0.8099   age090_m62            0.0000     1.4561E-05    15.8018   1.2424   150.6476
 41      0.0000     0.0000E+00    0.0000E+00    5.500000E+07  0.02000  2.733E-03    0   0.7595   age110_m62            0.0000     1.4163E-05    15.0882   1.2652   149.4921
 42      0.0000     0.0000E+00    0.0000E+00    1.609000E+08  0.02000  1.369E-03    0   0.6985   age120_m62            0.0000     1.3823E-05    14.9255   1.1199   152.1891
 43      0.0000     0.0000E+00    0.0000E+00    2.861200E+08  0.02000  9.013E-04    0   0.6714   age125_m62            0.0000     1.3642E-05    14.8795   0.8847   155.3876
 44      0.7166     5.7090E+00    5.1888E+00    5.088000E+08  0.02000  5.028E-04    0   0.6449   age130_m62            0.0000     1.3444E-05    14.6911   0.5307   157.3687
 45      0.0000     0.0000E+00    0.0000E+00    9.047900E+08  0.02000  2.428E-04    0   0.6179   age135_m62            0.0000     1.3559E-05    14.3839  -0.0353   154.6552
 46      0.0000     0.0000E+00    0.0000E+00    1.434000E+09  0.02000  1.263E-04    0   0.5908   age139_m62            0.0000     1.3775E-05    14.1618  -0.4773   152.0101
 47      0.0000     0.0000E+00    0.0000E+00    2.500000E+09  0.02000  5.985E-05    0   0.5673   age150_m62            0.0000     1.3965E-05    13.9331  -0.8536   150.0813
 48      0.0000     0.0000E+00    0.0000E+00    4.250000E+09  0.02000  3.271E-05    0   0.5468   age158_m62            0.0000     1.4387E-05    15.0408  -1.0000   143.0445
 49      0.0000     0.0000E+00    0.0000E+00    1.000000E+10  0.02000  1.360E-05    0   0.5167   age181_m62            0.0000     1.5796E-05    19.8502  -1.0000   129.9966
 50      0.0000     0.0000E+00    0.0000E+00    1.800000E+10  0.02000  7.124E-06    0   0.5013   age213_m62            0.0000     1.7342E-05    23.1818  -1.0000   121.3867
 51      0.0000     0.0000E+00    0.0000E+00    1.000000E+06  0.05000  2.592E-02    0   0.9998   age020_m72            0.0000     1.4260E-05    14.3924   2.3917   140.4455
 52     25.5668     2.1139E+00    2.8532E+00    3.160000E+06  0.05000  4.845E-02    0   0.9577   age045_m72            0.0000     1.4184E-05    14.4421   2.2418   142.2489
 53      0.0000     0.0000E+00    0.0000E+00    5.010000E+06  0.05000  3.072E-02    0   0.9147   age055_m72            0.0000     1.4364E-05    15.1949   1.7937   147.0893
 54      0.0000     0.0000E+00    0.0000E+00    6.610000E+06  0.05000  1.455E-02    0   0.8877   age061_m72            0.0000     1.5663E-05    18.3708   1.0592   156.2700
 55      0.0000     0.0000E+00    0.0000E+00    1.000000E+07  0.05000  9.074E-03    0   0.8524   age070_m72            0.0000     1.4527E-05    15.6999   1.9623   146.8312
 56      0.0000     0.0000E+00    0.0000E+00    2.512000E+07  0.05000  4.250E-03    0   0.7902   age090_m72            0.0000     1.4395E-05    15.5861   1.7014   147.6840
 57      0.0000     0.0000E+00    0.0000E+00    4.000000E+07  0.05000  3.087E-03    0   0.7618   age104_m72            0.0000     1.4368E-05    15.8078   1.4886   149.3922
 58      0.5092     1.1998E+00    1.1999E+00    1.015200E+08  0.05000  1.700E-03    0   0.7096   age116_m72            0.0000     1.3960E-05    15.2008   1.2616   151.7069
 59      7.0353     3.8167E+01    3.5679E+01    2.861200E+08  0.05000  7.384E-04    0   0.6633   age125_m72            0.0000     1.3396E-05    14.7337   0.7647   156.4382
 60      0.0000     0.0000E+00    0.0000E+00    5.088000E+08  0.05000  3.819E-04    0   0.6372   age130_m72            0.0000     1.3233E-05    14.3526   0.2871   157.4319
 61      0.0000     0.0000E+00    0.0000E+00    9.047900E+08  0.05000  1.676E-04    0   0.6110   age135_m72            0.0000     1.3521E-05    13.9222  -0.4033   153.5676
 62      0.0000     0.0000E+00    0.0000E+00    1.434000E+09  0.05000  8.837E-05    0   0.5874   age139_m72            0.0000     1.3868E-05    13.9538  -0.8474   151.7667
 63      0.0641     6.0657E+00    4.7856E+00    2.500000E+09  0.05000  4.233E-05    0   0.5598   age150_m72            0.0000     1.4265E-05    15.0245  -1.0000   144.3210
 64      0.0000     0.0000E+00    0.0000E+00    6.250000E+09  0.05000  1.435E-05    0   0.5249   age166_m72            0.0000     1.6355E-05    21.4758  -1.0000   126.0793
 65      0.0000     0.0000E+00    0.0000E+00    1.300000E+10  0.05000  6.513E-06    0   0.5036   age193_m72            0.0000     1.8975E-05    25.9955  -1.0000   116.9679
 66      0.0051     4.5143E+00    3.1461E+00    1.800000E+10  0.05000  4.527E-06    0   0.4945   age213_m72            0.0000     2.0894E-05    28.4795  -1.0000   110.7195


## Synthesis Results - Average & Chains ##

# j      x_j: min, <> & last-chain-values for 1 ...  7 chains
  1      5.7442     21.2060     15.4340     19.4406     17.1687     16.5204     19.9333     15.3118     16.9569
  2     31.2699      0.1842      0.3375      1.4816      0.2479      1.4697      0.6370      0.0000      0.0000
  3     23.4009      0.1745      0.6664      0.2143      0.1522      0.3260      0.0000      0.6334      0.0103
  4      0.0000      0.1176      0.0000      0.0000      0.4374      0.4803      0.0000      0.0000      0.2145
  5      0.0000      0.2198      0.5323      0.3759      0.6036      0.1000      0.8464      1.3047      0.5540
  6      8.1103      0.2046      0.5188      0.4557      0.3855      1.6156      0.5651      1.1347      0.1792
  7      0.0000      0.3682      0.3799      0.3331      0.0000      1.1702      0.2923      0.8232      0.8878
  8      0.0000      0.1810      0.1599      0.1134      0.0000      0.0000      0.0000      0.5083      0.8479
  9      0.0000      0.2555      0.0000      1.8446      0.4731      2.1495      0.7355      0.4710      0.3156
 10      2.7120      0.2288      0.0289      0.6063      0.1706      0.4548      1.6581      1.2415      0.0000
 11      0.0000      0.1822      0.6849      0.4926      0.6222      0.6072      0.6247      0.0000      0.0000
 12      0.0000      0.1716      0.6348      0.0000      0.2280      0.0000      0.5164      1.7690      0.6006
 13      0.0000      0.2243      0.9165      0.4577      1.1829      1.6839      0.6467      1.4202      0.0000
 14      0.0000      0.1961      0.4810      0.0507      0.6935      0.0000      0.0000      0.5251      1.1907
 15      0.0000      0.2130      0.3766      0.4227      0.0000      0.0533      0.0000      1.5484      0.6616
 16      0.0000      0.2615      2.0137      0.0000      0.0730      0.2074      0.0638      0.8814      0.2940
 17      0.0000      0.2058      0.0000      0.0000      0.4020      0.0549      0.0000      1.4780      0.0051
 18      4.9105     15.1176     13.9285     13.4210     12.8421      9.9432     11.9412     11.5885     14.5361
 19      0.0000      0.1895      0.3041      0.0000      0.1721      0.0000      0.0000      0.9471      0.1732
 20      0.0000      0.2245      0.2255      0.1316      0.5101      0.2689      0.0536      0.2911      0.4299
 21      0.0000      0.2086      0.8044      0.0000      0.4221      0.0752      0.4007      1.2927      0.3356
 22      0.0000      0.2374      1.3460      0.1850      1.0023      0.0827      0.2153      0.0000      0.2674
 23      0.0141      0.3306      0.0000      0.0000      0.7498      0.3471      1.7166      0.2902      2.6251
 24      6.7230      0.2386      0.2497      0.2613      0.0258      0.8379      0.8822      0.0000      0.0966
 25      5.1475      0.2746      0.3805      0.2548      0.0000      0.8189      0.0855      3.5635      0.5716
 26      0.0000      0.2375      0.9818      0.3352      0.2696      1.3203      0.0000      0.0000      0.3350
 27      0.0000      0.1907      0.0000      0.1399      0.0000      0.4259      0.0000      0.8943      0.1407
 28      0.0690      0.2474      1.7420      1.2099      0.3955      1.5563      1.3682      0.0000      0.3804
 29      0.0000      0.2516      0.3877      0.2509      0.8010      2.3027      0.0000      0.0000      0.2601
 30      0.1906      0.2346      1.1629      0.6458      0.0000      1.1286      0.0000      0.9851      0.8087
 31      0.0000      0.2065      0.0414      0.6329      1.0194      0.1831      0.9967      0.0000      0.5899
 32      0.0000      0.2401      0.7631      0.5401      0.9780      0.0000      0.8765      0.1201      0.6344
 33      0.0000      0.2771      0.7471      2.0882      0.5970      0.0000      0.0000      0.9368      0.0000
 34      0.0000      0.2108      2.5014      0.1059      0.5513      0.3160      0.3079      0.9916      0.6750
 35      7.8107      5.2313      4.9648      4.5501      4.7039      3.7953      5.5371      4.7301      4.5167
 36      0.0000      0.1809      0.0000      0.0000      1.1457      0.1374      0.2171      0.3891      0.2851
 37      0.0000      0.1785      0.1621      0.2980      0.6330      0.7538      0.0700      0.2200      0.0075
 38      0.0000      0.2340      0.2006      1.5310      0.1867      0.1745      0.0000      0.0000      0.6157
 39      0.0000      0.1761      0.0000      1.5346      0.8521      0.0000      0.0000      0.6674      0.0000
 40      0.0000      0.2774      0.1367      0.5158      0.7956      0.6106      0.0004      0.0000      0.7667
 41      0.0000      0.1901      1.4566      0.1668      0.0000      0.4825      0.1195      1.5808      0.5510
 42      0.0000      0.1608      0.1255      0.0000      0.0000      0.0000      0.0226      0.1096      0.0000
 43      0.0000      0.1729      0.4853      0.0000      0.3897      0.1517      0.4381      0.0000      0.1926
 44      0.7166      0.1470      0.9231      0.3958      0.1676      0.8344      0.2112      0.0000      0.7222
 45      0.0000      0.2295      0.6127      0.2572      0.2987      0.0000      0.8527      0.1955      0.2487
 46      0.0000      0.2169      0.9010      0.3136      0.0000      0.0187      0.1535      0.9127      0.4988
