###################################################################
## OUTPUT of StarlightChains_v04.for    [Cid@UFSC - 01/Apr/2007] ##
###################################################################

## Some input info
KUG0210-078._32_32.txt                   [arq_obs]
Base.CB07.vall.4m                        [arq_base]
Masks.EmLines.NEW.gm                     [arq_masks]
StCv04.C11.config                        [arq_config]
   66                                    [N_base]
    0                                    [N_YAV_components = # of components with extra extinction!]
    0                                    [i_FitPowerLaw (1/0 = Yes/No)]
-9.99                                    [alpha_PowerLaw]
CCM                                      [red_law_option]
 1.458241                                [q_norm = A(l_norm)/A(V)]

## (Re)Sampling Parameters
 3741.00                                 [l_ini (A)]
 7218.00                                 [l_fin (A)]
    1.00                                 [dl    (A)]     (OBS: dl_cushion =    50.00 A)

## Normalization info
 4020.00                                 [l_norm (A) - for base]
 4010.00                                 [llow_norm (A) - window for f_obs]
 4060.00                                 [lupp_norm (A) - window for f_obs]
1.039421E-16                             [fobs_norm (in input units)]

## S/N
 3691.00                                 [llow_SN (A) - window for S/N]
 7268.00                                 [lupp_SN (A) - window for S/N]
   4.997                                 [S/N in S/N window]
   4.030                                 [S/N in norm. window]
   0.221                                 [S/N_err in S/N window]
   0.179                                 [S/N_err in norm. window]
  1.0000                                 [fscale_chi2]

## etc...
    -2007480                             [idum_orig]
  2432                                   [NOl_eff]
  2358                                   [Nl_eff]
    74    NSIGMA                         [Ntot_cliped & clip_method]
 15611190                                [Nglobal_steps]
   7                                     [N_chains]
   9                                     [NEX0s_base = N_base in EX0s-fits]
 0   0   1       74   2.0   3.827E+04    [Clip-Bug, RC-Crash & Burn-In warning-flags, n_censored_weights, wei_nsig_threshold & wei_limit]
   441    438.475    435.537      2.938  [idt_all, wdt_TotTime, wdt_UsrTime & wdt_SysTime (sec)]

## Synthesis Results - Best model ##

 8.56782E-05                             [chi2/Nl_eff]
     2.72059                             [adev (%)]

   111.68864                             [sum-of-x (%)]
 7.43994E-17                             [Flux_tot (units of input spectrum!)]
 7.64908E-12                             [Mini_tot (???)]
 3.82773E-12                             [Mcor_tot (???)]

 -19.74                                  [v0_min  (km/s)]
 246.71                                  [vd_min  (km/s)]
-0.3313                                  [AV_min  (mag)]
 0.0000                                  [YAV_min (mag)]

# j     x_j(%)      Mini_j(%)     Mcor_j(%)     age_j(yr)     Z_j      (L/M)_j    YAV?  Mstars   component_j        a/Fe...       SSP_chi2r SSP_adev(%)   SSP_AV   SSP_x(%)
  1      0.0000     0.0000E+00    0.0000E+00    1.000000E+06  0.00400  1.094E-02    0   1.0000   age020_m42            0.0000     1.0156E-03    10.3293   3.7014    90.8711
  2      0.0000     0.0000E+00    0.0000E+00    3.160000E+06  0.00400  4.007E-02    0   0.9999   age045_m42            0.0000     7.9624E-04     9.1898   2.9690    97.3932
  3      0.0000     0.0000E+00    0.0000E+00    5.010000E+06  0.00400  2.539E-02    0   0.9488   age055_m42            0.0000     8.9150E-04     9.7136   3.2920    94.8853
  4      0.0000     0.0000E+00    0.0000E+00    6.610000E+06  0.00400  2.620E-02    0   0.9220   age061_m42            0.0000     7.9931E-04     9.1753   2.8959    97.5933
  5      0.0000     0.0000E+00    0.0000E+00    1.000000E+07  0.00400  1.322E-02    0   0.8862   age070_m42            0.0000     9.3511E-04    10.3297   2.6246    99.2493
  6      0.0000     0.0000E+00    0.0000E+00    1.445000E+07  0.00400  7.883E-03    0   0.8571   age078_m42            0.0000     9.7964E-04    10.5186   2.9512    96.7317
  7      0.0000     0.0000E+00    0.0000E+00    2.512000E+07  0.00400  5.251E-03    0   0.8174   age090_m42            0.0000     9.5236E-04    10.5293   2.4958    99.7628
  8      0.0000     0.0000E+00    0.0000E+00    4.000000E+07  0.00400  3.649E-03    0   0.7851   age104_m42            0.0000     8.8906E-04    10.1415   2.2660   100.7175
  9      0.0000     0.0000E+00    0.0000E+00    5.500000E+07  0.00400  3.098E-03    0   0.7629   age110_m42            0.0000     8.0454E-04     9.3760   2.4140   100.9397
 10      0.0000     0.0000E+00    0.0000E+00    1.015200E+08  0.00400  2.228E-03    0   0.7207   age116_m42            0.0000     7.5349E-04     8.8683   2.4301   101.2925
 11      0.0000     0.0000E+00    0.0000E+00    2.861200E+08  0.00400  1.093E-03    0   0.6648   age125_m42            0.0000     7.6453E-04     9.1507   1.8595   104.3192
 12      0.0000     0.0000E+00    0.0000E+00    5.088000E+08  0.00400  6.597E-04    0   0.6365   age130_m42            0.0000     6.5774E-04     8.2209   1.8440   105.4641
 13      0.0000     0.0000E+00    0.0000E+00    1.434000E+09  0.00400  2.132E-04    0   0.5798   age139_m42            0.0000     4.3574E-04     6.5978   0.8720   107.7443
 14      0.0000     0.0000E+00    0.0000E+00    4.250000E+09  0.00400  5.895E-05    0   0.5377   age158_m42            0.0000     3.1280E-04     5.5717   0.4223   104.0300
 15      0.0000     0.0000E+00    0.0000E+00    7.500000E+09  0.00400  3.510E-05    0   0.5212   age171_m42            0.0000     2.7016E-04     5.0982   0.2292   103.5483
 16      0.0000     0.0000E+00    0.0000E+00    1.300000E+10  0.00400  2.005E-05    0   0.5034   age193_m42            0.0000     2.4705E-04     4.7948   0.0590   103.1721
 17      0.0000     0.0000E+00    0.0000E+00    1.800000E+10  0.00400  1.525E-05    0   0.4967   age213_m42            0.0000     2.5719E-04     4.8895   0.0376   102.6618
 18      0.0000     0.0000E+00    0.0000E+00    1.000000E+06  0.00800  1.238E-02    0   1.0000   age020_m52            0.0000     1.0147E-03    10.3147   3.6967    91.0834
 19      0.0000     0.0000E+00    0.0000E+00    3.160000E+06  0.00800  3.074E-02    0   0.9966   age045_m52            0.0000     9.8976E-04    10.1705   3.6186    91.9628
 20      0.0000     0.0000E+00    0.0000E+00    5.010000E+06  0.00800  2.668E-02    0   0.9443   age055_m52            0.0000     9.1855E-04     9.8248   3.3747    94.0400
 21      0.0000     0.0000E+00    0.0000E+00    6.610000E+06  0.00800  2.136E-02    0   0.9177   age061_m52            0.0000     8.4292E-04     9.8807   2.1258   100.4432
 22      0.0000     0.0000E+00    0.0000E+00    1.000000E+07  0.00800  1.215E-02    0   0.8827   age070_m52            0.0000     1.0180E-03    10.8993   2.8055    98.9307
 23      0.0000     0.0000E+00    0.0000E+00    1.445000E+07  0.00800  8.717E-03    0   0.8552   age078_m52            0.0000     9.5715E-04    10.3937   2.9165    98.1062
 24      0.0000     0.0000E+00    0.0000E+00    2.512000E+07  0.00800  5.592E-03    0   0.8162   age090_m52            0.0000     9.4630E-04    10.4940   2.5588   100.9804
 25      0.0000     0.0000E+00    0.0000E+00    4.000000E+07  0.00800  3.896E-03    0   0.7841   age104_m52            0.0000     8.7241E-04     9.9914   2.4670   101.9274
 26      0.0000     0.0000E+00    0.0000E+00    1.015200E+08  0.00800  2.148E-03    0   0.7226   age116_m52            0.0000     7.6579E-04     9.1080   2.3999   102.0199
 27      0.0000     0.0000E+00    0.0000E+00    2.861200E+08  0.00800  9.925E-04    0   0.6683   age125_m52            0.0000     6.4513E-04     8.1084   1.9070   106.5081
 28      0.0000     0.0000E+00    0.0000E+00    9.047900E+08  0.00800  3.141E-04    0   0.6138   age135_m52            0.0000     3.7896E-04     6.0607   1.0981   111.5023
 29      0.0000     0.0000E+00    0.0000E+00    1.434000E+09  0.00800  1.719E-04    0   0.5853   age139_m52            0.0000     3.1532E-04     5.5941   0.5178   109.2997
 30      0.0000     0.0000E+00    0.0000E+00    2.500000E+09  0.00800  7.872E-05    0   0.5600   age150_m52            0.0000     2.1375E-04     4.4551   0.2411   106.8204
 31      0.0000     0.0000E+00    0.0000E+00    4.250000E+09  0.00800  4.336E-05    0   0.5426   age158_m52            0.0000     2.1517E-04     4.5060   0.2257   105.8319
 32      0.0000     0.0000E+00    0.0000E+00    6.250000E+09  0.00800  3.159E-05    0   0.5319   age166_m52            0.0000     1.6987E-04     3.9105   0.0153   106.1898
 33      0.0000     0.0000E+00    0.0000E+00    1.300000E+10  0.00800  1.361E-05    0   0.5073   age193_m52            0.0000     1.3014E-04     3.3057  -0.4633   105.9468
 34      0.0000     0.0000E+00    0.0000E+00    1.800000E+10  0.00800  9.886E-06    0   0.4990   age213_m52            0.0000     1.2260E-04     3.3005  -0.5809   105.8374
 35      0.0000     0.0000E+00    0.0000E+00    1.000000E+06  0.02000  1.544E-02    0   1.0000   age020_m62            0.0000     1.0215E-03    10.3465   3.6938    91.2663
 36      0.0000     0.0000E+00    0.0000E+00    3.160000E+06  0.02000  3.762E-02    0   0.9858   age045_m62            0.0000     1.0133E-03    10.2910   3.6316    92.1143
 37      0.0000     0.0000E+00    0.0000E+00    5.010000E+06  0.02000  3.296E-02    0   0.9342   age055_m62            0.0000     8.3851E-04     9.2956   3.2477    96.2335
 38      0.0000     0.0000E+00    0.0000E+00    8.710000E+06  0.02000  1.154E-02    0   0.8861   age067_m62            0.0000     1.5495E-03    14.4973   2.2734   100.9151
 39      0.0000     0.0000E+00    0.0000E+00    1.445000E+07  0.02000  7.663E-03    0   0.8472   age078_m62            0.0000     1.1245E-03    11.8318   2.4560   101.0020
 40      0.0000     0.0000E+00    0.0000E+00    2.512000E+07  0.02000  4.532E-03    0   0.8099   age090_m62            0.0000     1.1520E-03    12.0149   2.4479   100.7224
 41      0.0000     0.0000E+00    0.0000E+00    5.500000E+07  0.02000  2.733E-03    0   0.7595   age110_m62            0.0000     8.7745E-04    10.0091   2.4515   101.1563
 42      0.0000     0.0000E+00    0.0000E+00    1.609000E+08  0.02000  1.369E-03    0   0.6985   age120_m62            0.0000     7.3014E-04     8.7236   2.2779   104.4543
 43      0.0000     0.0000E+00    0.0000E+00    2.861200E+08  0.02000  9.013E-04    0   0.6714   age125_m62            0.0000     6.4255E-04     8.0382   2.0207   107.7840
 44      0.0000     0.0000E+00    0.0000E+00    5.088000E+08  0.02000  5.028E-04    0   0.6449   age130_m62            0.0000     4.6639E-04     6.6643   1.6334   111.1243
 45      0.0000     0.0000E+00    0.0000E+00    9.047900E+08  0.02000  2.428E-04    0   0.6179   age135_m62            0.0000     2.8376E-04     5.1631   1.0391   110.8997
 46      0.0000     0.0000E+00    0.0000E+00    1.434000E+09  0.02000  1.263E-04    0   0.5908   age139_m62            0.0000     2.1730E-04     4.4794   0.5914   109.4820
 47      0.0000     0.0000E+00    0.0000E+00    2.500000E+09  0.02000  5.985E-05    0   0.5673   age150_m62            0.0000     1.5668E-04     3.7572   0.2163   108.4401
 48      0.0000     0.0000E+00    0.0000E+00    4.250000E+09  0.02000  3.271E-05    0   0.5468   age158_m62            0.0000     1.1561E-04     3.1640  -0.1005   108.0278
 49      4.0777     2.6111E+00    2.6961E+00    1.000000E+10  0.02000  1.360E-05    0   0.5167   age181_m62            0.0000     1.0637E-04     3.2043  -0.4659   108.3466
 50     26.4375     3.2318E+01    3.2375E+01    1.800000E+10  0.02000  7.124E-06    0   0.5013   age213_m62            0.0000     1.3631E-04     3.9193  -0.6900   108.0817
 51      0.0000     0.0000E+00    0.0000E+00    1.000000E+06  0.05000  2.592E-02    0   0.9998   age020_m72            0.0000     1.0475E-03    10.4707   3.6861    91.2687
 52      0.0000     0.0000E+00    0.0000E+00    3.160000E+06  0.05000  4.845E-02    0   0.9577   age045_m72            0.0000     9.3557E-04     9.8518   3.5108    93.4989
 53      0.0000     0.0000E+00    0.0000E+00    5.010000E+06  0.05000  3.072E-02    0   0.9147   age055_m72            0.0000     1.0923E-03    11.2142   3.0338    97.3904
 54      0.0000     0.0000E+00    0.0000E+00    6.610000E+06  0.05000  1.455E-02    0   0.8877   age061_m72            0.0000     2.0608E-03    17.1649   2.3112   101.7092
 55      0.0000     0.0000E+00    0.0000E+00    1.000000E+07  0.05000  9.074E-03    0   0.8524   age070_m72            0.0000     1.2041E-03    11.7372   3.2059    97.2763
 56      0.0000     0.0000E+00    0.0000E+00    2.512000E+07  0.05000  4.250E-03    0   0.7902   age090_m72            0.0000     1.0653E-03    11.1122   2.9092    99.1591
 57      0.0000     0.0000E+00    0.0000E+00    4.000000E+07  0.05000  3.087E-03    0   0.7618   age104_m72            0.0000     1.0606E-03    11.1711   2.6822   100.8059
 58      0.0000     0.0000E+00    0.0000E+00    1.015200E+08  0.05000  1.700E-03    0   0.7096   age116_m72            0.0000     8.1562E-04     9.3515   2.4227   103.8665
 59      0.0000     0.0000E+00    0.0000E+00    2.861200E+08  0.05000  7.384E-04    0   0.6633   age125_m72            0.0000     5.4046E-04     7.2503   1.8818   109.5888
 60     21.7076     4.9501E-01    6.3031E-01    5.088000E+08  0.05000  3.819E-04    0   0.6372   age130_m72            0.0000     3.3266E-04     5.5377   1.3799   111.9118
 61     20.5749     1.0691E+00    1.3053E+00    9.047900E+08  0.05000  1.676E-04    0   0.6110   age135_m72            0.0000     1.6761E-04     3.9036   0.6715   110.6147
 62      0.0000     0.0000E+00    0.0000E+00    1.434000E+09  0.05000  8.837E-05    0   0.5874   age139_m72            0.0000     1.3830E-04     3.4269   0.2100   110.2784
 63      3.7257     7.6650E-01    8.5746E-01    2.500000E+09  0.05000  4.233E-05    0   0.5598   age150_m72            0.0000     1.0065E-04     3.0563  -0.1086   109.3149
 64      3.7269     2.2617E+00    2.3724E+00    6.250000E+09  0.05000  1.435E-05    0   0.5249   age166_m72            0.0000     1.1045E-04     3.3168  -0.5688   108.1630
 65      0.0000     0.0000E+00    0.0000E+00    1.300000E+10  0.05000  6.513E-06    0   0.5036   age193_m72            0.0000     1.6746E-04     4.4831  -0.8646   109.8446
 66     31.4383     6.0478E+01    5.9763E+01    1.800000E+10  0.05000  4.527E-06    0   0.4945   age213_m72            0.0000     2.2699E-04     5.2525  -1.0000   108.7259


## Synthesis Results - Average & Chains ##

# j      x_j: min, <> & last-chain-values for 1 ...  7 chains
  1      0.0000      0.4308      0.0214      0.0426      0.0182      0.0126      0.0165      0.0000      0.0215
  2      0.0000      0.3084      0.0400      0.0429      0.0394      0.0337      0.0143      0.0000      0.0122
  3      0.0000      0.3191      0.0164      0.0235      0.0000      0.0255      0.0506      0.0196      0.0372
  4      0.0000      0.2849      0.0084      0.0277      0.0281      0.0117      0.0136      0.0034      0.0000
  5      0.0000      0.2676      0.0223      0.0000      0.0581      0.0000      0.0403      0.0075      0.0253
  6      0.0000      0.2867      0.0000      0.0869      0.0491      0.0000      0.0000      0.0292      0.0292
  7      0.0000      0.3418      0.0009      0.0126      0.0364      0.0127      0.0212      0.0000      0.0080
  8      0.0000      0.3506      0.0192      0.0171      0.0136      0.0540      0.0321      0.0306      0.0232
  9      0.0000      0.3326      0.0147      0.0076      0.0132      0.0383      0.0107      0.0000      0.0525
 10      0.0000      0.2720      0.0128      0.0087      0.1211      0.0243      0.0424      0.0712      0.0342
 11      0.0000      0.3016      0.0298      0.0680      0.0109      0.0864      0.0093      0.0239      0.0142
 12      0.0000      0.2861      0.0000      0.0201      0.0000      0.0370      0.0050      0.0215      0.0272
 13      0.0000      0.4058      0.0000      0.0818      0.0321      0.1434      0.0142      0.0399      0.0522
 14      0.0000      0.3360      0.0637      0.0796      0.0159      0.0000      0.0165      0.0225      0.1477
 15      0.0000      0.2994      0.0320      0.0179      0.0525      0.0788      0.0233      0.0000      0.0451
 16      0.0000      0.3232      0.0094      0.0422      0.0384      0.0182      0.0682      0.0089      0.0263
 17      0.0000      0.2756      0.1157      0.0123      0.0758      0.0000      0.0389      0.0006      0.0294
 18      0.0000      0.3375      0.0601      0.0023      0.1016      0.0135      0.0539      0.0131      0.0639
 19      0.0000      0.3492      0.0146      0.0117      0.0010      0.0632      0.0424      0.0000      0.0306
 20      0.0000      0.3211      0.0150      0.0893      0.0004      0.0832      0.0313      0.0420      0.0035
 21      0.0000      0.3132      0.0000      0.0430      0.0086      0.0443      0.0177      0.0099      0.0281
 22      0.0000      0.3615      0.0451      0.0039      0.0057      0.0134      0.0187      0.0000      0.0706
 23      0.0000      0.3448      0.0278      0.0231      0.0212      0.0000      0.0434      0.0366      0.0300
 24      0.0000      0.3791      0.0418      0.0074      0.0276      0.0629      0.1376      0.0197      0.0615
 25      0.0000      0.2559      0.0060      0.0358      0.0390      0.0120      0.0000      0.0100      0.1066
 26      0.0000      0.3372      0.0232      0.0192      0.0006      0.0895      0.0344      0.0006      0.0244
 27      0.0000      0.3929      0.0856      0.1094      0.0526      0.0771      0.0079      0.0000      0.0288
 28      0.0000      0.3749      0.0134      0.0719      0.0462      0.0195      0.0556      0.0405      0.0106
 29      0.0000      0.3421      0.0162      0.0587      0.0776      0.0493      0.0000      0.0000      0.0436
 30      0.0000      0.3450      0.0189      0.0336      0.0140      0.0357      0.0438      0.0197      0.0258
 31      0.0000      0.2891      0.0552      0.0534      0.0000      0.0574      0.0235      0.0014      0.0140
 32      0.0000      0.4234      0.0000      0.0498      0.0661      0.0297      0.0543      0.0644      0.0273
 33      0.0000      0.3482      0.0098      0.0424      0.0000      0.0600      0.0469      0.0074      0.0378
 34      0.0000      0.4191      0.0071      0.0000      0.1200      0.0336      0.0350      0.0634      0.0056
 35      0.0000      0.2951      0.0050      0.0193      0.0354      0.0057      0.0209      0.0000      0.0389
 36      0.0000      0.3698      0.0019      0.0611      0.0333      0.0530      0.0420      0.0754      0.0298
 37      0.0000      0.3692      0.1413      0.1333      0.1529      0.0784      0.0958      0.1254      0.1504
 38      0.0000      0.2818      0.0183      0.0345      0.0230      0.0435      0.0208      0.0094      0.0000
 39      0.0000      0.2500      0.0000      0.0000      0.0351      0.0512      0.0251      0.0000      0.0040
 40      0.0000      0.2805      0.0000      0.0193      0.0173      0.0635      0.0288      0.0000      0.0289
 41      0.0000      0.3213      0.0427      0.0180      0.0335      0.0257      0.0606      0.0587      0.0292
 42      0.0000      0.3129      0.0180      0.1065      0.0365      0.0000      0.0543      0.0160      0.0000
 43      0.0000      0.2948      0.0319      0.0684      0.0519      0.0701      0.0072      0.0000      0.0234
 44      0.0000      0.3051      0.0066      0.0115      0.0993      0.0062      0.0409      0.0233      0.0469
 45      0.0000      0.3844      0.0860      0.0269      0.0036      0.0409      0.0615      0.0438      0.0325
 46      0.0000      0.3468      0.0497      0.0013      0.0650      0.0428      0.0071      0.0171      0.1009
