###################################################################
## OUTPUT of StarlightChains_v04.for    [Cid@UFSC - 01/Apr/2007] ##
###################################################################

## Some input info
KUG0210-078._30_35.txt                   [arq_obs]
Base.CB07.vall.4m                        [arq_base]
Masks.EmLines.NEW.gm                     [arq_masks]
StCv04.C11.config                        [arq_config]
   66                                    [N_base]
    0                                    [N_YAV_components = # of components with extra extinction!]
    0                                    [i_FitPowerLaw (1/0 = Yes/No)]
-9.99                                    [alpha_PowerLaw]
CCM                                      [red_law_option]
 1.458241                                [q_norm = A(l_norm)/A(V)]

## (Re)Sampling Parameters
 3741.00                                 [l_ini (A)]
 7218.00                                 [l_fin (A)]
    1.00                                 [dl    (A)]     (OBS: dl_cushion =    50.00 A)

## Normalization info
 4020.00                                 [l_norm (A) - for base]
 4010.00                                 [llow_norm (A) - window for f_obs]
 4060.00                                 [lupp_norm (A) - window for f_obs]
1.840010E-16                             [fobs_norm (in input units)]

## S/N
 3691.00                                 [llow_SN (A) - window for S/N]
 7268.00                                 [lupp_SN (A) - window for S/N]
  10.575                                 [S/N in S/N window]
  12.734                                 [S/N in norm. window]
   0.267                                 [S/N_err in S/N window]
   0.322                                 [S/N_err in norm. window]
  1.0000                                 [fscale_chi2]

## etc...
    -2007436                             [idum_orig]
  2432                                   [NOl_eff]
  2386                                   [Nl_eff]
    46    NSIGMA                         [Ntot_cliped & clip_method]
 15810060                                [Nglobal_steps]
   7                                     [N_chains]
  37                                     [NEX0s_base = N_base in EX0s-fits]
 0   0   1       46   2.0   5.278E+04    [Clip-Bug, RC-Crash & Burn-In warning-flags, n_censored_weights, wei_nsig_threshold & wei_limit]
   145    143.915    142.661      1.254  [idt_all, wdt_TotTime, wdt_UsrTime & wdt_SysTime (sec)]

## Synthesis Results - Best model ##

 1.02812E-03                             [chi2/Nl_eff]
     4.22224                             [adev (%)]

    99.33546                             [sum-of-x (%)]
 5.52849E-16                             [Flux_tot (units of input spectrum!)]
 8.32438E-12                             [Mini_tot (???)]
 4.28608E-12                             [Mcor_tot (???)]

-108.19                                  [v0_min  (km/s)]
 169.10                                  [vd_min  (km/s)]
 0.8241                                  [AV_min  (mag)]
 0.0000                                  [YAV_min (mag)]

# j     x_j(%)      Mini_j(%)     Mcor_j(%)     age_j(yr)     Z_j      (L/M)_j    YAV?  Mstars   component_j        a/Fe...       SSP_chi2r SSP_adev(%)   SSP_AV   SSP_x(%)
  1     25.7325     1.5726E-01    3.0543E-01    1.000000E+06  0.00400  1.094E-02    0   1.0000   age020_m42            0.0000     1.3779E-03     7.5129   2.6393    89.4358
  2     15.5204     2.5896E-02    5.0290E-02    3.160000E+06  0.00400  4.007E-02    0   0.9999   age045_m42            0.0000     1.4259E-03     7.6558   1.8508    97.2163
  3      0.0000     0.0000E+00    0.0000E+00    5.010000E+06  0.00400  2.539E-02    0   0.9488   age055_m42            0.0000     1.3934E-03     7.3902   2.2048    93.9333
  4      0.0000     0.0000E+00    0.0000E+00    6.610000E+06  0.00400  2.620E-02    0   0.9220   age061_m42            0.0000     1.5737E-03     7.4869   1.7850    97.1593
  5      0.0000     0.0000E+00    0.0000E+00    1.000000E+07  0.00400  1.322E-02    0   0.8862   age070_m42            0.0000     1.3708E-03     5.5856   1.5699    97.1816
  6      0.0000     0.0000E+00    0.0000E+00    1.445000E+07  0.00400  7.883E-03    0   0.8571   age078_m42            0.0000     1.3424E-03     5.7919   1.9038    94.5642
  7      0.0000     0.0000E+00    0.0000E+00    2.512000E+07  0.00400  5.251E-03    0   0.8174   age090_m42            0.0000     1.3799E-03     5.2764   1.4465    97.5025
  8      0.0000     0.0000E+00    0.0000E+00    4.000000E+07  0.00400  3.649E-03    0   0.7851   age104_m42            0.0000     1.4413E-03     5.5337   1.2012    98.8561
  9      0.0000     0.0000E+00    0.0000E+00    5.500000E+07  0.00400  3.098E-03    0   0.7629   age110_m42            0.0000     1.7210E-03     6.6031   1.3150   100.0287
 10      0.0000     0.0000E+00    0.0000E+00    1.015200E+08  0.00400  2.228E-03    0   0.7207   age116_m42            0.0000     2.0570E-03     7.3243   1.3096   100.9536
 11      0.0000     0.0000E+00    0.0000E+00    2.861200E+08  0.00400  1.093E-03    0   0.6648   age125_m42            0.0000     2.2673E-03     7.1164   0.7458   103.6143
 12      0.0000     0.0000E+00    0.0000E+00    5.088000E+08  0.00400  6.597E-04    0   0.6365   age130_m42            0.0000     2.7761E-03     8.2820   0.6916   105.8734
 13      0.0000     0.0000E+00    0.0000E+00    1.434000E+09  0.00400  2.132E-04    0   0.5798   age139_m42            0.0000     2.7516E-03     8.9344  -0.3224   109.3863
 14      0.0000     0.0000E+00    0.0000E+00    4.250000E+09  0.00400  5.895E-05    0   0.5377   age158_m42            0.0000     2.6731E-03     9.7988  -0.7910   106.1815
 15      0.0000     0.0000E+00    0.0000E+00    7.500000E+09  0.00400  3.510E-05    0   0.5212   age171_m42            0.0000     3.0203E-03    10.5083  -1.0000   106.1033
 16      0.0000     0.0000E+00    0.0000E+00    1.300000E+10  0.00400  2.005E-05    0   0.5034   age193_m42            0.0000     3.5486E-03     9.6336  -1.0000   102.9464
 17      0.0000     0.0000E+00    0.0000E+00    1.800000E+10  0.00400  1.525E-05    0   0.4967   age213_m42            0.0000     3.4716E-03     9.3677  -1.0000   102.0194
 18      8.1472     4.3998E-02    8.5453E-02    1.000000E+06  0.00800  1.238E-02    0   1.0000   age020_m52            0.0000     1.3863E-03     7.5262   2.6356    89.6185
 19      0.3674     7.9903E-04    1.5466E-03    3.160000E+06  0.00800  3.074E-02    0   0.9966   age045_m52            0.0000     1.4057E-03     7.5556   2.5529    90.5706
 20      0.0000     0.0000E+00    0.0000E+00    5.010000E+06  0.00800  2.668E-02    0   0.9443   age055_m52            0.0000     1.3981E-03     7.2972   2.2980    92.8288
 21      0.0000     0.0000E+00    0.0000E+00    6.610000E+06  0.00800  2.136E-02    0   0.9177   age061_m52            0.0000     1.1725E-03     5.5804   1.0665    98.5034
 22      0.0000     0.0000E+00    0.0000E+00    1.000000E+07  0.00800  1.215E-02    0   0.8827   age070_m52            0.0000     1.2971E-03     5.1161   1.7723    96.2518
 23      0.0000     0.0000E+00    0.0000E+00    1.445000E+07  0.00800  8.717E-03    0   0.8552   age078_m52            0.0000     1.3446E-03     5.7012   1.8663    95.9557
 24      0.0000     0.0000E+00    0.0000E+00    2.512000E+07  0.00800  5.592E-03    0   0.8162   age090_m52            0.0000     1.4082E-03     5.2203   1.5092    98.6653
 25      0.0000     0.0000E+00    0.0000E+00    4.000000E+07  0.00800  3.896E-03    0   0.7841   age104_m52            0.0000     1.5500E-03     5.7728   1.3954   100.1875
 26      0.0000     0.0000E+00    0.0000E+00    1.015200E+08  0.00800  2.148E-03    0   0.7226   age116_m52            0.0000     1.8981E-03     6.8016   1.2935   101.2476
 27      0.0000     0.0000E+00    0.0000E+00    2.861200E+08  0.00800  9.925E-04    0   0.6683   age125_m52            0.0000     2.8421E-03     8.1753   0.7554   106.8744
 28      0.0000     0.0000E+00    0.0000E+00    9.047900E+08  0.00800  3.141E-04    0   0.6138   age135_m52            0.0000     3.5678E-03    10.3393  -0.1314   114.1153
 29      0.0000     0.0000E+00    0.0000E+00    1.434000E+09  0.00800  1.719E-04    0   0.5853   age139_m52            0.0000     2.9387E-03    10.0362  -0.7032   111.5927
 30      0.0000     0.0000E+00    0.0000E+00    2.500000E+09  0.00800  7.872E-05    0   0.5600   age150_m52            0.0000     3.3414E-03    11.1058  -1.0000   109.8902
 31      0.0000     0.0000E+00    0.0000E+00    4.250000E+09  0.00800  4.336E-05    0   0.5426   age158_m52            0.0000     3.4228E-03    10.9779  -1.0000   108.5906
 32      0.0000     0.0000E+00    0.0000E+00    6.250000E+09  0.00800  3.159E-05    0   0.5319   age166_m52            0.0000     4.3902E-03    10.2349  -1.0000   105.4444
 33      0.0000     0.0000E+00    0.0000E+00    1.300000E+10  0.00800  1.361E-05    0   0.5073   age193_m52            0.0000     7.9062E-03    16.6673  -1.0000    94.9386
 34      1.1121     7.5208E+00    7.2888E+00    1.800000E+10  0.00800  9.886E-06    0   0.4990   age213_m52            0.0000     9.8474E-03    19.1813  -1.0000    91.9567
 35      0.0000     0.0000E+00    0.0000E+00    1.000000E+06  0.02000  1.544E-02    0   1.0000   age020_m62            0.0000     1.4056E-03     7.5525   2.6328    89.7913
 36      0.0000     0.0000E+00    0.0000E+00    3.160000E+06  0.02000  3.762E-02    0   0.9858   age045_m62            0.0000     1.4544E-03     7.6201   2.5698    90.6268
 37      0.0000     0.0000E+00    0.0000E+00    5.010000E+06  0.02000  3.296E-02    0   0.9342   age055_m62            0.0000     1.5124E-03     7.6869   2.1455    95.6347
 38      0.5659     3.2787E-03    5.6425E-03    8.710000E+06  0.02000  1.154E-02    0   0.8861   age067_m62            0.0000     1.3822E-03     4.6558   1.3480    94.9324
 39      0.0000     0.0000E+00    0.0000E+00    1.445000E+07  0.02000  7.663E-03    0   0.8472   age078_m62            0.0000     1.2287E-03     4.4586   1.4510    97.3685
 40      0.0000     0.0000E+00    0.0000E+00    2.512000E+07  0.02000  4.532E-03    0   0.8099   age090_m62            0.0000     1.3196E-03     4.4829   1.4457    96.9588
 41      0.0000     0.0000E+00    0.0000E+00    5.500000E+07  0.02000  2.733E-03    0   0.7595   age110_m62            0.0000     1.5666E-03     5.6718   1.3858    99.2429
 42      0.0687     3.3573E-03    4.5546E-03    1.609000E+08  0.02000  1.369E-03    0   0.6985   age120_m62            0.0000     2.4558E-03     7.2803   1.1583   103.9429
 43      0.0000     0.0000E+00    0.0000E+00    2.861200E+08  0.02000  9.013E-04    0   0.6714   age125_m62            0.0000     3.2831E-03     8.3845   0.8632   108.2883
 44     15.5797     2.0716E+00    2.5948E+00    5.088000E+08  0.02000  5.028E-04    0   0.6449   age130_m62            0.0000     3.9820E-03    10.4897   0.4014   113.8532
 45      0.0000     0.0000E+00    0.0000E+00    9.047900E+08  0.02000  2.428E-04    0   0.6179   age135_m62            0.0000     3.6074E-03    11.0868  -0.2186   114.3546
 46      0.0000     0.0000E+00    0.0000E+00    1.434000E+09  0.02000  1.263E-04    0   0.5908   age139_m62            0.0000     3.4989E-03    11.2223  -0.6683   112.9201
 47      0.0000     0.0000E+00    0.0000E+00    2.500000E+09  0.02000  5.985E-05    0   0.5673   age150_m62            0.0000     4.0120E-03    11.5559  -1.0000   111.4382
 48      2.5704     5.2538E+00    5.5795E+00    4.250000E+09  0.02000  3.271E-05    0   0.5468   age158_m62            0.0000     5.7551E-03    11.6353  -1.0000   105.2093
 49      3.9558     1.9447E+01    1.9515E+01    1.000000E+10  0.02000  1.360E-05    0   0.5167   age181_m62            0.0000     9.7073E-03    17.3592  -1.0000    97.0280
 50      2.4566     2.3054E+01    2.2446E+01    1.800000E+10  0.02000  7.124E-06    0   0.5013   age213_m62            0.0000     1.3138E-02    21.7220  -1.0000    90.9056
 51     16.4648     4.2469E-02    8.2466E-02    1.000000E+06  0.05000  2.592E-02    0   0.9998   age020_m72            0.0000     1.4463E-03     7.5446   2.6305    89.6484
 52      0.0000     0.0000E+00    0.0000E+00    3.160000E+06  0.05000  4.845E-02    0   0.9577   age045_m72            0.0000     1.4783E-03     7.7424   2.4309    92.4058
 53      0.0000     0.0000E+00    0.0000E+00    5.010000E+06  0.05000  3.072E-02    0   0.9147   age055_m72            0.0000     1.3511E-03     5.7820   2.0111    94.4188
 54      0.0000     0.0000E+00    0.0000E+00    6.610000E+06  0.05000  1.455E-02    0   0.8877   age061_m72            0.0000     1.7910E-03     7.3369   1.4219    94.2895
 55      0.0383     2.8237E-04    4.6746E-04    1.000000E+07  0.05000  9.074E-03    0   0.8524   age070_m72            0.0000     1.4485E-03     6.7931   2.1847    94.1491
 56      0.0000     0.0000E+00    0.0000E+00    2.512000E+07  0.05000  4.250E-03    0   0.7902   age090_m72            0.0000     1.5127E-03     6.1332   1.8691    96.4873
 57      0.0000     0.0000E+00    0.0000E+00    4.000000E+07  0.05000  3.087E-03    0   0.7618   age104_m72            0.0000     1.6210E-03     6.0000   1.6407    98.0794
 58      0.1267     4.9827E-03    6.8671E-03    1.015200E+08  0.05000  1.700E-03    0   0.7096   age116_m72            0.0000     2.2713E-03     6.7121   1.3237   102.7665
 59      0.0000     0.0000E+00    0.0000E+00    2.861200E+08  0.05000  7.384E-04    0   0.6633   age125_m72            0.0000     3.6991E-03     9.4887   0.6856   111.2306
 60      0.8703     1.5237E-01    1.8856E-01    5.088000E+08  0.05000  3.819E-04    0   0.6372   age130_m72            0.0000     3.7415E-03    10.9165   0.1240   115.3641
 61      0.0000     0.0000E+00    0.0000E+00    9.047900E+08  0.05000  1.676E-04    0   0.6110   age135_m72            0.0000     3.9791E-03    12.4549  -0.6338   115.4332
 62      0.0000     0.0000E+00    0.0000E+00    1.434000E+09  0.05000  8.837E-05    0   0.5874   age139_m72            0.0000     4.3701E-03    11.7550  -1.0000   113.3192
 63      0.0000     0.0000E+00    0.0000E+00    2.500000E+09  0.05000  4.233E-05    0   0.5598   age150_m72            0.0000     6.2138E-03    12.1524  -1.0000   106.3384
 64      3.2374     1.5083E+01    1.5377E+01    6.250000E+09  0.05000  1.435E-05    0   0.5249   age166_m72            0.0000     1.0790E-02    19.3995  -1.0000    94.3082
 65      2.2428     2.3023E+01    2.2518E+01    1.300000E+10  0.05000  6.513E-06    0   0.5036   age193_m72            0.0000     1.5650E-02    24.7992  -1.0000    87.5322
 66      0.2784     4.1115E+00    3.9488E+00    1.800000E+10  0.05000  4.527E-06    0   0.4945   age213_m72            0.0000     1.8765E-02    27.5347  -1.0000    82.6994


## Synthesis Results - Average & Chains ##

# j      x_j: min, <> & last-chain-values for 1 ...  7 chains
  1     25.7325      0.2659      2.3855      0.7393      0.0000      0.4148      0.0300      0.9429      0.3986
  2     15.5204      0.3500      0.9411      0.0000      0.0000      0.2954      0.4024      1.1164      0.4785
  3      0.0000      0.6398      1.6130      2.3531      1.8479      0.9877      0.8054      1.6093      0.2699
  4      0.0000      1.3659      1.2246      0.3273      2.2095      1.4998      0.9442      1.2742      0.9474
  5      0.0000      0.2897      0.5258      1.0477      0.9165      0.2327      0.0000      0.0000      0.4443
  6      0.0000      0.2461      0.2452      0.1065      2.6439      0.0015      0.5614      0.2488      0.8190
  7      0.0000      0.1919      0.0000      0.3062      0.0000      0.1971      0.0000      0.0000      0.5234
  8      0.0000      0.3242      1.1781      1.3623      2.6980      0.6616      0.0094      0.3109      0.4285
  9      0.0000      0.1967      0.9652      0.6103      0.4115      0.8360      0.5625      0.0000      0.0497
 10      0.0000      0.2823      0.5590      1.5492      0.0000      0.0966      1.0125      0.3007      0.0000
 11      0.0000      0.3059      1.3478      0.2552      0.2622      0.0000      0.1911      0.0000      0.0000
 12      0.0000      0.3119      1.0205      0.3215      0.0350      0.5601      0.5202      0.4100      0.0000
 13      0.0000      0.2297      1.2128      0.0000      2.3491      1.1982      0.4830      0.0000      0.0205
 14      0.0000      0.3454      0.1200      1.6279      0.2193      0.0000      0.1437      0.7619      0.0000
 15      0.0000      0.2792      0.6057      0.0000      0.0000      0.9385      0.0000      0.0000      1.1797
 16      0.0000      0.2374      0.5302      0.6928      1.5796      0.6295      0.2127      0.0000      0.4773
 17      0.0000      0.2212      0.4085      0.0000      0.0495      0.0490      0.9009      0.1794      1.6388
 18      8.1472      0.2736      0.0000      2.3514      0.0000      0.2353      0.0000      1.3970      3.9765
 19      0.3674      0.5930      1.0078      2.6971      0.1424      0.4672      0.4406      0.7960      1.1866
 20      0.0000      0.2426      1.2830      0.0000      0.0000      0.7838      0.6678      0.4660      1.0055
 21      0.0000     42.7118     24.8049     28.3128     25.6448     36.5529     37.5096     22.7044     33.4098
 22      0.0000      0.2699      0.3754      0.5991      1.9063      0.0000      0.7478      0.0000      0.3148
 23      0.0000      0.2824      0.2359      0.0000      2.0394      0.0000      0.1593      0.0000      0.8551
 24      0.0000      0.3585      0.4340      0.0000      0.6524      1.1885      0.8487      0.1659      0.7118
 25      0.0000      0.2853      0.3578      0.4012      0.0000      0.0000      0.0431      0.0000      1.4263
 26      0.0000      0.2171      0.7295      0.0000      0.5505      0.4298      1.2649      1.0793      0.0000
 27      0.0000      0.2590      0.0000      0.2872      0.0224      0.5197      0.0590      0.0663      0.3499
 28      0.0000      0.2213      2.7375      0.1712      0.2945      0.3301      0.3209      0.0000      1.7014
 29      0.0000      0.2348      0.0000      0.1582      0.9899      0.6777      0.2105      0.0000      0.1879
 30      0.0000      0.2254      1.4178      0.0000      0.9589      0.0000      0.7122      0.0000      0.1507
 31      0.0000      0.2151      0.0000      0.7193      0.7783      0.8181      0.0000      0.1363      0.9369
 32      0.0000      0.2432      0.5560      0.2089      0.6271      0.8765      1.0121      0.0000      0.0000
 33      0.0000      0.1814      0.8910      1.1628      0.0026      0.3039      0.1391      0.0000      0.0000
 34      1.1121      0.3154      0.0000      5.2706      0.6544      0.0000      0.2342      3.0953      0.0000
 35      0.0000      0.2718      0.9323      0.0929      0.4373      0.6909      0.0000      0.3375      0.4865
 36      0.0000      0.4020      2.9747      1.6076      0.4545      0.3666      2.4747      0.9580      0.0000
 37      0.0000      0.2558      0.0000      1.1310      0.1433      0.0000      0.6285      0.5979      0.5486
 38      0.5659      0.3593      0.5454      2.0085      1.5766      0.0736      1.2714      0.4726      0.3989
 39      0.0000      0.3229      0.7167      0.2166      0.2123      1.6482      0.0000      0.0000      0.0837
 40      0.0000      0.3118      0.4677      0.2592      0.2840      0.4918      0.0000      1.7703      0.0000
 41      0.0000      0.2667      1.5220      1.4320      0.0000      0.0000      1.5109      0.0000      1.2313
 42      0.0687      0.2537      0.0000      0.0347      0.0000      0.0000      0.2542      0.6448      0.3540
 43      0.0000      0.2362      1.3526      0.0610      0.9943      0.6432      0.5068      0.0000      0.0086
 44     15.5797      0.2549      0.7766      1.0075      1.3111      0.3044      0.4613      1.3942      0.1738
 45      0.0000      7.1199      4.0622      2.9454      2.8645      6.9228      6.7049      3.2088      7.7028
 46      0.0000      0.2930      0.0953      0.4363      0.6772      0.5727      0.0000      0.0000      0.9126
