###################################################################
## OUTPUT of StarlightChains_v04.for    [Cid@UFSC - 01/Apr/2007] ##
###################################################################

## Some input info
KUG0210-078._34_41.txt                   [arq_obs]
Base.CB07.vall.4m                        [arq_base]
Masks.EmLines.NEW.gm                     [arq_masks]
StCv04.C11.config                        [arq_config]
   66                                    [N_base]
    0                                    [N_YAV_components = # of components with extra extinction!]
    0                                    [i_FitPowerLaw (1/0 = Yes/No)]
-9.99                                    [alpha_PowerLaw]
CCM                                      [red_law_option]
 1.458241                                [q_norm = A(l_norm)/A(V)]

## (Re)Sampling Parameters
 3741.00                                 [l_ini (A)]
 7218.00                                 [l_fin (A)]
    1.00                                 [dl    (A)]     (OBS: dl_cushion =    50.00 A)

## Normalization info
 4020.00                                 [l_norm (A) - for base]
 4010.00                                 [llow_norm (A) - window for f_obs]
 4060.00                                 [lupp_norm (A) - window for f_obs]
1.063043E-17                             [fobs_norm (in input units)]

## S/N
 3691.00                                 [llow_SN (A) - window for S/N]
 7268.00                                 [lupp_SN (A) - window for S/N]
   4.467                                 [S/N in S/N window]
   3.129                                 [S/N in norm. window]
   0.018                                 [S/N_err in S/N window]
   0.012                                 [S/N_err in norm. window]
  1.0000                                 [fscale_chi2]

## etc...
    -2007546                             [idum_orig]
  2425                                   [NOl_eff]
  2405                                   [Nl_eff]
    20    NSIGMA                         [Ntot_cliped & clip_method]
  1875090                                [Nglobal_steps]
   7                                     [N_chains]
  25                                     [NEX0s_base = N_base in EX0s-fits]
 0   0   1       20   2.0   1.979E+03    [Clip-Bug, RC-Crash & Burn-In warning-flags, n_censored_weights, wei_nsig_threshold & wei_limit]
    20     20.131     19.726      0.405  [idt_all, wdt_TotTime, wdt_UsrTime & wdt_SysTime (sec)]

## Synthesis Results - Best model ##

 1.29761E-05                             [chi2/Nl_eff]
    35.11162                             [adev (%)]

   126.37653                             [sum-of-x (%)]
 9.11934E-18                             [Flux_tot (units of input spectrum!)]
 7.81221E-13                             [Mini_tot (???)]
 3.93865E-13                             [Mcor_tot (???)]

-419.17                                  [v0_min  (km/s)]
 420.75                                  [vd_min  (km/s)]
-0.2885                                  [AV_min  (mag)]
 0.0000                                  [YAV_min (mag)]

# j     x_j(%)      Mini_j(%)     Mcor_j(%)     age_j(yr)     Z_j      (L/M)_j    YAV?  Mstars   component_j        a/Fe...       SSP_chi2r SSP_adev(%)   SSP_AV   SSP_x(%)
  1      0.0000     0.0000E+00    0.0000E+00    1.000000E+06  0.00400  1.094E-02    0   1.0000   age020_m42            0.0000     2.0735E-05    48.2568   3.7487   104.4321
  2      0.0000     0.0000E+00    0.0000E+00    3.160000E+06  0.00400  4.007E-02    0   0.9999   age045_m42            0.0000     1.8843E-05    45.5969   3.0111   111.8330
  3      0.0000     0.0000E+00    0.0000E+00    5.010000E+06  0.00400  2.539E-02    0   0.9488   age055_m42            0.0000     1.9641E-05    47.0774   3.3386   108.9259
  4      0.0000     0.0000E+00    0.0000E+00    6.610000E+06  0.00400  2.620E-02    0   0.9220   age061_m42            0.0000     1.8835E-05    45.6186   2.9394   112.0019
  5      0.7215     5.0409E-04    8.8607E-04    1.000000E+07  0.00400  1.322E-02    0   0.8862   age070_m42            0.0000     2.0135E-05    47.9026   2.6808   113.3323
  6      0.0000     0.0000E+00    0.0000E+00    1.445000E+07  0.00400  7.883E-03    0   0.8571   age078_m42            0.0000     2.0513E-05    48.4710   3.0051   110.6240
  7      0.0000     0.0000E+00    0.0000E+00    2.512000E+07  0.00400  5.251E-03    0   0.8174   age090_m42            0.0000     2.0289E-05    48.1186   2.5543   113.7998
  8      0.0000     0.0000E+00    0.0000E+00    4.000000E+07  0.00400  3.649E-03    0   0.7851   age104_m42            0.0000     1.9712E-05    47.2783   2.3208   114.9677
  9      0.0000     0.0000E+00    0.0000E+00    5.500000E+07  0.00400  3.098E-03    0   0.7629   age110_m42            0.0000     1.8964E-05    45.6070   2.4620   115.5102
 10      0.0000     0.0000E+00    0.0000E+00    1.015200E+08  0.00400  2.228E-03    0   0.7207   age116_m42            0.0000     1.8494E-05    44.3867   2.4744   116.0611
 11      6.0893     5.1460E-02    6.7856E-02    2.861200E+08  0.00400  1.093E-03    0   0.6648   age125_m42            0.0000     1.8442E-05    44.1243   1.9033   119.2629
 12      0.0000     0.0000E+00    0.0000E+00    5.088000E+08  0.00400  6.597E-04    0   0.6365   age130_m42            0.0000     1.7544E-05    42.2047   1.8810   120.8413
 13      0.0000     0.0000E+00    0.0000E+00    1.434000E+09  0.00400  2.132E-04    0   0.5798   age139_m42            0.0000     1.5711E-05    40.4407   0.9048   123.3784
 14      4.6609     7.3032E-01    7.7889E-01    4.250000E+09  0.00400  5.895E-05    0   0.5377   age158_m42            0.0000     1.4373E-05    40.0018   0.4480   119.3422
 15      0.0000     0.0000E+00    0.0000E+00    7.500000E+09  0.00400  3.510E-05    0   0.5212   age171_m42            0.0000     1.3979E-05    39.1962   0.2500   118.8906
 16      0.0000     0.0000E+00    0.0000E+00    1.300000E+10  0.00400  2.005E-05    0   0.5034   age193_m42            0.0000     1.3701E-05    38.2802   0.0763   118.5186
 17      0.0000     0.0000E+00    0.0000E+00    1.800000E+10  0.00400  1.525E-05    0   0.4967   age213_m42            0.0000     1.3804E-05    38.5592   0.0564   117.8768
 18      0.0000     0.0000E+00    0.0000E+00    1.000000E+06  0.00800  1.238E-02    0   1.0000   age020_m52            0.0000     2.0734E-05    48.2968   3.7442   104.6632
 19      0.0000     0.0000E+00    0.0000E+00    3.160000E+06  0.00800  3.074E-02    0   0.9966   age045_m52            0.0000     2.0528E-05    48.2456   3.6671   105.6116
 20      0.0000     0.0000E+00    0.0000E+00    5.010000E+06  0.00800  2.668E-02    0   0.9443   age055_m52            0.0000     1.9901E-05    47.6017   3.4235   107.8934
 21      0.0000     0.0000E+00    0.0000E+00    6.610000E+06  0.00800  2.136E-02    0   0.9177   age061_m52            0.0000     1.9239E-05    47.7912   2.1788   114.6842
 22      0.1112     8.4513E-05    1.4797E-04    1.000000E+07  0.00800  1.215E-02    0   0.8827   age070_m52            0.0000     2.0923E-05    49.0929   2.8648   112.8369
 23      0.0000     0.0000E+00    0.0000E+00    1.445000E+07  0.00800  8.717E-03    0   0.8552   age078_m52            0.0000     2.0354E-05    48.3261   2.9727   112.0833
 24      0.0000     0.0000E+00    0.0000E+00    2.512000E+07  0.00800  5.592E-03    0   0.8162   age090_m52            0.0000     2.0310E-05    48.1058   2.6164   115.1721
 25      0.0000     0.0000E+00    0.0000E+00    4.000000E+07  0.00800  3.896E-03    0   0.7841   age104_m52            0.0000     1.9622E-05    47.0088   2.5196   116.3892
 26      0.0000     0.0000E+00    0.0000E+00    1.015200E+08  0.00800  2.148E-03    0   0.7226   age116_m52            0.0000     1.8584E-05    45.2934   2.4465   116.7373
 27      0.0000     0.0000E+00    0.0000E+00    2.861200E+08  0.00800  9.925E-04    0   0.6683   age125_m52            0.0000     1.7530E-05    42.1445   1.9468   121.9652
 28      0.0000     0.0000E+00    0.0000E+00    9.047900E+08  0.00800  3.141E-04    0   0.6138   age135_m52            0.0000     1.5328E-05    38.9391   1.1236   127.8995
 29      0.0000     0.0000E+00    0.0000E+00    1.434000E+09  0.00800  1.719E-04    0   0.5853   age139_m52            0.0000     1.4583E-05    39.7838   0.5426   125.2243
 30      0.0000     0.0000E+00    0.0000E+00    2.500000E+09  0.00800  7.872E-05    0   0.5600   age150_m52            0.0000     1.3673E-05    38.4503   0.2588   122.6463
 31      0.0000     0.0000E+00    0.0000E+00    4.250000E+09  0.00800  4.336E-05    0   0.5426   age158_m52            0.0000     1.3672E-05    38.5017   0.2421   121.5564
 32      0.0000     0.0000E+00    0.0000E+00    6.250000E+09  0.00800  3.159E-05    0   0.5319   age166_m52            0.0000     1.3309E-05    37.0840   0.0260   122.0837
 33      0.0000     0.0000E+00    0.0000E+00    1.300000E+10  0.00800  1.361E-05    0   0.5073   age193_m52            0.0000     1.3142E-05    35.4015  -0.4580   121.8523
 34      0.0000     0.0000E+00    0.0000E+00    1.800000E+10  0.00800  9.886E-06    0   0.4990   age213_m52            0.0000     1.3206E-05    34.2719  -0.5836   121.9134
 35      0.0000     0.0000E+00    0.0000E+00    1.000000E+06  0.02000  1.544E-02    0   1.0000   age020_m62            0.0000     2.0800E-05    48.4297   3.7406   104.8942
 36      0.0000     0.0000E+00    0.0000E+00    3.160000E+06  0.02000  3.762E-02    0   0.9858   age045_m62            0.0000     2.0716E-05    48.4777   3.6795   105.8111
 37      0.5879     1.6475E-04    3.0527E-04    5.010000E+06  0.02000  3.296E-02    0   0.9342   age055_m62            0.0000     1.9150E-05    46.2459   3.2920   110.5293
 38      0.0000     0.0000E+00    0.0000E+00    8.710000E+06  0.02000  1.154E-02    0   0.8861   age067_m62            0.0000     2.5683E-05    54.7147   2.3510   114.1124
 39      0.0000     0.0000E+00    0.0000E+00    1.445000E+07  0.02000  7.663E-03    0   0.8472   age078_m62            0.0000     2.1838E-05    50.4938   2.5182   114.8777
 40      0.0000     0.0000E+00    0.0000E+00    2.512000E+07  0.02000  4.532E-03    0   0.8099   age090_m62            0.0000     2.2051E-05    50.6357   2.5100   114.5248
 41      0.0000     0.0000E+00    0.0000E+00    5.500000E+07  0.02000  2.733E-03    0   0.7595   age110_m62            0.0000     1.9604E-05    47.2127   2.5026   115.5565
 42      0.0000     0.0000E+00    0.0000E+00    1.609000E+08  0.02000  1.369E-03    0   0.6985   age120_m62            0.0000     1.8306E-05    43.8170   2.3222   119.5557
 43      0.0000     0.0000E+00    0.0000E+00    2.861200E+08  0.02000  9.013E-04    0   0.6714   age125_m62            0.0000     1.7627E-05    41.5513   2.0591   123.5100
 44      0.0000     0.0000E+00    0.0000E+00    5.088000E+08  0.02000  5.028E-04    0   0.6449   age130_m62            0.0000     1.6229E-05    38.6761   1.6608   127.6098
 45      0.0000     0.0000E+00    0.0000E+00    9.047900E+08  0.02000  2.428E-04    0   0.6179   age135_m62            0.0000     1.4474E-05    38.2643   1.0614   127.3479
 46     13.0675     9.5568E-01    1.1199E+00    1.434000E+09  0.02000  1.263E-04    0   0.5908   age139_m62            0.0000     1.3776E-05    38.3009   0.6101   125.7463
 47      0.0000     0.0000E+00    0.0000E+00    2.500000E+09  0.02000  5.985E-05    0   0.5673   age150_m62            0.0000     1.3290E-05    37.2214   0.2275   124.6897
 48     28.2081     7.9656E+00    8.6392E+00    4.250000E+09  0.02000  3.271E-05    0   0.5468   age158_m62            0.0000     1.3045E-05    35.4505  -0.0982   124.4314
 49      0.0000     0.0000E+00    0.0000E+00    1.000000E+10  0.02000  1.360E-05    0   0.5167   age181_m62            0.0000     1.3283E-05    33.5066  -0.4741   124.9308
 50      5.5252     7.1638E+00    7.1231E+00    1.800000E+10  0.02000  7.124E-06    0   0.5013   age213_m62            0.0000     1.3765E-05    32.4386  -0.7070   124.7869
 51      0.0000     0.0000E+00    0.0000E+00    1.000000E+06  0.05000  2.592E-02    0   0.9998   age020_m72            0.0000     2.1078E-05    48.8858   3.7346   104.8347
 52      0.0000     0.0000E+00    0.0000E+00    3.160000E+06  0.05000  4.845E-02    0   0.9577   age045_m72            0.0000     1.9985E-05    47.5809   3.5565   107.4282
 53      0.0000     0.0000E+00    0.0000E+00    5.010000E+06  0.05000  3.072E-02    0   0.9147   age055_m72            0.0000     2.1428E-05    49.8479   3.0894   111.1400
 54      0.0000     0.0000E+00    0.0000E+00    6.610000E+06  0.05000  1.455E-02    0   0.8877   age061_m72            0.0000     2.9621E-05    58.0949   2.3835   114.6805
 55      0.0000     0.0000E+00    0.0000E+00    1.000000E+07  0.05000  9.074E-03    0   0.8524   age070_m72            0.0000     2.2168E-05    50.2982   3.2536   111.0847
 56      0.0000     0.0000E+00    0.0000E+00    2.512000E+07  0.05000  4.250E-03    0   0.7902   age090_m72            0.0000     2.1080E-05    48.9586   2.9608   113.1702
 57      0.0000     0.0000E+00    0.0000E+00    4.000000E+07  0.05000  3.087E-03    0   0.7618   age104_m72            0.0000     2.1100E-05    48.7100   2.7333   114.9865
 58      0.0000     0.0000E+00    0.0000E+00    1.015200E+08  0.05000  1.700E-03    0   0.7096   age116_m72            0.0000     1.9071E-05    45.1360   2.4679   118.8328
 59      0.0000     0.0000E+00    0.0000E+00    2.861200E+08  0.05000  7.384E-04    0   0.6633   age125_m72            0.0000     1.6880E-05    39.9133   1.9143   125.7318
 60      0.0000     0.0000E+00    0.0000E+00    5.088000E+08  0.05000  3.819E-04    0   0.6372   age130_m72            0.0000     1.5098E-05    38.1418   1.4050   128.5184
 61      4.0446     2.2291E-01    2.7014E-01    9.047900E+08  0.05000  1.676E-04    0   0.6110   age135_m72            0.0000     1.3480E-05    36.7289   0.6849   127.2318
 62     17.7324     1.8535E+00    2.1595E+00    1.434000E+09  0.05000  8.837E-05    0   0.5874   age139_m72            0.0000     1.3267E-05    36.5770   0.2198   126.7895
 63      2.9427     6.4213E-01    7.1299E-01    2.500000E+09  0.05000  4.233E-05    0   0.5598   age150_m72            0.0000     1.3121E-05    35.0364  -0.1087   125.9168
 64      1.0667     6.8664E-01    7.1487E-01    6.250000E+09  0.05000  1.435E-05    0   0.5249   age166_m72            0.0000     1.3477E-05    33.4532  -0.5795   124.7262
 65      8.3429     1.1832E+01    1.1819E+01    1.300000E+10  0.05000  6.513E-06    0   0.5036   age193_m72            0.0000     1.4173E-05    32.1560  -0.8854   126.8116
 66     33.2756     6.7895E+01    6.6594E+01    1.800000E+10  0.05000  4.527E-06    0   0.4945   age213_m72            0.0000     1.4845E-05    30.7293  -1.0000   124.9059


## Synthesis Results - Average & Chains ##

# j      x_j: min, <> & last-chain-values for 1 ...  7 chains
  1      0.0000      1.0860      0.6318      0.1354      0.0022      0.5310      0.0191      0.1431      0.5507
  2      0.0000      1.1634      0.0464      0.0000      0.8309      0.6525      0.0957      0.0000      0.1193
  3      0.0000      1.2923      0.7576      0.3937      0.0741      0.0000      0.0869      0.0909      0.0000
  4      0.0000      1.2788      0.4993      0.0504      0.0000      1.0826      0.4304      0.1500      0.0244
  5      0.7215      1.3429      0.1180      0.0428      0.1353      0.3070      0.1819      0.7658      0.4005
  6      0.0000      1.0419      0.1299      0.0000      1.5943      0.5175      0.4859      0.1447      0.3367
  7      0.0000      1.2071      0.0354      0.1888      1.2148      0.5714      0.6613      0.5578      0.2738
  8      0.0000      1.3268      0.2138      0.0000      0.0000      0.0720      0.4152      0.0000      0.0503
  9      0.0000      1.1305      0.2095      0.3765      0.0000      0.0000      0.3540      0.0532      0.3608
 10      0.0000      1.2171      0.5582      0.7790      0.4149      0.0000      0.1948      0.0000      0.5041
 11      6.0893      0.9653      0.8187      0.2952      0.0000      0.0000      0.0000      0.7195      0.0275
 12      0.0000      1.2807      0.0000      0.0000      0.0964      0.0000      0.1750      0.2615      0.2425
 13      0.0000      0.8240      0.2451      0.1729      0.4283      0.5269      0.8437      0.3829      0.3617
 14      4.6609      1.3590      0.0000      0.1159      0.0000      0.3985      0.4819      0.9036      0.3168
 15      0.0000      0.9066      0.9913      0.0000      0.0000      0.4016      0.7338      0.0916      0.0446
 16      0.0000      1.3058      0.2862      0.2395      0.1563      0.0000      0.0616      0.0000      0.0253
 17      0.0000      1.3677      0.0000      0.0000      0.4428      0.0000      0.0000      0.9680      0.0000
 18      0.0000      1.2034      0.2060      0.4619      0.0000      0.1507      0.3532      0.0000      0.4372
 19      0.0000      1.1575      0.2773      0.6834      0.0413      0.2426      0.3038      0.0049      0.1464
 20      0.0000      1.4797      0.4261      0.7163      0.0881      0.3503      0.8039      0.0000      0.1340
 21      0.0000      0.9994      0.0461      0.4169      0.0091      0.0843      0.5557      0.0000      0.2718
 22      0.1112      1.3874      0.0000      0.0125      1.1463      0.5979      0.1075      0.6264      0.0000
 23      0.0000      2.4291      0.0000      0.0000      0.7922      0.0074      0.5180      0.6683      0.8841
 24      0.0000      0.9739      0.0000      0.0940      0.5115      0.5088      0.0000      0.0000      0.1713
 25      0.0000      0.8346      0.2117      0.0000      0.0877      0.4420      0.0000      0.0000      0.0583
 26      0.0000      0.8819      0.2940      0.6758      0.0154      0.0217      0.8538      0.0000      0.0252
 27      0.0000      1.3819      0.4689      0.0000      0.0000      0.0024      0.0000      0.5940      0.0272
 28      0.0000      1.0413      0.1621      0.2180      0.0586      0.1033      1.1582      0.0000      0.0000
 29      0.0000      0.8665      0.0918      0.0253      0.7174      0.1603      0.0000      0.2030      0.3717
 30      0.0000      1.3055      0.0336      0.1275      1.1891      0.0383      0.4964      0.3500      0.0252
 31      0.0000      0.9574      0.4857      0.1982      0.0000      0.4933      0.0000      0.8182      0.0000
 32      0.0000      1.2012      0.2510      0.0000      1.0750      0.3547      0.0838      0.1513      0.0807
 33      0.0000      1.1149      0.1085      0.0561      0.0698      0.5413      0.4662      0.0000      0.0506
 34      0.0000      1.3963      2.2231      2.0071      1.7122      2.3360      1.9650      2.4505      2.0637
 35      0.0000      1.1181      0.0000      0.4053      0.8824      0.2555      0.4530      0.0000      0.0358
 36      0.0000      1.2470      0.3919      0.2849      0.0987      0.3183      0.0000      0.0000      0.1488
 37      0.5879      0.9653      0.0000      0.0000      0.0000      0.0000      0.0000      1.7528      0.1684
 38      0.0000      1.2004      0.2225      0.1966      0.0000      0.1824      0.3964      0.0984      0.1798
 39      0.0000      0.9820      0.2062      0.1825      0.3208      0.0763      0.3550      0.1022      0.3268
 40      0.0000      1.1907      0.2177      0.1076      0.3759      1.5055      0.6086      0.0000      0.0000
 41      0.0000      1.0641      0.1516      1.3799      0.2170      0.0827      0.3217      0.0000      0.0000
 42      0.0000      1.2085      0.1593      0.4097      0.8674      0.1570      0.2385      0.1105      0.0000
 43      0.0000      1.1060      0.0057      0.2030      0.0000      0.3802      0.0140      0.6916      0.0083
 44      0.0000      1.2309      0.1836      0.1222      0.0777      0.0000      1.2331      0.0000      0.0000
 45      0.0000      1.0638      0.2497      1.5948      0.3239      0.1187      0.3958      0.0000      0.5794
 46     13.0675      0.9046      0.4715      0.0284      0.4844      0.2051      0.1919      0.7371      0.7655
