###################################################################
## OUTPUT of StarlightChains_v04.for    [Cid@UFSC - 01/Apr/2007] ##
###################################################################

## Some input info
KUG0210-078._27_34.txt                   [arq_obs]
Base.CB07.vall.4m                        [arq_base]
Masks.EmLines.NEW.gm                     [arq_masks]
StCv04.C11.config                        [arq_config]
   66                                    [N_base]
    0                                    [N_YAV_components = # of components with extra extinction!]
    0                                    [i_FitPowerLaw (1/0 = Yes/No)]
-9.99                                    [alpha_PowerLaw]
CCM                                      [red_law_option]
 1.458241                                [q_norm = A(l_norm)/A(V)]

## (Re)Sampling Parameters
 3741.00                                 [l_ini (A)]
 7218.00                                 [l_fin (A)]
    1.00                                 [dl    (A)]     (OBS: dl_cushion =    50.00 A)

## Normalization info
 4020.00                                 [l_norm (A) - for base]
 4010.00                                 [llow_norm (A) - window for f_obs]
 4060.00                                 [lupp_norm (A) - window for f_obs]
5.180506E-17                             [fobs_norm (in input units)]

## S/N
 3691.00                                 [llow_SN (A) - window for S/N]
 7268.00                                 [lupp_SN (A) - window for S/N]
   5.353                                 [S/N in S/N window]
   3.466                                 [S/N in norm. window]
   0.133                                 [S/N_err in S/N window]
   0.086                                 [S/N_err in norm. window]
  1.0000                                 [fscale_chi2]

## etc...
    -2007354                             [idum_orig]
  2432                                   [NOl_eff]
  2088                                   [Nl_eff]
   344    NSIGMA                         [Ntot_cliped & clip_method]
 15656340                                [Nglobal_steps]
   7                                     [N_chains]
  44                                     [NEX0s_base = N_base in EX0s-fits]
 0   0   1      344   2.0   4.276E+04    [Clip-Bug, RC-Crash & Burn-In warning-flags, n_censored_weights, wei_nsig_threshold & wei_limit]
   113    111.979    111.302      0.677  [idt_all, wdt_TotTime, wdt_UsrTime & wdt_SysTime (sec)]

## Synthesis Results - Best model ##

 4.31320E-04                             [chi2/Nl_eff]
     6.95189                             [adev (%)]

   130.00000                             [sum-of-x (%)]
 6.16426E-15                             [Flux_tot (units of input spectrum!)]
 5.36196E-13                             [Mini_tot (???)]
 5.36102E-13                             [Mcor_tot (???)]

-430.29                                  [v0_min  (km/s)]
 305.52                                  [vd_min  (km/s)]
 3.3629                                  [AV_min  (mag)]
 0.0000                                  [YAV_min (mag)]

# j     x_j(%)      Mini_j(%)     Mcor_j(%)     age_j(yr)     Z_j      (L/M)_j    YAV?  Mstars   component_j        a/Fe...       SSP_chi2r SSP_adev(%)   SSP_AV   SSP_x(%)
  1     79.7774     6.4488E+01    6.4499E+01    1.000000E+06  0.00400  1.094E-02    0   1.0000   age020_m42            0.0000     2.6809E-04     4.9893   2.9306   157.1688
  2      0.0000     0.0000E+00    0.0000E+00    3.160000E+06  0.00400  4.007E-02    0   0.9999   age045_m42            0.0000     2.7849E-04     4.3990   2.2957   161.3831
  3      0.0000     0.0000E+00    0.0000E+00    5.010000E+06  0.00400  2.539E-02    0   0.9488   age055_m42            0.0000     2.6583E-04     4.5342   2.5707   160.6395
  4      0.0000     0.0000E+00    0.0000E+00    6.610000E+06  0.00400  2.620E-02    0   0.9220   age061_m42            0.0000     2.7648E-04     4.2754   2.2217   161.8332
  5      0.0000     0.0000E+00    0.0000E+00    1.000000E+07  0.00400  1.322E-02    0   0.8862   age070_m42            0.0000     2.8018E-04     3.9855   1.9239   167.0075
  6      0.0000     0.0000E+00    0.0000E+00    1.445000E+07  0.00400  7.883E-03    0   0.8571   age078_m42            0.0000     2.7080E-04     4.0162   2.2299   164.2367
  7      0.0000     0.0000E+00    0.0000E+00    2.512000E+07  0.00400  5.251E-03    0   0.8174   age090_m42            0.0000     2.8415E-04     4.0550   1.8005   167.5855
  8      0.0000     0.0000E+00    0.0000E+00    4.000000E+07  0.00400  3.649E-03    0   0.7851   age104_m42            0.0000     2.8878E-04     4.0712   1.5899   167.6298
  9      0.0000     0.0000E+00    0.0000E+00    5.500000E+07  0.00400  3.098E-03    0   0.7629   age110_m42            0.0000     2.9059E-04     4.0311   1.7641   165.8583
 10      0.0000     0.0000E+00    0.0000E+00    1.015200E+08  0.00400  2.228E-03    0   0.7207   age116_m42            0.0000     2.9033E-04     4.0211   1.7969   165.1100
 11      0.0000     0.0000E+00    0.0000E+00    2.861200E+08  0.00400  1.093E-03    0   0.6648   age125_m42            0.0000     3.0927E-04     4.6421   1.2396   168.9777
 12      0.0000     0.0000E+00    0.0000E+00    5.088000E+08  0.00400  6.597E-04    0   0.6365   age130_m42            0.0000     3.1127E-04     4.4189   1.2542   168.2937
 13      0.0000     0.0000E+00    0.0000E+00    1.434000E+09  0.00400  2.132E-04    0   0.5798   age139_m42            0.0000     3.0968E-04     4.1839   0.3204   168.6533
 14      0.0000     0.0000E+00    0.0000E+00    4.250000E+09  0.00400  5.895E-05    0   0.5377   age158_m42            0.0000     2.8177E-04     4.0630  -0.1488   163.7937
 15      0.0000     0.0000E+00    0.0000E+00    7.500000E+09  0.00400  3.510E-05    0   0.5212   age171_m42            0.0000     2.9097E-04     4.3013  -0.3311   162.0503
 16      0.0000     0.0000E+00    0.0000E+00    1.300000E+10  0.00400  2.005E-05    0   0.5034   age193_m42            0.0000     3.0392E-04     4.6168  -0.4915   160.6403
 17      0.0000     0.0000E+00    0.0000E+00    1.800000E+10  0.00400  1.525E-05    0   0.4967   age213_m42            0.0000     2.9949E-04     4.5885  -0.5209   160.3644
 18     49.2754     3.5198E+01    3.5205E+01    1.000000E+06  0.00800  1.238E-02    0   1.0000   age020_m52            0.0000     2.6789E-04     4.9834   2.9275   157.4437
 19      0.0000     0.0000E+00    0.0000E+00    3.160000E+06  0.00800  3.074E-02    0   0.9966   age045_m52            0.0000     2.6355E-04     4.9006   2.8566   158.4510
 20      0.9473     3.1398E-01    2.9654E-01    5.010000E+06  0.00800  2.668E-02    0   0.9443   age055_m52            0.0000     2.6289E-04     4.5157   2.6424   159.9977
 21      0.0000     0.0000E+00    0.0000E+00    6.610000E+06  0.00800  2.136E-02    0   0.9177   age061_m52            0.0000     2.7798E-04     3.8052   1.4219   168.9292
 22      0.0000     0.0000E+00    0.0000E+00    1.000000E+07  0.00800  1.215E-02    0   0.8827   age070_m52            0.0000     2.8193E-04     4.1629   2.0888   167.8034
 23      0.0000     0.0000E+00    0.0000E+00    1.445000E+07  0.00800  8.717E-03    0   0.8552   age078_m52            0.0000     2.7284E-04     3.9633   2.2025   166.0128
 24      0.0000     0.0000E+00    0.0000E+00    2.512000E+07  0.00800  5.592E-03    0   0.8162   age090_m52            0.0000     2.8853E-04     4.2194   1.8691   169.1676
 25      0.0000     0.0000E+00    0.0000E+00    4.000000E+07  0.00800  3.896E-03    0   0.7841   age104_m52            0.0000     2.9198E-04     4.2680   1.8019   168.7703
 26      0.0000     0.0000E+00    0.0000E+00    1.015200E+08  0.00800  2.148E-03    0   0.7226   age116_m52            0.0000     2.9011E-04     4.0939   1.7604   166.7893
 27      0.0000     0.0000E+00    0.0000E+00    2.861200E+08  0.00800  9.925E-04    0   0.6683   age125_m52            0.0000     3.1134E-04     4.3807   1.3200   169.8707
 28      0.0000     0.0000E+00    0.0000E+00    9.047900E+08  0.00800  3.141E-04    0   0.6138   age135_m52            0.0000     3.1070E-04     4.4241   0.5804   171.8381
 29      0.0000     0.0000E+00    0.0000E+00    1.434000E+09  0.00800  1.719E-04    0   0.5853   age139_m52            0.0000     2.9764E-04     4.5801  -0.0294   170.2380
 30      0.0000     0.0000E+00    0.0000E+00    2.500000E+09  0.00800  7.872E-05    0   0.5600   age150_m52            0.0000     2.8201E-04     4.4935  -0.3040   165.9736
 31      0.0000     0.0000E+00    0.0000E+00    4.250000E+09  0.00800  4.336E-05    0   0.5426   age158_m52            0.0000     2.8256E-04     4.4546  -0.3205   164.4723
 32      0.0000     0.0000E+00    0.0000E+00    6.250000E+09  0.00800  3.159E-05    0   0.5319   age166_m52            0.0000     2.9433E-04     4.7775  -0.5143   163.6302
 33      0.0000     0.0000E+00    0.0000E+00    1.300000E+10  0.00800  1.361E-05    0   0.5073   age193_m52            0.0000     3.0945E-04     5.2681  -0.9768   161.8788
 34      0.0000     0.0000E+00    0.0000E+00    1.800000E+10  0.00800  9.886E-06    0   0.4990   age213_m52            0.0000     3.2484E-04     5.5598  -1.0000   156.6161
 35      0.0000     0.0000E+00    0.0000E+00    1.000000E+06  0.02000  1.544E-02    0   1.0000   age020_m62            0.0000     2.6738E-04     4.9980   2.9210   157.9789
 36      0.0000     0.0000E+00    0.0000E+00    3.160000E+06  0.02000  3.762E-02    0   0.9858   age045_m62            0.0000     2.6182E-04     4.9937   2.8594   159.3759
 37      0.0000     0.0000E+00    0.0000E+00    5.010000E+06  0.02000  3.296E-02    0   0.9342   age055_m62            0.0000     2.6918E-04     4.5097   2.5456   161.5201
 38      0.0000     0.0000E+00    0.0000E+00    8.710000E+06  0.02000  1.154E-02    0   0.8861   age067_m62            0.0000     3.3216E-04     6.2107   1.4849   177.7993
 39      0.0000     0.0000E+00    0.0000E+00    1.445000E+07  0.02000  7.663E-03    0   0.8472   age078_m62            0.0000     2.9789E-04     4.8730   1.7271   172.3444
 40      0.0000     0.0000E+00    0.0000E+00    2.512000E+07  0.02000  4.532E-03    0   0.8099   age090_m62            0.0000     3.0286E-04     5.1409   1.7192   171.8864
 41      0.0000     0.0000E+00    0.0000E+00    5.500000E+07  0.02000  2.733E-03    0   0.7595   age110_m62            0.0000     2.8415E-04     4.1686   1.7703   168.6150
 42      0.0000     0.0000E+00    0.0000E+00    1.609000E+08  0.02000  1.369E-03    0   0.6985   age120_m62            0.0000     2.9344E-04     4.1481   1.6517   169.7060
 43      0.0000     0.0000E+00    0.0000E+00    2.861200E+08  0.02000  9.013E-04    0   0.6714   age125_m62            0.0000     3.0530E-04     4.1741   1.4361   171.7660
 44      0.0000     0.0000E+00    0.0000E+00    5.088000E+08  0.02000  5.028E-04    0   0.6449   age130_m62            0.0000     3.0675E-04     4.1981   1.1086   172.0494
 45      0.0000     0.0000E+00    0.0000E+00    9.047900E+08  0.02000  2.428E-04    0   0.6179   age135_m62            0.0000     2.8537E-04     4.1757   0.5206   170.7769
 46      0.0000     0.0000E+00    0.0000E+00    1.434000E+09  0.02000  1.263E-04    0   0.5908   age139_m62            0.0000     2.7376E-04     4.2594   0.0584   169.4272
 47      0.0000     0.0000E+00    0.0000E+00    2.500000E+09  0.02000  5.985E-05    0   0.5673   age150_m62            0.0000     2.7370E-04     4.6790  -0.3213   167.7373
 48      0.0000     0.0000E+00    0.0000E+00    4.250000E+09  0.02000  3.271E-05    0   0.5468   age158_m62            0.0000     2.9653E-04     5.3105  -0.6164   165.2708
 49      0.0000     0.0000E+00    0.0000E+00    1.000000E+10  0.02000  1.360E-05    0   0.5167   age181_m62            0.0000     3.1435E-04     6.0483  -0.9617   163.9933
 50      0.0000     0.0000E+00    0.0000E+00    1.800000E+10  0.02000  7.124E-06    0   0.5013   age213_m62            0.0000     3.5009E-04     6.3517  -1.0000   153.9752
 51      0.0000     0.0000E+00    0.0000E+00    1.000000E+06  0.05000  2.592E-02    0   0.9998   age020_m72            0.0000     2.6442E-04     5.0018   2.9032   158.6661
 52      0.0000     0.0000E+00    0.0000E+00    3.160000E+06  0.05000  4.845E-02    0   0.9577   age045_m72            0.0000     2.6042E-04     4.8687   2.7643   159.9253
 53      0.0000     0.0000E+00    0.0000E+00    5.010000E+06  0.05000  3.072E-02    0   0.9147   age055_m72            0.0000     2.7787E-04     4.8203   2.2884   167.0290
 54      0.0000     0.0000E+00    0.0000E+00    6.610000E+06  0.05000  1.455E-02    0   0.8877   age061_m72            0.0000     4.2986E-04     9.0559   1.4922   181.7257
 55      0.0000     0.0000E+00    0.0000E+00    1.000000E+07  0.05000  9.074E-03    0   0.8524   age070_m72            0.0000     3.0734E-04     6.2844   2.4560   166.9020
 56      0.0000     0.0000E+00    0.0000E+00    2.512000E+07  0.05000  4.250E-03    0   0.7902   age090_m72            0.0000     2.9923E-04     5.3492   2.2003   167.3325
 57      0.0000     0.0000E+00    0.0000E+00    4.000000E+07  0.05000  3.087E-03    0   0.7618   age104_m72            0.0000     3.1230E-04     5.5382   1.9874   169.0791
 58      0.0000     0.0000E+00    0.0000E+00    1.015200E+08  0.05000  1.700E-03    0   0.7096   age116_m72            0.0000     3.0155E-04     4.4559   1.7833   169.8782
 59      0.0000     0.0000E+00    0.0000E+00    2.861200E+08  0.05000  7.384E-04    0   0.6633   age125_m72            0.0000     3.0455E-04     4.1768   1.3319   171.7961
 60      0.0000     0.0000E+00    0.0000E+00    5.088000E+08  0.05000  3.819E-04    0   0.6372   age130_m72            0.0000     2.8638E-04     4.0632   0.8632   172.4296
 61      0.0000     0.0000E+00    0.0000E+00    9.047900E+08  0.05000  1.676E-04    0   0.6110   age135_m72            0.0000     2.6992E-04     4.4901   0.1538   169.9043
 62      0.0000     0.0000E+00    0.0000E+00    1.434000E+09  0.05000  8.837E-05    0   0.5874   age139_m72            0.0000     2.8274E-04     4.8279  -0.3057   168.9210
 63      0.0000     0.0000E+00    0.0000E+00    2.500000E+09  0.05000  4.233E-05    0   0.5598   age150_m72            0.0000     2.9040E-04     5.5656  -0.6223   166.9862
 64      0.0000     0.0000E+00    0.0000E+00    6.250000E+09  0.05000  1.435E-05    0   0.5249   age166_m72            0.0000     3.2265E-04     6.1830  -1.0000   160.3495
 65      0.0000     0.0000E+00    0.0000E+00    1.300000E+10  0.05000  6.513E-06    0   0.5036   age193_m72            0.0000     4.2688E-04     7.7969  -1.0000   147.5972
 66      0.0000     0.0000E+00    0.0000E+00    1.800000E+10  0.05000  4.527E-06    0   0.4945   age213_m72            0.0000     5.3889E-04     9.6143  -1.0000   139.1116


## Synthesis Results - Average & Chains ##

# j      x_j: min, <> & last-chain-values for 1 ...  7 chains
  1     79.7774     13.5241      3.3431     12.6646     14.1591     10.3141      5.1445     15.5382      8.5280
  2      0.0000      4.1377      4.7868      4.0405      3.8339      4.8900      0.0000      3.1412      2.8149
  3      0.0000      0.4693      0.0000      0.6653      0.0000      1.5229      3.7502      0.0168      0.0000
  4      0.0000      0.3481      0.9612      0.0000      0.5457      0.0000      2.2050      0.0000      0.1892
  5      0.0000      0.3615      2.7660      0.2065      0.0000      2.1254      3.6161      0.1052      0.0000
  6      0.0000      0.3025      2.8120      0.4925      0.1785      1.1630      0.0000      0.3364      0.0343
  7      0.0000      0.3659      0.7002      1.1063      0.1854      0.0182      0.0000      0.1170      0.3638
  8      0.0000      0.3441      0.0000      0.0000      0.0000      0.5429      0.9545      0.3131      0.0000
  9      0.0000      0.3843      0.0000      0.0000      1.1723      2.5350      0.1076      0.0000      2.8355
 10      0.0000      0.4193      1.3823      0.9657      0.2390      3.4117      1.0740      0.2482      1.1177
 11      0.0000      0.3402      0.9551      0.2008      0.0458      2.0090      0.4771      0.0000      0.2451
 12      0.0000      0.3717      0.3226      1.4929      0.1172      0.0304      3.2055      0.1626      0.9231
 13      0.0000      4.2492      4.0771      3.5469      4.8938      3.8441      2.2246      3.2099      3.2258
 14      0.0000      0.4689      0.1808      0.0000      0.4130      2.4038      2.8924      2.2586      1.2894
 15      0.0000      0.3784      0.4250      0.8260      0.0000      0.0000      0.4264      0.0000      0.3028
 16      0.0000      0.4950      0.0000      2.9120      0.1925      0.0000      3.6803      0.2381      2.5725
 17      0.0000      0.3732      2.2615      0.4561      0.0000      2.3868      0.9646      0.3116      0.9864
 18     49.2754     10.0801      5.4387      6.3699      9.2965      3.8170      4.2197      9.0827      5.5977
 19      0.0000      2.9542      0.0000      2.5655      2.8237      0.2570      2.7729      2.7587      1.5661
 20      0.9473      0.3631      1.0464      0.0000      0.4567      0.0000      0.0000      0.0000      3.0353
 21      0.0000      0.3952      2.9482      0.1033      0.2156      0.0000      0.0000      0.4621      0.2134
 22      0.0000      0.3840      0.6552      0.2035      0.0772      0.0000      1.4442      1.1990      0.0000
 23      0.0000      0.3218      0.9746      1.0690      0.7256      0.9707      0.0139      0.5879      1.2307
 24      0.0000      0.5265      4.1527      0.0828      0.0000      3.4392      2.4908      0.0406      0.0000
 25      0.0000      0.3372      0.1359      0.0000      0.7849      0.4142      0.0000      0.2787      0.7076
 26      0.0000      0.2969      1.5167      0.1676      0.6536      2.2396      0.9927      0.4715      0.0000
 27      0.0000      0.2662      0.0000      0.0000      0.0000      0.0000      0.2034      0.4333      0.0000
 28      0.0000      0.2709      0.3294      0.0363      0.5979      0.0000      0.5023      0.5631      0.0000
 29      0.0000      0.3478      0.9655      0.0000      1.0358      0.0000      0.7588      0.0000      1.0566
 30      0.0000      0.3866      0.8686      1.0634      0.4228      1.7431      3.2553      0.0000      1.5822
 31      0.0000      0.3950      4.8685      1.9680      1.1077      1.0635      1.1267      0.8902      0.2254
 32      0.0000      0.3852      0.0000      0.1659      1.0777      0.6950      4.2360      0.8689      0.0000
 33      0.0000      0.4410      2.3928      0.0000      0.0000      1.0438      1.5419      0.0000      1.7052
 34      0.0000      4.2622      4.3443      4.4680      6.2647      4.6127      0.2772      6.7642      4.6690
 35      0.0000      7.3341      1.8747      6.0257      5.9803      3.8212      6.4765      8.0233      7.5074
 36      0.0000      0.4037      0.0000      0.0000      0.0000      0.2383      0.0000      0.1315      0.0760
 37      0.0000      0.3743      4.6530      0.3549      0.4691      0.0000      0.6926      0.0000      0.0000
 38      0.0000      0.3756      1.6113      0.0000      0.6925      1.0999      0.0000      1.3176      0.1349
 39      0.0000      0.3647      1.4598      0.1223      0.0000      1.9230      0.0000      0.1369      0.6753
 40      0.0000      0.3451      0.0000      0.0000      0.0173      0.6080      2.4923      0.6658      0.0000
 41      0.0000      0.4228      0.4591      1.2169      0.6850      2.0503      1.2164      0.0000      0.3191
 42      0.0000      0.4173      0.0000      0.5067      0.5540      0.0000      2.2653      0.0585      0.9112
 43      0.0000      0.4070      0.0000      0.0593      0.0000      2.2164      1.5280      0.9597      0.0000
 44      0.0000      0.3743      0.0000      2.0504      1.0929      0.0000      0.0000      0.0000      1.7759
 45      0.0000      0.3823      4.7734      0.3410      0.6000      0.0000      0.0000      0.0000      0.7985
 46      0.0000      0.4445      1.3754      0.7279      0.3456      0.0242      0.9631      0.2496      1.3581
