###################################################################
## OUTPUT of StarlightChains_v04.for    [Cid@UFSC - 01/Apr/2007] ##
###################################################################

## Some input info
KUG0210-078._26_35.txt                   [arq_obs]
Base.CB07.vall.4m                        [arq_base]
Masks.EmLines.NEW.gm                     [arq_masks]
StCv04.C11.config                        [arq_config]
   66                                    [N_base]
    0                                    [N_YAV_components = # of components with extra extinction!]
    0                                    [i_FitPowerLaw (1/0 = Yes/No)]
-9.99                                    [alpha_PowerLaw]
CCM                                      [red_law_option]
 1.458241                                [q_norm = A(l_norm)/A(V)]

## (Re)Sampling Parameters
 3741.00                                 [l_ini (A)]
 7218.00                                 [l_fin (A)]
    1.00                                 [dl    (A)]     (OBS: dl_cushion =    50.00 A)

## Normalization info
 4020.00                                 [l_norm (A) - for base]
 4010.00                                 [llow_norm (A) - window for f_obs]
 4060.00                                 [lupp_norm (A) - window for f_obs]
5.160654E-17                             [fobs_norm (in input units)]

## S/N
 3691.00                                 [llow_SN (A) - window for S/N]
 7268.00                                 [lupp_SN (A) - window for S/N]
   8.962                                 [S/N in S/N window]
   9.165                                 [S/N in norm. window]
   0.067                                 [S/N_err in S/N window]
   0.069                                 [S/N_err in norm. window]
  1.0000                                 [fscale_chi2]

## etc...
    -2007331                             [idum_orig]
  2432                                   [NOl_eff]
  2425                                   [Nl_eff]
     7    NSIGMA                         [Ntot_cliped & clip_method]
  5291230                                [Nglobal_steps]
   7                                     [N_chains]
  49                                     [NEX0s_base = N_base in EX0s-fits]
 0   1   1        8   2.0   5.986E+03    [Clip-Bug, RC-Crash & Burn-In warning-flags, n_censored_weights, wei_nsig_threshold & wei_limit]
    97     95.635     95.136      0.499  [idt_all, wdt_TotTime, wdt_UsrTime & wdt_SysTime (sec)]

## Synthesis Results - Best model ##

 4.73246E-03                             [chi2/Nl_eff]
     9.56063                             [adev (%)]

    99.99168                             [sum-of-x (%)]
 8.49231E-17                             [Flux_tot (units of input spectrum!)]
 1.27936E-12                             [Mini_tot (???)]
 6.69730E-13                             [Mcor_tot (???)]

-446.41                                  [v0_min  (km/s)]
 346.53                                  [vd_min  (km/s)]
 0.3709                                  [AV_min  (mag)]
 0.0000                                  [YAV_min (mag)]

# j     x_j(%)      Mini_j(%)     Mcor_j(%)     age_j(yr)     Z_j      (L/M)_j    YAV?  Mstars   component_j        a/Fe...       SSP_chi2r SSP_adev(%)   SSP_AV   SSP_x(%)
  1      3.5746     2.1691E-02    4.1435E-02    1.000000E+06  0.00400  1.094E-02    0   1.0000   age020_m42            0.0000     1.7336E-04    12.8878   2.7206    94.7159
  2      0.0000     0.0000E+00    0.0000E+00    3.160000E+06  0.00400  4.007E-02    0   0.9999   age045_m42            0.0000     1.2955E-04    11.3140   2.0134   101.5660
  3      0.4130     1.0798E-03    1.9572E-03    5.010000E+06  0.00400  2.539E-02    0   0.9488   age055_m42            0.0000     1.4781E-04    11.9843   2.3268    98.8173
  4      0.0000     0.0000E+00    0.0000E+00    6.610000E+06  0.00400  2.620E-02    0   0.9220   age061_m42            0.0000     1.2878E-04    11.1380   1.9454   101.6367
  5      0.0000     0.0000E+00    0.0000E+00    1.000000E+07  0.00400  1.322E-02    0   0.8862   age070_m42            0.0000     1.2589E-04    10.0883   1.7294   102.0756
  6      4.1367     3.4837E-02    5.7038E-02    1.445000E+07  0.00400  7.883E-03    0   0.8571   age078_m42            0.0000     1.3580E-04    10.6044   2.0450    99.6584
  7      0.0000     0.0000E+00    0.0000E+00    2.512000E+07  0.00400  5.251E-03    0   0.8174   age090_m42            0.0000     1.2322E-04     9.8293   1.6105   102.4123
  8      1.7693     3.2188E-02    4.8273E-02    4.000000E+07  0.00400  3.649E-03    0   0.7851   age104_m42            0.0000     1.1806E-04     9.7488   1.3748   103.4876
  9      1.4307     3.0657E-02    4.4677E-02    5.500000E+07  0.00400  3.098E-03    0   0.7629   age110_m42            0.0000     1.1721E-04    10.0487   1.4987   104.3334
 10      0.0000     0.0000E+00    0.0000E+00    1.015200E+08  0.00400  2.228E-03    0   0.7207   age116_m42            0.0000     1.1754E-04    10.2023   1.5027   105.0279
 11      1.2259     7.4456E-02    9.4555E-02    2.861200E+08  0.00400  1.093E-03    0   0.6648   age125_m42            0.0000     1.0343E-04     9.1919   0.9737   107.5479
 12      2.9054     2.9236E-01    3.5548E-01    5.088000E+08  0.00400  6.597E-04    0   0.6365   age130_m42            0.0000     1.0587E-04     9.6486   0.9276   109.3856
 13      7.7829     2.4234E+00    2.6841E+00    1.434000E+09  0.00400  2.132E-04    0   0.5798   age139_m42            0.0000     9.6988E-05     9.8113  -0.0877   112.1366
 14      4.4005     4.9555E+00    5.0901E+00    4.250000E+09  0.00400  5.895E-05    0   0.5377   age158_m42            0.0000     1.0956E-04    10.8383  -0.5920   109.1066
 15      2.8908     5.4674E+00    5.4435E+00    7.500000E+09  0.00400  3.510E-05    0   0.5212   age171_m42            0.0000     1.1570E-04    11.1066  -0.7988   108.9154
 16      2.3666     7.8357E+00    7.5350E+00    1.300000E+10  0.00400  2.005E-05    0   0.5034   age193_m42            0.0000     1.2303E-04    11.4101  -0.9775   108.7203
 17      0.5106     2.2225E+00    2.1088E+00    1.800000E+10  0.00400  1.525E-05    0   0.4967   age213_m42            0.0000     1.2287E-04    11.3964  -0.9993   108.0930
 18      0.7641     4.0974E-03    7.8271E-03    1.000000E+06  0.00800  1.238E-02    0   1.0000   age020_m52            0.0000     1.7422E-04    12.9100   2.7155    94.9180
 19      0.0000     0.0000E+00    0.0000E+00    3.160000E+06  0.00800  3.074E-02    0   0.9966   age045_m52            0.0000     1.7125E-04    12.8353   2.6365    95.8483
 20      0.0000     0.0000E+00    0.0000E+00    5.010000E+06  0.00800  2.668E-02    0   0.9443   age055_m52            0.0000     1.5425E-04    12.1493   2.4058    97.9050
 21      0.5646     1.7549E-03    3.0764E-03    6.610000E+06  0.00800  2.136E-02    0   0.9177   age061_m52            0.0000     1.2448E-04    10.2320   1.2136   103.4100
 22      1.2312     6.7268E-03    1.1343E-02    1.000000E+07  0.00800  1.215E-02    0   0.8827   age070_m52            0.0000     1.3013E-04     9.9905   1.9239   101.4397
 23      0.0000     0.0000E+00    0.0000E+00    1.445000E+07  0.00800  8.717E-03    0   0.8552   age078_m52            0.0000     1.3269E-04    10.4498   2.0111   101.0046
 24      0.3157     3.7478E-03    5.8434E-03    2.512000E+07  0.00800  5.592E-03    0   0.8162   age090_m52            0.0000     1.2138E-04     9.7314   1.6749   103.5851
 25      0.2086     3.5545E-03    5.3240E-03    4.000000E+07  0.00800  3.896E-03    0   0.7841   age104_m52            0.0000     1.1468E-04     9.6106   1.5767   104.8200
 26      0.5780     1.7862E-02    2.4656E-02    1.015200E+08  0.00800  2.148E-03    0   0.7226   age116_m52            0.0000     1.1237E-04     9.8319   1.4854   105.4918
 27      8.6313     5.7732E-01    7.3702E-01    2.861200E+08  0.00800  9.925E-04    0   0.6683   age125_m52            0.0000     1.0956E-04     9.7964   0.9815   110.4278
 28      2.0911     4.4195E-01    5.1820E-01    9.047900E+08  0.00800  3.141E-04    0   0.6138   age135_m52            0.0000     1.0456E-04    10.0886   0.1286   116.4880
 29      4.3131     1.6656E+00    1.8623E+00    1.434000E+09  0.00800  1.719E-04    0   0.5853   age139_m52            0.0000     9.9321E-05    10.2880  -0.4726   114.2744
 30      0.3758     3.1688E-01    3.3898E-01    2.500000E+09  0.00800  7.872E-05    0   0.5600   age150_m52            0.0000     1.1659E-04    11.2767  -0.7984   112.6480
 31      0.9909     1.5171E+00    1.5725E+00    4.250000E+09  0.00800  4.336E-05    0   0.5426   age158_m52            0.0000     1.1894E-04    11.2788  -0.8123   111.6383
 32      0.0000     0.0000E+00    0.0000E+00    6.250000E+09  0.00800  3.159E-05    0   0.5319   age166_m52            0.0000     1.3094E-04    11.6637  -1.0000   110.3908
 33      0.1652     8.0556E-01    7.8065E-01    1.300000E+10  0.00800  1.361E-05    0   0.5073   age193_m52            0.0000     2.8715E-04    13.7293  -1.0000    88.6020
 34      2.4502     1.6453E+01    1.5684E+01    1.800000E+10  0.00800  9.886E-06    0   0.4990   age213_m52            0.0000     3.6380E-04    14.7606  -1.0000    83.8723
 35      0.6033     2.5940E-03    4.9552E-03    1.000000E+06  0.02000  1.544E-02    0   1.0000   age020_m62            0.0000     1.7588E-04    12.9533   2.7110    95.1234
 36      3.4833     6.1467E-03    1.1575E-02    3.160000E+06  0.02000  3.762E-02    0   0.9858   age045_m62            0.0000     1.7580E-04    12.9881   2.6466    96.0104
 37      0.0000     0.0000E+00    0.0000E+00    5.010000E+06  0.02000  3.296E-02    0   0.9342   age055_m62            0.0000     1.4458E-04    11.9493   2.2734   100.3984
 38      1.2314     7.0836E-03    1.1990E-02    8.710000E+06  0.02000  1.154E-02    0   0.8861   age067_m62            0.0000     1.5261E-04     9.0132   1.4959   101.3380
 39      0.0000     0.0000E+00    0.0000E+00    1.445000E+07  0.02000  7.663E-03    0   0.8472   age078_m62            0.0000     1.2739E-04     9.3182   1.6097   102.8504
 40      1.1049     1.6185E-02    2.5040E-02    2.512000E+07  0.02000  4.532E-03    0   0.8099   age090_m62            0.0000     1.2554E-04     9.1104   1.6119   102.4174
 41      3.3117     8.0440E-02    1.1671E-01    5.500000E+07  0.02000  2.733E-03    0   0.7595   age110_m62            0.0000     1.1768E-04     9.7357   1.5571   104.0074
 42      1.2680     6.1488E-02    8.2045E-02    1.609000E+08  0.02000  1.369E-03    0   0.6985   age120_m62            0.0000     1.1515E-04     9.8770   1.3598   108.0667
 43      1.7718     1.3050E-01    1.6738E-01    2.861200E+08  0.02000  9.013E-04    0   0.6714   age125_m62            0.0000     1.1915E-04    10.0454   1.0866   111.8561
 44      0.0624     8.2365E-03    1.0147E-02    5.088000E+08  0.02000  5.028E-04    0   0.6449   age130_m62            0.0000     1.2105E-04    10.5577   0.6580   116.3247
 45      3.6009     9.8455E-01    1.1621E+00    9.047900E+08  0.02000  2.428E-04    0   0.6179   age135_m62            0.0000     1.1138E-04    10.7538   0.0306   116.6178
 46      1.4967     7.8668E-01    8.8783E-01    1.434000E+09  0.02000  1.263E-04    0   0.5908   age139_m62            0.0000     1.1822E-04    11.2686  -0.4470   115.4034
 47      1.3140     1.4575E+00    1.5794E+00    2.500000E+09  0.02000  5.985E-05    0   0.5673   age150_m62            0.0000     1.3320E-04    12.0248  -0.8548   115.0558
 48      3.8025     7.7172E+00    8.0609E+00    4.250000E+09  0.02000  3.271E-05    0   0.5468   age158_m62            0.0000     1.7306E-04    12.6864  -1.0000   105.5310
 49      0.5400     2.6356E+00    2.6015E+00    1.000000E+10  0.02000  1.360E-05    0   0.5167   age181_m62            0.0000     3.3414E-04    14.8565  -1.0000    89.8440
 50      0.0000     0.0000E+00    0.0000E+00    1.800000E+10  0.02000  7.124E-06    0   0.5013   age213_m62            0.0000     4.8465E-04    16.6685  -1.0000    80.8569
 51      1.8404     4.7134E-03    9.0021E-03    1.000000E+06  0.05000  2.592E-02    0   0.9998   age020_m72            0.0000     1.8049E-04    13.0123   2.7050    95.0430
 52      0.0000     0.0000E+00    0.0000E+00    3.160000E+06  0.05000  4.845E-02    0   0.9577   age045_m72            0.0000     1.6370E-04    12.6912   2.5255    97.5761
 53      3.0316     6.5512E-03    1.1447E-02    5.010000E+06  0.05000  3.072E-02    0   0.9147   age055_m72            0.0000     1.3821E-04    10.3628   2.1523    99.9115
 54      0.7787     3.5530E-03    6.0249E-03    6.610000E+06  0.05000  1.455E-02    0   0.8877   age061_m72            0.0000     1.6631E-04     9.5727   1.6275   101.5581
 55      0.0000     0.0000E+00    0.0000E+00    1.000000E+07  0.05000  9.074E-03    0   0.8524   age070_m72            0.0000     1.3468E-04    10.1419   2.3482    99.7164
 56      0.0000     0.0000E+00    0.0000E+00    2.512000E+07  0.05000  4.250E-03    0   0.7902   age090_m72            0.0000     1.2126E-04     9.6075   2.0481   101.6862
 57      2.8474     6.1233E-02    8.9108E-02    4.000000E+07  0.05000  3.087E-03    0   0.7618   age104_m72            0.0000     1.1712E-04     9.2646   1.8293   103.1684
 58      2.2328     8.7190E-02    1.1819E-01    1.015200E+08  0.05000  1.700E-03    0   0.7096   age116_m72            0.0000     1.1476E-04     9.6171   1.5238   107.0844
 59      0.0000     0.0000E+00    0.0000E+00    2.861200E+08  0.05000  7.384E-04    0   0.6633   age125_m72            0.0000     1.2023E-04    10.2725   0.9254   114.2835
 60      0.0000     0.0000E+00    0.0000E+00    5.088000E+08  0.05000  3.819E-04    0   0.6372   age130_m72            0.0000     1.1724E-04    10.8513   0.3721   117.7094
 61      0.8348     3.3067E-01    3.8594E-01    9.047900E+08  0.05000  1.676E-04    0   0.6110   age135_m72            0.0000     1.3069E-04    11.9634  -0.4016   117.5998
 62      2.4606     1.8485E+00    2.0741E+00    1.434000E+09  0.05000  8.837E-05    0   0.5874   age139_m72            0.0000     1.3867E-04    12.3145  -0.8754   117.2259
 63      2.4927     3.9092E+00    4.1803E+00    2.500000E+09  0.05000  4.233E-05    0   0.5598   age150_m72            0.0000     1.8731E-04    13.1215  -1.0000   106.0170
 64      1.6470     7.6192E+00    7.6397E+00    6.250000E+09  0.05000  1.435E-05    0   0.5249   age166_m72            0.0000     4.0312E-04    15.9901  -1.0000    85.1323
 65      1.0003     1.0195E+01    9.8080E+00    1.300000E+10  0.05000  6.513E-06    0   0.5036   age193_m72            0.0000     6.1334E-04    18.0861  -1.0000    75.6650
 66      1.1479     1.6832E+01    1.5900E+01    1.800000E+10  0.05000  4.527E-06    0   0.4945   age213_m72            0.0000     7.5050E-04    19.3468  -1.0000    70.0314


## Synthesis Results - Average & Chains ##

# j      x_j: min, <> & last-chain-values for 1 ...  7 chains
  1      3.5746      3.5614      3.6274      3.6763      3.5189      3.6415      3.8684      3.5908      3.5940
  2      0.0000      0.0526      0.0458      0.0000      0.0891      0.0500      0.0537      0.0000      0.0000
  3      0.4130      0.4033      0.3710      0.4032      0.5247      0.3516      0.3688      0.4523      0.5434
  4      0.0000      0.0738      0.0000      0.0000      0.0000      0.0000      0.0094      0.2172      0.0000
  5      0.0000      0.2481      0.2077      0.2166      0.0281      0.2421      0.2668      0.1746      0.3271
  6      4.1367      3.3838      3.7406      3.3455      3.4885      3.2477      3.1491      3.2885      3.5735
  7      0.0000      0.1836      0.2632      0.1847      0.0952      0.0796      0.0961      0.2182      0.0000
  8      1.7693      1.2035      1.2052      1.1717      1.2729      1.0288      1.6460      1.3409      1.2387
  9      1.4307      0.8662      0.8222      0.8626      0.6854      0.8518      1.2163      0.9130      0.8452
 10      0.0000      0.2381      0.1669      0.2428      0.4691      0.3187      0.3493      0.1401      0.1423
 11      1.2259      1.4148      1.4067      1.3122      1.5455      1.3576      1.2201      1.3427      2.0850
 12      2.9054      2.1646      2.0206      2.2786      2.4233      2.3423      2.1088      2.0980      2.1099
 13      7.7829      9.6111      9.6302      9.8888      9.4304      9.5547      9.8042      9.2743      9.2795
 14      4.4005      3.9385      3.9560      3.9321      3.9869      4.1957      4.6780      4.1202      3.9097
 15      2.8908      2.5799      2.6136      2.7313      2.5893      2.6192      2.4064      2.6816      2.5414
 16      2.3666      2.3896      2.2882      2.5350      2.4645      2.4015      2.3491      2.3879      2.5010
 17      0.5106      0.4961      0.5973      0.4383      0.5792      0.4734      0.5253      0.4739      0.3393
 18      0.7641      0.6157      0.7541      0.6374      0.6822      0.7587      0.5591      0.6132      0.5069
 19      0.0000      0.0325      0.0000      0.1159      0.0000      0.0169      0.0061      0.1136      0.0000
 20      0.0000      0.0682      0.0701      0.0000      0.1785      0.0000      0.0000      0.1270      0.0000
 21      0.5646      0.5278      0.4714      0.8102      0.3398      0.6015      0.4178      0.6113      0.4817
 22      1.2312      1.8380      2.1055      1.8327      1.7715      1.8294      1.9014      1.8087      1.8667
 23      0.0000      0.1273      0.1120      0.2618      0.1850      0.0571      0.0513      0.0312      0.3515
 24      0.3157      0.4894      0.4723      0.5305      0.5827      0.4264      0.4850      0.4951      0.4339
 25      0.2086      0.4554      0.5267      0.5553      0.4041      0.6683      0.3341      0.5427      0.5634
 26      0.5780      0.1882      0.2788      0.3261      0.2529      0.1076      0.1381      0.2827      0.1746
 27      8.6313      7.8300      7.9305      7.8740      8.0617      7.9427      7.5702      8.1047      7.9710
 28      2.0911      2.8514      2.8494      2.8233      2.7550      2.9972      3.4011      2.7679      2.7013
 29      4.3131      3.6527      3.9775      3.4805      3.3604      3.4783      3.7084      3.9006      3.7515
 30      0.3758      0.4293      0.4540      0.5142      0.4934      0.4421      0.3801      0.4075      0.4205
 31      0.9909      1.2224      1.2210      1.2145      1.0997      1.0245      1.2570      1.2770      1.1723
 32      0.0000      0.0262      0.0000      0.0000      0.0000      0.0267      0.0000      0.0000      0.0000
 33      0.1652      0.2230      0.2705      0.1691      0.1407      0.2593      0.2793      0.1987      0.2069
 34      2.4502      2.2910      2.2909      2.3244      2.3303      2.3263      2.1895      2.3723      2.4163
 35      0.6033      0.5364      0.5510      0.4599      0.5531      0.4829      0.6367      0.5330      0.4993
 36      3.4833      3.3144      3.3743      3.3417      3.4927      3.4634      3.2970      3.3411      3.3002
 37      0.0000      0.0772      0.0000      0.0113      0.2766      0.0000      0.0857      0.0000      0.1746
 38      1.2314      1.0779      1.2256      1.2502      1.3182      1.1382      0.8023      1.1867      1.2168
 39      0.0000      0.0812      0.1454      0.0433      0.1436      0.0000      0.0000      0.0000      0.0000
 40      1.1049      0.7517      0.8008      0.7380      1.0034      0.7144      0.8390      0.7163      0.7441
 41      3.3117      3.3541      3.3541      3.2998      3.3661      3.3958      3.3588      3.0706      3.4492
 42      1.2680      0.6258      0.5073      0.5373      0.6573      0.8594      0.6977      0.6160      0.6038
 43      1.7718      1.5384      1.2949      1.5497      1.6916      1.6105      1.4106      1.5921      1.5559
 44      0.0624      1.0384      1.0905      1.3717      0.4866      1.2149      1.1430      1.4029      0.9758
 45      3.6009      3.7318      2.5014      2.6106      2.1131      3.5353      2.8488      2.7111      3.3850
 46      1.4967      1.5854      1.6892      1.4905      1.7779      1.7479      1.5545      1.8909      1.4232
