###################################################################
## OUTPUT of StarlightChains_v04.for    [Cid@UFSC - 01/Apr/2007] ##
###################################################################

## Some input info
KUG0210-078._31_33.txt                   [arq_obs]
Base.CB07.vall.4m                        [arq_base]
Masks.EmLines.NEW.gm                     [arq_masks]
StCv04.C11.config                        [arq_config]
   66                                    [N_base]
    0                                    [N_YAV_components = # of components with extra extinction!]
    0                                    [i_FitPowerLaw (1/0 = Yes/No)]
-9.99                                    [alpha_PowerLaw]
CCM                                      [red_law_option]
 1.458241                                [q_norm = A(l_norm)/A(V)]

## (Re)Sampling Parameters
 3741.00                                 [l_ini (A)]
 7218.00                                 [l_fin (A)]
    1.00                                 [dl    (A)]     (OBS: dl_cushion =    50.00 A)

## Normalization info
 4020.00                                 [l_norm (A) - for base]
 4010.00                                 [llow_norm (A) - window for f_obs]
 4060.00                                 [lupp_norm (A) - window for f_obs]
1.282201E-16                             [fobs_norm (in input units)]

## S/N
 3691.00                                 [llow_SN (A) - window for S/N]
 7268.00                                 [lupp_SN (A) - window for S/N]
   6.219                                 [S/N in S/N window]
   5.522                                 [S/N in norm. window]
   0.310                                 [S/N_err in S/N window]
   0.275                                 [S/N_err in norm. window]
  1.0000                                 [fscale_chi2]

## etc...
    -2007458                             [idum_orig]
  2432                                   [NOl_eff]
  2018                                   [Nl_eff]
   414    NSIGMA                         [Ntot_cliped & clip_method]
 16093840                                [Nglobal_steps]
   7                                     [N_chains]
  41                                     [NEX0s_base = N_base in EX0s-fits]
 0   0   1      414   2.0   1.164E+05    [Clip-Bug, RC-Crash & Burn-In warning-flags, n_censored_weights, wei_nsig_threshold & wei_limit]
   110    109.927    108.986      0.941  [idt_all, wdt_TotTime, wdt_UsrTime & wdt_SysTime (sec)]

## Synthesis Results - Best model ##

 2.49327E-04                             [chi2/Nl_eff]
     3.54970                             [adev (%)]

   117.29940                             [sum-of-x (%)]
 8.76955E-16                             [Flux_tot (units of input spectrum!)]
 7.14574E-12                             [Mini_tot (???)]
 3.65021E-12                             [Mcor_tot (???)]

 -16.74                                  [v0_min  (km/s)]
 241.50                                  [vd_min  (km/s)]
 1.3128                                  [AV_min  (mag)]
 0.0000                                  [YAV_min (mag)]

# j     x_j(%)      Mini_j(%)     Mcor_j(%)     age_j(yr)     Z_j      (L/M)_j    YAV?  Mstars   component_j        a/Fe...       SSP_chi2r SSP_adev(%)   SSP_AV   SSP_x(%)
  1      0.0000     0.0000E+00    0.0000E+00    1.000000E+06  0.00400  1.094E-02    0   1.0000   age020_m42            0.0000     1.0697E-03     9.2261   3.2742    99.0104
  2      0.0000     0.0000E+00    0.0000E+00    3.160000E+06  0.00400  4.007E-02    0   0.9999   age045_m42            0.0000     8.7367E-04     8.2408   2.6127   102.8170
  3      0.0000     0.0000E+00    0.0000E+00    5.010000E+06  0.00400  2.539E-02    0   0.9488   age055_m42            0.0000     9.2943E-04     8.5722   2.9024   101.6770
  4      0.0000     0.0000E+00    0.0000E+00    6.610000E+06  0.00400  2.620E-02    0   0.9220   age061_m42            0.0000     8.1477E-04     7.9710   2.5351   103.2346
  5      0.0000     0.0000E+00    0.0000E+00    1.000000E+07  0.00400  1.322E-02    0   0.8862   age070_m42            0.0000     5.7608E-04     6.5529   2.2135   107.4728
  6      0.0000     0.0000E+00    0.0000E+00    1.445000E+07  0.00400  7.883E-03    0   0.8571   age078_m42            0.0000     6.4802E-04     6.9932   2.5314   105.1367
  7      0.0000     0.0000E+00    0.0000E+00    2.512000E+07  0.00400  5.251E-03    0   0.8174   age090_m42            0.0000     5.2637E-04     6.2014   2.0842   108.1009
  8      0.0000     0.0000E+00    0.0000E+00    4.000000E+07  0.00400  3.649E-03    0   0.7851   age104_m42            0.0000     5.1795E-04     6.1560   1.8700   108.3452
  9      0.0000     0.0000E+00    0.0000E+00    5.500000E+07  0.00400  3.098E-03    0   0.7629   age110_m42            0.0000     5.9232E-04     6.6458   2.0504   106.9416
 10      0.0000     0.0000E+00    0.0000E+00    1.015200E+08  0.00400  2.228E-03    0   0.7207   age116_m42            0.0000     6.3337E-04     6.9068   2.0879   106.2816
 11      0.0896     8.5771E-03    1.1163E-02    2.861200E+08  0.00400  1.093E-03    0   0.6648   age125_m42            0.0000     5.0916E-04     5.9117   1.5100   109.7688
 12      0.0000     0.0000E+00    0.0000E+00    5.088000E+08  0.00400  6.597E-04    0   0.6365   age130_m42            0.0000     5.6721E-04     6.3106   1.5292   109.2307
 13      0.4702     2.3073E-01    2.6188E-01    1.434000E+09  0.00400  2.132E-04    0   0.5798   age139_m42            0.0000     5.0918E-04     6.0289   0.5909   109.9154
 14      0.0000     0.0000E+00    0.0000E+00    4.250000E+09  0.00400  5.895E-05    0   0.5377   age158_m42            0.0000     7.0896E-04     7.3004   0.1590   105.2103
 15      0.0000     0.0000E+00    0.0000E+00    7.500000E+09  0.00400  3.510E-05    0   0.5212   age171_m42            0.0000     7.8082E-04     7.6397  -0.0202   104.0179
 16      0.0000     0.0000E+00    0.0000E+00    1.300000E+10  0.00400  2.005E-05    0   0.5034   age193_m42            0.0000     8.6086E-04     7.9969  -0.1808   103.1639
 17      0.0000     0.0000E+00    0.0000E+00    1.800000E+10  0.00400  1.525E-05    0   0.4967   age213_m42            0.0000     8.5285E-04     7.9221  -0.2068   102.8737
 18      0.0000     0.0000E+00    0.0000E+00    1.000000E+06  0.00800  1.238E-02    0   1.0000   age020_m52            0.0000     1.0708E-03     9.2344   3.2705    99.2010
 19      0.0000     0.0000E+00    0.0000E+00    3.160000E+06  0.00800  3.074E-02    0   0.9966   age045_m52            0.0000     1.0603E-03     9.1949   3.2012    99.7743
 20      0.6712     2.6319E-03    4.8654E-03    5.010000E+06  0.00800  2.668E-02    0   0.9443   age055_m52            0.0000     9.3702E-04     8.6197   2.9763   101.1677
 21      0.0616     3.0186E-04    5.4230E-04    6.610000E+06  0.00800  2.136E-02    0   0.9177   age061_m52            0.0000     5.8262E-04     6.7371   1.7119   108.8540
 22      0.0000     0.0000E+00    0.0000E+00    1.000000E+07  0.00800  1.215E-02    0   0.8827   age070_m52            0.0000     5.3665E-04     6.1662   2.3761   108.0352
 23      0.0000     0.0000E+00    0.0000E+00    1.445000E+07  0.00800  8.717E-03    0   0.8552   age078_m52            0.0000     6.1479E-04     6.7572   2.5018   106.3823
 24      0.9139     1.7099E-02    2.7321E-02    2.512000E+07  0.00800  5.592E-03    0   0.8162   age090_m52            0.0000     4.9147E-04     5.8544   2.1523   109.1438
 25      0.0000     0.0000E+00    0.0000E+00    4.000000E+07  0.00800  3.896E-03    0   0.7841   age104_m52            0.0000     4.9940E-04     5.9081   2.0842   108.9325
 26      0.0000     0.0000E+00    0.0000E+00    1.015200E+08  0.00800  2.148E-03    0   0.7226   age116_m52            0.0000     5.6778E-04     6.4424   2.0473   107.5125
 27      0.0304     3.2043E-03    4.1921E-03    2.861200E+08  0.00800  9.925E-04    0   0.6683   age125_m52            0.0000     5.4160E-04     6.2044   1.5959   110.1374
 28      0.1347     4.4882E-02    5.3930E-02    9.047900E+08  0.00800  3.141E-04    0   0.6138   age135_m52            0.0000     5.4556E-04     6.1088   0.8624   111.3268
 29      0.0000     0.0000E+00    0.0000E+00    1.434000E+09  0.00800  1.719E-04    0   0.5853   age139_m52            0.0000     5.7003E-04     6.3502   0.2669   109.8234
 30      0.0000     0.0000E+00    0.0000E+00    2.500000E+09  0.00800  7.872E-05    0   0.5600   age150_m52            0.0000     7.5847E-04     7.4670   0.0225   105.7580
 31      0.0000     0.0000E+00    0.0000E+00    4.250000E+09  0.00800  4.336E-05    0   0.5426   age158_m52            0.0000     7.8393E-04     7.5859   0.0071   104.7750
 32      0.2560     8.4779E-01    8.8277E-01    6.250000E+09  0.00800  3.159E-05    0   0.5319   age166_m52            0.0000     8.9499E-04     8.0367  -0.1780   103.9407
 33      0.0000     0.0000E+00    0.0000E+00    1.300000E+10  0.00800  1.361E-05    0   0.5073   age193_m52            0.0000     1.0647E-03     8.6315  -0.6223   102.1437
 34      2.3706     2.5088E+01    2.4507E+01    1.800000E+10  0.00800  9.886E-06    0   0.4990   age213_m52            0.0000     1.2034E-03     9.0949  -0.7113   100.7368
 35      0.2468     1.6727E-03    3.2745E-03    1.000000E+06  0.02000  1.544E-02    0   1.0000   age020_m62            0.0000     1.0780E-03     9.2639   3.2646    99.5210
 36      0.0000     0.0000E+00    0.0000E+00    3.160000E+06  0.02000  3.762E-02    0   0.9858   age045_m62            0.0000     1.0753E-03     9.2701   3.2070   100.2392
 37      0.0000     0.0000E+00    0.0000E+00    5.010000E+06  0.02000  3.296E-02    0   0.9342   age055_m62            0.0000     9.2225E-04     8.5481   2.8750   102.3341
 38    103.5378     9.3870E-01    1.6283E+00    8.710000E+06  0.02000  1.154E-02    0   0.8861   age067_m62            0.0000     2.6613E-04     3.6066   1.7311   116.4067
 39      0.0000     0.0000E+00    0.0000E+00    1.445000E+07  0.02000  7.663E-03    0   0.8472   age078_m62            0.0000     4.1640E-04     5.1433   1.9993   111.6893
 40      1.2181     2.8121E-02    4.4586E-02    2.512000E+07  0.02000  4.532E-03    0   0.8099   age090_m62            0.0000     3.9135E-04     4.9239   1.9897   111.4584
 41      0.0000     0.0000E+00    0.0000E+00    5.500000E+07  0.02000  2.733E-03    0   0.7595   age110_m62            0.0000     4.9901E-04     5.9602   2.0568   108.6683
 42      0.0000     0.0000E+00    0.0000E+00    1.609000E+08  0.02000  1.369E-03    0   0.6985   age120_m62            0.0000     5.4450E-04     6.3170   1.9394   109.3733
 43      0.0000     0.0000E+00    0.0000E+00    2.861200E+08  0.02000  9.013E-04    0   0.6714   age125_m62            0.0000     5.4835E-04     6.3093   1.7192   110.9844
 44      0.8135     1.6927E-01    2.1370E-01    5.088000E+08  0.02000  5.028E-04    0   0.6449   age130_m62            0.0000     6.2009E-04     6.6955   1.3968   111.0354
 45      0.0000     0.0000E+00    0.0000E+00    9.047900E+08  0.02000  2.428E-04    0   0.6179   age135_m62            0.0000     6.1872E-04     6.8160   0.8285   109.4538
 46      0.0000     0.0000E+00    0.0000E+00    1.434000E+09  0.02000  1.263E-04    0   0.5908   age139_m62            0.0000     6.7371E-04     7.1429   0.3855   107.7901
 47      0.0000     0.0000E+00    0.0000E+00    2.500000E+09  0.02000  5.985E-05    0   0.5673   age150_m62            0.0000     8.6001E-04     7.9735   0.0347   105.5626
 48      0.8993     2.8766E+00    3.0792E+00    4.250000E+09  0.02000  3.271E-05    0   0.5468   age158_m62            0.0000     1.0720E-03     8.7271  -0.2463   103.5285
 49      0.0000     0.0000E+00    0.0000E+00    1.000000E+10  0.02000  1.360E-05    0   0.5167   age181_m62            0.0000     1.2935E-03     9.2827  -0.5564   101.2985
 50      0.5158     7.5750E+00    7.4338E+00    1.800000E+10  0.02000  7.124E-06    0   0.5013   age213_m62            0.0000     1.4920E-03     9.7847  -0.7388    99.2044
 51      0.0000     0.0000E+00    0.0000E+00    1.000000E+06  0.05000  2.592E-02    0   0.9998   age020_m72            0.0000     1.0881E-03     9.2940   3.2513    99.7882
 52      0.0000     0.0000E+00    0.0000E+00    3.160000E+06  0.05000  4.845E-02    0   0.9577   age045_m72            0.0000     1.0384E-03     9.1039   3.1113   100.6052
 53      0.0000     0.0000E+00    0.0000E+00    5.010000E+06  0.05000  3.072E-02    0   0.9147   age055_m72            0.0000     6.2854E-04     6.7155   2.5913   106.8760
 54      0.0000     0.0000E+00    0.0000E+00    6.610000E+06  0.05000  1.455E-02    0   0.8877   age061_m72            0.0000     4.7365E-04     5.2493   1.7220   119.9049
 55      0.0000     0.0000E+00    0.0000E+00    1.000000E+07  0.05000  9.074E-03    0   0.8524   age070_m72            0.0000     7.4159E-04     7.4884   2.7621   106.7555
 56      0.0000     0.0000E+00    0.0000E+00    2.512000E+07  0.05000  4.250E-03    0   0.7902   age090_m72            0.0000     5.8458E-04     6.4164   2.4922   107.5484
 57      0.2101     7.1200E-03    1.0618E-02    4.000000E+07  0.05000  3.087E-03    0   0.7618   age104_m72            0.0000     5.2561E-04     5.9954   2.2683   109.1952
 58      0.0000     0.0000E+00    0.0000E+00    1.015200E+08  0.05000  1.700E-03    0   0.7096   age116_m72            0.0000     5.1345E-04     5.9226   2.0650   109.7151
 59      0.0000     0.0000E+00    0.0000E+00    2.861200E+08  0.05000  7.384E-04    0   0.6633   age125_m72            0.0000     5.5918E-04     6.3541   1.6201   110.7868
 60      0.0000     0.0000E+00    0.0000E+00    5.088000E+08  0.05000  3.819E-04    0   0.6372   age130_m72            0.0000     6.1039E-04     6.8436   1.1724   110.3501
 61      0.0000     0.0000E+00    0.0000E+00    9.047900E+08  0.05000  1.676E-04    0   0.6110   age135_m72            0.0000     8.0877E-04     7.9439   0.5070   106.9309
 62      0.0000     0.0000E+00    0.0000E+00    1.434000E+09  0.05000  8.837E-05    0   0.5874   age139_m72            0.0000     8.4789E-04     7.9158   0.0481   106.4196
 63      0.0000     0.0000E+00    0.0000E+00    2.500000E+09  0.05000  4.233E-05    0   0.5598   age150_m72            0.0000     1.1138E-03     8.8641  -0.2327   103.7225
 64      1.8131     1.3219E+01    1.3584E+01    6.250000E+09  0.05000  1.435E-05    0   0.5249   age166_m72            0.0000     1.3673E-03     9.4925  -0.6429   100.3993
 65      3.0466     4.8941E+01    4.8249E+01    1.300000E+10  0.05000  6.513E-06    0   0.5036   age193_m72            0.0000     1.6514E-03    10.1273  -0.8909    99.8245
 66      0.0000     0.0000E+00    0.0000E+00    1.800000E+10  0.05000  4.527E-06    0   0.4945   age213_m72            0.0000     1.8317E-03    10.3967  -1.0000    97.5618


## Synthesis Results - Average & Chains ##

# j      x_j: min, <> & last-chain-values for 1 ...  7 chains
  1      0.0000      0.3469      1.0544      0.7372      1.8181      1.4794      0.0000      0.1508      0.1639
  2      0.0000      0.6411      0.0000      1.9058      0.0000      1.7243      0.0000      0.0000      0.7954
  3      0.0000      0.2395      0.5415      1.5615      1.5745      0.9354      0.0000      0.3046      0.2857
  4      0.0000      0.2401      0.6604      0.3999      2.3174      1.9367      0.9345      0.2673      0.0000
  5      0.0000      0.3269      4.1826      0.9901      0.0000      0.1200      0.0000      0.6369      0.6557
  6      0.0000      0.2737      0.1755      2.3411      0.1776      0.7875      3.4201      0.8302      0.5059
  7      0.0000      0.2962      0.0000      0.8800      1.6058      0.3755      0.0000      0.1347      0.5136
  8      0.0000      0.3223      0.0000      0.4971      3.4987      3.6128      0.1299      2.3299      0.9189
  9      0.0000      0.3223      2.3782      0.0000      0.0000      3.5001      0.0581      0.5985      0.0000
 10      0.0000      0.2920      0.0000      3.9411      0.0106      0.0000      1.2480      0.0000      0.0000
 11      0.0896      0.2859      3.7162      0.0000      1.6428      2.0496      0.1188      1.4679      0.1244
 12      0.0000      0.3408      1.0848      0.0000      0.1503      0.0000      0.0000      0.0000      0.0000
 13      0.4702     40.0237     12.6181     23.8215     15.8123     18.5288     26.5104     22.5737     30.2746
 14      0.0000      0.3042      1.2840      0.0000      1.0466      0.0443      0.0000      0.0000      0.9431
 15      0.0000      0.3176      0.0000      2.7133      0.0000      2.6685      0.7341      4.0732      0.0000
 16      0.0000      0.2280      0.0000      0.6655      1.9511      0.0000      0.9475      0.0000      0.0000
 17      0.0000      0.2432      0.1328      0.5290      0.0000      0.0000      0.1241      1.2505      0.4667
 18      0.0000      0.3103      1.6276      1.8959      0.7311      0.9450      1.0890      0.0000      0.3018
 19      0.0000      0.2508      0.0000      0.4475      5.0594      0.0000      0.0638      0.0000      0.9334
 20      0.6712      0.2201      0.8344      0.0000      0.0000      1.2534      1.7406      0.0000      0.5684
 21      0.0616      0.3056      0.4138      1.4145      0.0000      0.4163      0.4287      2.2584      2.3566
 22      0.0000      0.2123      0.0000      0.1724      2.0912      0.0000      2.1639      0.0000      0.9854
 23      0.0000      0.2737      0.2054      0.7535      0.7310      0.1379      1.6229      2.5087      0.0000
 24      0.9139      0.3013      1.4417      1.6458      1.6372      0.2855      0.9858      2.3688      2.1477
 25      0.0000      0.2488      4.5867      1.3135      0.0000      0.0000      0.9709      0.3648      0.8490
 26      0.0000      0.2833      0.0000      1.5675      0.0000      0.3616      0.7567      0.3143      2.4142
 27      0.0304      0.2425      1.3293      1.1995      0.0000      1.0332      0.7856      0.0000      0.1474
 28      0.1347      0.2542      1.3073      0.0000      2.9911      0.0000      0.4901      0.0925      0.1697
 29      0.0000      0.2573      0.4989      0.5997      0.0000      1.4628      0.0000      0.0000      0.1550
 30      0.0000      0.2870      0.0000      1.5566      0.1057      2.1634      1.0281      0.0000      0.8083
 31      0.0000      0.2565      0.3469      0.0000      0.0000      0.0000      0.2094      1.3951      0.5304
 32      0.2560      0.3333      1.2059      1.2338      2.5178      2.3561      0.9556      0.0000      0.0000
 33      0.0000      0.3115      0.0000      0.8936      0.4472      0.0000      1.5914      0.7119      1.4877
 34      2.3706      0.2846      1.9492      0.6455      1.1647      1.1385      0.5592      0.6632      1.0622
 35      0.2468      0.2958      1.1089      2.5205      3.6663      0.0384      0.0000      0.0000      0.4413
 36      0.0000      0.2931      0.0000      1.1686      0.0000      0.2266      0.9402      0.0000      1.7631
 37      0.0000      0.1925      0.2648      0.8949      1.5325      0.0000      1.4792      0.0000      0.3561
 38    103.5378      0.3606      2.4249      0.0954      1.2140      0.9708      1.4401      0.0270      0.0000
 39      0.0000      0.2266      0.9728      0.0000      0.5462      0.0000      0.7298      3.6035      0.0000
 40      1.2181      0.2902      2.4838      0.0000      0.0000      0.0000      1.0257      0.0000      0.1367
 41      0.0000      0.2712      2.6224      0.0000      0.9422      3.6313      0.0000      0.0000      1.1838
 42      0.0000      0.2871      1.7375      0.0802      1.5113      0.0000      1.0101      1.2398      0.7735
 43      0.0000      0.3036      0.5387      2.3064      2.8935      2.6451      0.7086      0.0000      0.4926
 44      0.8135      8.1847      3.8883      7.5125      0.9398      6.2761      5.3921      5.6945     10.1632
 45      0.0000      0.4515      0.9559      0.0151      0.0000      2.4620      0.9436      2.4277      0.0000
 46      0.0000      0.3035      0.0000      0.0000      2.2261      4.0023      0.0000      1.0887      0.0000
