###################################################################
## OUTPUT of StarlightChains_v04.for    [Cid@UFSC - 01/Apr/2007] ##
###################################################################

## Some input info
KUG0210-078._50_38.txt                   [arq_obs]
Base.CB07.vall.4m                        [arq_base]
Masks.EmLines.NEW.gm                     [arq_masks]
StCv04.C11.config                        [arq_config]
   66                                    [N_base]
    0                                    [N_YAV_components = # of components with extra extinction!]
    0                                    [i_FitPowerLaw (1/0 = Yes/No)]
-9.99                                    [alpha_PowerLaw]
CCM                                      [red_law_option]
 1.458241                                [q_norm = A(l_norm)/A(V)]

## (Re)Sampling Parameters
 3741.00                                 [l_ini (A)]
 7218.00                                 [l_fin (A)]
    1.00                                 [dl    (A)]     (OBS: dl_cushion =    50.00 A)

## Normalization info
 4020.00                                 [l_norm (A) - for base]
 4010.00                                 [llow_norm (A) - window for f_obs]
 4060.00                                 [lupp_norm (A) - window for f_obs]
2.718918E-19                             [fobs_norm (in input units)]

## S/N
 3691.00                                 [llow_SN (A) - window for S/N]
 7268.00                                 [lupp_SN (A) - window for S/N]
   2.456                                 [S/N in S/N window]
   0.141                                 [S/N in norm. window]
   0.005                                 [S/N_err in S/N window]
   0.000                                 [S/N_err in norm. window]
  1.0000                                 [fscale_chi2]

## etc...
    -2007956                             [idum_orig]
  2281                                   [NOl_eff]
  2174                                   [Nl_eff]
   107    NSIGMA                         [Ntot_cliped & clip_method]
  1006950                                [Nglobal_steps]
   7                                     [N_chains]
  42                                     [NEX0s_base = N_base in EX0s-fits]
 0   0   1      107   2.0   1.258E+02    [Clip-Bug, RC-Crash & Burn-In warning-flags, n_censored_weights, wei_nsig_threshold & wei_limit]
    24     24.165     23.656      0.508  [idt_all, wdt_TotTime, wdt_UsrTime & wdt_SysTime (sec)]

## Synthesis Results - Best model ##

 5.03217E-05                             [chi2/Nl_eff]
    58.83556                             [adev (%)]

   130.00000                             [sum-of-x (%)]
 7.37860E-17                             [Flux_tot (units of input spectrum!)]
 4.52458E-12                             [Mini_tot (???)]
 2.32350E-12                             [Mcor_tot (???)]

 214.05                                  [v0_min  (km/s)]
   4.36                                  [vd_min  (km/s)]
 3.9768                                  [AV_min  (mag)]
 0.0000                                  [YAV_min (mag)]

# j     x_j(%)      Mini_j(%)     Mcor_j(%)     age_j(yr)     Z_j      (L/M)_j    YAV?  Mstars   component_j        a/Fe...       SSP_chi2r SSP_adev(%)   SSP_AV   SSP_x(%)
  1      2.1080     2.4172E-03    4.7070E-03    1.000000E+06  0.00400  1.094E-02    0   1.0000   age020_m42            0.0000     1.1149E-05    70.3862   2.2587  2244.3599
  2      0.0000     0.0000E+00    0.0000E+00    3.160000E+06  0.00400  4.007E-02    0   0.9999   age045_m42            0.0000     1.1406E-05    71.1768   1.6173  2318.1868
  3      1.7256     8.5259E-04    1.5753E-03    5.010000E+06  0.00400  2.539E-02    0   0.9488   age055_m42            0.0000     1.1294E-05    70.9434   1.9047  2293.6875
  4      0.0000     0.0000E+00    0.0000E+00    6.610000E+06  0.00400  2.620E-02    0   0.9220   age061_m42            0.0000     1.1383E-05    71.2733   1.5552  2315.5117
  5      0.3603     3.4186E-04    5.8994E-04    1.000000E+07  0.00400  1.322E-02    0   0.8862   age070_m42            0.0000     1.1487E-05    72.4502   1.3054  2349.1885
  6      0.0000     0.0000E+00    0.0000E+00    1.445000E+07  0.00400  7.883E-03    0   0.8571   age078_m42            0.0000     1.1355E-05    71.9898   1.6001  2317.5762
  7      0.0072     1.7270E-05    2.7489E-05    2.512000E+07  0.00400  5.251E-03    0   0.8174   age090_m42            0.0000     1.1511E-05    72.8400   1.1862  2354.7920
  8      0.0000     0.0000E+00    0.0000E+00    4.000000E+07  0.00400  3.649E-03    0   0.7851   age104_m42            0.0000     1.1509E-05    72.8089   0.9711  2362.2856
  9      0.0000     0.0000E+00    0.0000E+00    5.500000E+07  0.00400  3.098E-03    0   0.7629   age110_m42            0.0000     1.1531E-05    72.4295   1.1218  2358.0349
 10      0.0000     0.0000E+00    0.0000E+00    1.015200E+08  0.00400  2.228E-03    0   0.7207   age116_m42            0.0000     1.1560E-05    72.1432   1.1433  2356.1245
 11      0.0000     0.0000E+00    0.0000E+00    2.861200E+08  0.00400  1.093E-03    0   0.6648   age125_m42            0.0000     1.1696E-05    73.0236   0.6165  2388.0166
 12      0.2361     4.4889E-03    5.5639E-03    5.088000E+08  0.00400  6.597E-04    0   0.6365   age130_m42            0.0000     1.1726E-05    72.5255   0.6087  2400.0144
 13      0.0348     2.0482E-03    2.3125E-03    1.434000E+09  0.00400  2.132E-04    0   0.5798   age139_m42            0.0000     1.1357E-05    71.7299  -0.3375  2421.7292
 14      0.0000     0.0000E+00    0.0000E+00    4.250000E+09  0.00400  5.895E-05    0   0.5377   age158_m42            0.0000     1.0971E-05    69.8809  -0.8216  2356.5669
 15      0.0000     0.0000E+00    0.0000E+00    7.500000E+09  0.00400  3.510E-05    0   0.5212   age171_m42            0.0000     1.0917E-05    69.3756  -1.0000  2333.5903
 16      0.0000     0.0000E+00    0.0000E+00    1.300000E+10  0.00400  2.005E-05    0   0.5034   age193_m42            0.0000     1.0951E-05    70.2229  -1.0000  2245.8115
 17     21.4736     1.7664E+01    1.7085E+01    1.800000E+10  0.00400  1.525E-05    0   0.4967   age213_m42            0.0000     1.0969E-05    70.6856  -1.0000  2227.7742
 18      0.0000     0.0000E+00    0.0000E+00    1.000000E+06  0.00800  1.238E-02    0   1.0000   age020_m52            0.0000     1.1149E-05    70.4858   2.2528  2249.6267
 19      0.0000     0.0000E+00    0.0000E+00    3.160000E+06  0.00800  3.074E-02    0   0.9966   age045_m52            0.0000     1.1118E-05    70.3093   2.1811  2265.8508
 20      0.0000     0.0000E+00    0.0000E+00    5.010000E+06  0.00800  2.668E-02    0   0.9443   age055_m52            0.0000     1.1167E-05    70.6141   1.9755  2284.6846
 21      0.0000     0.0000E+00    0.0000E+00    6.610000E+06  0.00800  2.136E-02    0   0.9177   age061_m52            0.0000     1.1313E-05    71.7708   0.8057  2376.0686
 22      0.0000     0.0000E+00    0.0000E+00    1.000000E+07  0.00800  1.215E-02    0   0.8827   age070_m52            0.0000     1.1416E-05    72.4883   1.4767  2354.8455
 23      0.0000     0.0000E+00    0.0000E+00    1.445000E+07  0.00800  8.717E-03    0   0.8552   age078_m52            0.0000     1.1352E-05    71.9766   1.5735  2342.4800
 24      0.0000     0.0000E+00    0.0000E+00    2.512000E+07  0.00800  5.592E-03    0   0.8162   age090_m52            0.0000     1.1472E-05    72.8716   1.2542  2379.1533
 25      0.0000     0.0000E+00    0.0000E+00    4.000000E+07  0.00800  3.896E-03    0   0.7841   age104_m52            0.0000     1.1468E-05    72.8286   1.1766  2384.2786
 26      0.0000     0.0000E+00    0.0000E+00    1.015200E+08  0.00800  2.148E-03    0   0.7226   age116_m52            0.0000     1.1447E-05    72.2496   1.1182  2369.5681
 27      0.0000     0.0000E+00    0.0000E+00    2.861200E+08  0.00800  9.925E-04    0   0.6683   age125_m52            0.0000     1.1627E-05    72.3320   0.6724  2422.5259
 28      0.0000     0.0000E+00    0.0000E+00    9.047900E+08  0.00800  3.141E-04    0   0.6138   age135_m52            0.0000     1.1374E-05    71.5545  -0.1083  2494.2615
 29      3.9778     2.9028E-01    3.3085E-01    1.434000E+09  0.00800  1.719E-04    0   0.5853   age139_m52            0.0000     1.1109E-05    71.0978  -0.7024  2453.9856
 30      0.4771     7.6034E-02    8.2914E-02    2.500000E+09  0.00800  7.872E-05    0   0.5600   age150_m52            0.0000     1.0939E-05    69.2973  -0.9993  2405.0332
 31      0.0000     0.0000E+00    0.0000E+00    4.250000E+09  0.00800  4.336E-05    0   0.5426   age158_m52            0.0000     1.0884E-05    69.0791  -1.0000  2377.4119
 32      1.1505     4.5688E-01    4.7323E-01    6.250000E+09  0.00800  3.159E-05    0   0.5319   age166_m52            0.0000     1.0951E-05    69.9874  -1.0000  2278.8372
 33      0.0000     0.0000E+00    0.0000E+00    1.300000E+10  0.00800  1.361E-05    0   0.5073   age193_m52            0.0000     1.1863E-05    75.1106  -1.0000  2025.6351
 34      0.0000     0.0000E+00    0.0000E+00    1.800000E+10  0.00800  9.886E-06    0   0.4990   age213_m52            0.0000     1.2227E-05    75.8511  -1.0000  1956.3473
 35      0.0018     1.4453E-06    2.8144E-06    1.000000E+06  0.02000  1.544E-02    0   1.0000   age020_m62            0.0000     1.1144E-05    70.5093   2.2505  2255.5051
 36      0.0000     0.0000E+00    0.0000E+00    3.160000E+06  0.02000  3.762E-02    0   0.9858   age045_m62            0.0000     1.1113E-05    70.1128   2.1819  2280.7007
 37      0.0000     0.0000E+00    0.0000E+00    5.010000E+06  0.02000  3.296E-02    0   0.9342   age055_m62            0.0000     1.1265E-05    70.6756   1.8714  2313.1030
 38      0.0000     0.0000E+00    0.0000E+00    8.710000E+06  0.02000  1.154E-02    0   0.8861   age067_m62            0.0000     1.1617E-05    74.9314   0.9527  2426.2368
 39      0.0000     0.0000E+00    0.0000E+00    1.445000E+07  0.02000  7.663E-03    0   0.8472   age078_m62            0.0000     1.1461E-05    73.3862   1.1360  2401.9541
 40      1.1602     3.2114E-03    5.0647E-03    2.512000E+07  0.02000  4.532E-03    0   0.8099   age090_m62            0.0000     1.1466E-05    73.6997   1.1405  2385.7966
 41      0.0000     0.0000E+00    0.0000E+00    5.500000E+07  0.02000  2.733E-03    0   0.7595   age110_m62            0.0000     1.1402E-05    72.6176   1.1529  2373.1743
 42      0.0000     0.0000E+00    0.0000E+00    1.609000E+08  0.02000  1.369E-03    0   0.6985   age120_m62            0.0000     1.1579E-05    72.3972   1.0177  2405.1257
 43      0.0000     0.0000E+00    0.0000E+00    2.861200E+08  0.02000  9.013E-04    0   0.6714   age125_m62            0.0000     1.1742E-05    72.5012   0.7879  2449.8948
 44      0.0000     0.0000E+00    0.0000E+00    5.088000E+08  0.02000  5.028E-04    0   0.6449   age130_m62            0.0000     1.1700E-05    72.0153   0.4147  2499.4546
 45      0.0029     1.4955E-04    1.7994E-04    9.047900E+08  0.02000  2.428E-04    0   0.6179   age135_m62            0.0000     1.1186E-05    70.7001  -0.1866  2490.3757
 46      0.0000     0.0000E+00    0.0000E+00    1.434000E+09  0.02000  1.263E-04    0   0.5908   age139_m62            0.0000     1.0980E-05    69.7408  -0.6494  2464.1553
 47      4.4968     9.4252E-01    1.0412E+00    2.500000E+09  0.02000  5.985E-05    0   0.5673   age150_m62            0.0000     1.0874E-05    68.6664  -1.0000  2424.4111
 48      4.6579     1.7863E+00    1.9021E+00    4.250000E+09  0.02000  3.271E-05    0   0.5468   age158_m62            0.0000     1.1049E-05    70.1827  -1.0000  2255.1064
 49      0.0000     0.0000E+00    0.0000E+00    1.000000E+10  0.02000  1.360E-05    0   0.5167   age181_m62            0.0000     1.1838E-05    73.4537  -1.0000  2061.2158
 50      0.0000     0.0000E+00    0.0000E+00    1.800000E+10  0.02000  7.124E-06    0   0.5013   age213_m62            0.0000     1.2664E-05    75.3963  -1.0000  1930.0955
 51      0.0000     0.0000E+00    0.0000E+00    1.000000E+06  0.05000  2.592E-02    0   0.9998   age020_m72            0.0000     1.1114E-05    70.1626   2.2364  2261.7617
 52      0.0000     0.0000E+00    0.0000E+00    3.160000E+06  0.05000  4.845E-02    0   0.9577   age045_m72            0.0000     1.1105E-05    70.1730   2.0856  2290.3203
 53      2.4660     1.0070E-03    1.7937E-03    5.010000E+06  0.05000  3.072E-02    0   0.9147   age055_m72            0.0000     1.1258E-05    71.9637   1.6667  2349.2620
 54      0.0000     0.0000E+00    0.0000E+00    6.610000E+06  0.05000  1.455E-02    0   0.8877   age061_m72            0.0000     1.1841E-05    76.2842   0.9957  2448.2915
 55      0.0000     0.0000E+00    0.0000E+00    1.000000E+07  0.05000  9.074E-03    0   0.8524   age070_m72            0.0000     1.1301E-05    72.1660   1.8367  2345.5579
 56      0.0000     0.0000E+00    0.0000E+00    2.512000E+07  0.05000  4.250E-03    0   0.7902   age090_m72            0.0000     1.1371E-05    72.7625   1.5882  2348.5122
 57      0.0885     3.5944E-04    5.3322E-04    4.000000E+07  0.05000  3.087E-03    0   0.7618   age104_m72            0.0000     1.1457E-05    73.2174   1.3835  2367.9631
 58      0.0000     0.0000E+00    0.0000E+00    1.015200E+08  0.05000  1.700E-03    0   0.7096   age116_m72            0.0000     1.1578E-05    72.7449   1.1611  2397.0042
 59      2.9408     4.9960E-02    6.4531E-02    2.861200E+08  0.05000  7.384E-04    0   0.6633   age125_m72            0.0000     1.1659E-05    72.2003   0.6507  2480.9907
 60      0.0000     0.0000E+00    0.0000E+00    5.088000E+08  0.05000  3.819E-04    0   0.6372   age130_m72            0.0000     1.1346E-05    71.3383   0.1470  2522.4609
 61      0.0000     0.0000E+00    0.0000E+00    9.047900E+08  0.05000  1.676E-04    0   0.6110   age135_m72            0.0000     1.0936E-05    69.7129  -0.5852  2494.6118
 62      0.0000     0.0000E+00    0.0000E+00    1.434000E+09  0.05000  8.837E-05    0   0.5874   age139_m72            0.0000     1.0824E-05    68.9661  -1.0000  2456.8423
 63     31.1683     9.2367E+00    1.0069E+01    2.500000E+09  0.05000  4.233E-05    0   0.5598   age150_m72            0.0000     1.1044E-05    69.9811  -1.0000  2275.0569
 64     37.5162     3.2796E+01    3.3522E+01    6.250000E+09  0.05000  1.435E-05    0   0.5249   age166_m72            0.0000     1.2184E-05    74.4715  -1.0000  2002.2957
 65      2.3296     4.4870E+00    4.4002E+00    1.300000E+10  0.05000  6.513E-06    0   0.5036   age193_m72            0.0000     1.3504E-05    76.9378  -1.0000  1862.1176
 66     11.6200     3.2200E+01    3.1006E+01    1.800000E+10  0.05000  4.527E-06    0   0.4945   age213_m72            0.0000     1.4481E-05    78.0798  -1.0000  1765.0747


## Synthesis Results - Average & Chains ##

# j      x_j: min, <> & last-chain-values for 1 ...  7 chains
  1      2.1080     89.3427     41.7683     56.7835     59.1346     48.2279     55.6080     37.3792     64.9148
  2      0.0000      0.3774      0.0000      0.0000      0.0000      0.0000      0.1609      0.0000      0.0014
  3      1.7256      0.6759      8.5054      0.9952      4.1827      0.9455      0.0000      0.1943      0.0000
  4      0.0000      0.4884      0.0982      1.4178      0.0831      0.0000      0.0000      0.0000      0.0000
  5      0.3603      0.6839      1.3974      0.0000      0.6008      0.2880      1.4521      2.5396      0.0000
  6      0.0000      0.4213      2.1143      0.1206      2.1317      0.0000      1.4888      0.8166      2.0884
  7      0.0072      0.4829      2.5502      1.2524      0.6252      0.0000      2.2089      2.2672      0.2113
  8      0.0000      0.5661      0.9114      2.1635      0.4188      1.5754      0.3097      3.3941      2.1027
  9      0.0000      0.5183      2.6794      2.0485      0.6977      0.0000      0.1388      1.8116      1.0961
 10      0.0000      0.3493      0.0000      0.9284      1.9735      1.0318      0.0000      0.7600      0.0000
 11      0.0000      0.6729      1.5933      0.6407      1.4505      0.6494      1.1770      0.0000      0.3810
 12      0.2361      0.6883      0.0000      0.0000      1.7112      0.0468      1.0329      1.5567      2.6173
 13      0.0348      0.5203      0.7929      3.3873      1.4710      0.7547      0.5089      3.6107      0.4746
 14      0.0000      0.8171      2.9275      4.0791      0.4577      0.4200      1.5218      2.9112      1.5716
 15      0.0000      0.5484      0.0000      1.5325      0.0000      0.6798      1.1821      1.9224      0.7258
 16      0.0000      0.5282      1.4568      3.3091      0.0000      0.4796      0.0139      1.6161      0.4878
 17     21.4736      0.4550      0.8188      0.3622      3.5071      0.0000      0.1860      0.0000      0.1871
 18      0.0000      0.4660      0.9560      0.0000      2.3434      0.0000      2.3153      2.0092      0.5348
 19      0.0000      0.7504      2.9395      1.0207      1.4226      6.0827      0.0000      0.4386      0.0984
 20      0.0000      0.5235      0.0000      0.1766      4.6132      1.4316      0.2914      0.9528      0.0000
 21      0.0000      0.6198      0.0941      0.0000      1.6365      1.5768      0.0458      0.2986      0.3343
 22      0.0000      0.5242      1.5849      2.0286      0.0000      0.6221      2.3758      1.7594      1.5822
 23      0.0000      0.5537      2.0398      0.0000      0.0123      0.4609      0.0000      0.6849      2.6015
 24      0.0000      0.5902      1.2592      0.0000      1.4832      0.0983      0.6391      3.6054      0.2793
 25      0.0000      0.7020      1.4231      0.0942      0.2744      0.0000      1.9924      2.3269      1.1578
 26      0.0000      0.5092      0.0000      0.0000      0.5039      1.1726      0.0000      0.1811      0.5114
 27      0.0000      0.7297      1.1504      0.6482      0.5136      0.3005      2.1870      4.1907      2.7384
 28      0.0000      0.7774      1.9629      0.7687      0.9085      0.5760      2.1245      2.5874      3.9246
 29      3.9778      0.6255      0.5676      0.0000      1.7803      0.0000      0.0000      3.7690      3.1627
 30      0.4771      0.5195      2.4291      2.2648      0.7520      0.5125      1.9670      0.0000      0.0000
 31      0.0000      0.4867      4.5328      0.0000      0.0000      2.4725      0.9268      0.1599      0.0000
 32      1.1505      0.7631      0.6245      2.1216      1.9688      4.2254      3.7686      0.9043      2.4969
 33      0.0000      0.7053      0.5195      0.0000      0.0451      1.4348      0.0000      1.8383      0.0000
 34      0.0000      0.5330      0.8444      2.1475      0.4236      1.7991      0.8944      3.2437      1.3779
 35      0.0018      0.5777      0.0000      0.0000      1.7727      0.0000      0.6802      0.8211      0.4831
 36      0.0000      0.4740      0.0000      3.1441      0.0000      1.4181      0.3285      1.3426      1.7063
 37      0.0000      0.7242      0.1659      3.0097      0.7530      0.1970      1.2533      0.0866      4.1953
 38      0.0000      0.5624      0.7958      0.2929      0.8211      0.4806      0.1403      0.0000      3.0926
 39      0.0000      0.5297      5.3567      1.4090      0.0000      2.8166      1.6491      0.0000      0.0000
 40      1.1602      0.7420      2.0752      0.0000      0.9294      2.7972      1.9186      0.0000      0.3939
 41      0.0000      0.6768      3.5883      1.1070      1.5316      2.7417      0.2942      0.0000      0.0000
 42      0.0000      0.4746      0.0515      0.3307      0.7928      0.0000      0.0908      3.1607      0.0000
 43      0.0000      0.5454      0.0520      1.1890      0.0000      0.4926      2.5880      0.3924      0.0000
 44      0.0000      0.4886      0.0000      1.8210      0.0000      1.4352      1.1918      0.4840      1.5376
 45      0.0029      0.4970      1.1191      0.0000      1.1627      0.0000      0.0000      0.0000      0.0000
 46      0.0000      0.6904      0.7840      4.7716      0.8194      0.0000      2.3203      1.0953      1.5999
