###################################################################
## OUTPUT of StarlightChains_v04.for    [Cid@UFSC - 01/Apr/2007] ##
###################################################################

## Some input info
KUG0210-078._26_30.txt                   [arq_obs]
Base.CB07.vall.4m                        [arq_base]
Masks.EmLines.NEW.gm                     [arq_masks]
StCv04.C11.config                        [arq_config]
   66                                    [N_base]
    0                                    [N_YAV_components = # of components with extra extinction!]
    0                                    [i_FitPowerLaw (1/0 = Yes/No)]
-9.99                                    [alpha_PowerLaw]
CCM                                      [red_law_option]
 1.458241                                [q_norm = A(l_norm)/A(V)]

## (Re)Sampling Parameters
 3741.00                                 [l_ini (A)]
 7218.00                                 [l_fin (A)]
    1.00                                 [dl    (A)]     (OBS: dl_cushion =    50.00 A)

## Normalization info
 4020.00                                 [l_norm (A) - for base]
 4010.00                                 [llow_norm (A) - window for f_obs]
 4060.00                                 [lupp_norm (A) - window for f_obs]
2.098645E-17                             [fobs_norm (in input units)]

## S/N
 3691.00                                 [llow_SN (A) - window for S/N]
 7268.00                                 [lupp_SN (A) - window for S/N]
   6.689                                 [S/N in S/N window]
   7.480                                 [S/N in norm. window]
   0.028                                 [S/N_err in S/N window]
   0.031                                 [S/N_err in norm. window]
  1.0000                                 [fscale_chi2]

## etc...
    -2007326                             [idum_orig]
  2429                                   [NOl_eff]
  2174                                   [Nl_eff]
   255    NSIGMA                         [Ntot_cliped & clip_method]
 11521860                                [Nglobal_steps]
   7                                     [N_chains]
  44                                     [NEX0s_base = N_base in EX0s-fits]
 0   0   1      255   2.0   1.484E+04    [Clip-Bug, RC-Crash & Burn-In warning-flags, n_censored_weights, wei_nsig_threshold & wei_limit]
    73     73.000     72.583      0.418  [idt_all, wdt_TotTime, wdt_UsrTime & wdt_SysTime (sec)]

## Synthesis Results - Best model ##

 1.10655E-05                             [chi2/Nl_eff]
    13.09670                             [adev (%)]

   112.60220                             [sum-of-x (%)]
 2.93342E-17                             [Flux_tot (units of input spectrum!)]
 8.53783E-13                             [Mini_tot (???)]
 4.32375E-13                             [Mcor_tot (???)]

-105.89                                  [v0_min  (km/s)]
 157.50                                  [vd_min  (km/s)]
 0.1610                                  [AV_min  (mag)]
 0.0000                                  [YAV_min (mag)]

# j     x_j(%)      Mini_j(%)     Mcor_j(%)     age_j(yr)     Z_j      (L/M)_j    YAV?  Mstars   component_j        a/Fe...       SSP_chi2r SSP_adev(%)   SSP_AV   SSP_x(%)
  1      0.0000     0.0000E+00    0.0000E+00    1.000000E+06  0.00400  1.094E-02    0   1.0000   age020_m42            0.0000     1.9031E-05    17.3241   2.5565   100.9598
  2      0.0000     0.0000E+00    0.0000E+00    3.160000E+06  0.00400  4.007E-02    0   0.9999   age045_m42            0.0000     1.7393E-05    16.5239   1.9157   104.0221
  3      0.0000     0.0000E+00    0.0000E+00    5.010000E+06  0.00400  2.539E-02    0   0.9488   age055_m42            0.0000     1.7717E-05    16.7859   2.1980   103.1751
  4      0.0000     0.0000E+00    0.0000E+00    6.610000E+06  0.00400  2.620E-02    0   0.9220   age061_m42            0.0000     1.6767E-05    16.2668   1.8463   104.1013
  5      0.0000     0.0000E+00    0.0000E+00    1.000000E+07  0.00400  1.322E-02    0   0.8862   age070_m42            0.0000     1.4220E-05    14.9401   1.5735   106.2549
  6      0.0000     0.0000E+00    0.0000E+00    1.445000E+07  0.00400  7.883E-03    0   0.8571   age078_m42            0.0000     1.4961E-05    15.3338   1.8736   104.7234
  7      0.0000     0.0000E+00    0.0000E+00    2.512000E+07  0.00400  5.251E-03    0   0.8174   age090_m42            0.0000     1.3725E-05    14.6580   1.4530   106.4968
  8      0.0000     0.0000E+00    0.0000E+00    4.000000E+07  0.00400  3.649E-03    0   0.7851   age104_m42            0.0000     1.3633E-05    14.6196   1.2410   106.6541
  9      0.0000     0.0000E+00    0.0000E+00    5.500000E+07  0.00400  3.098E-03    0   0.7629   age110_m42            0.0000     1.4543E-05    15.0665   1.4013   106.1543
 10      0.0000     0.0000E+00    0.0000E+00    1.015200E+08  0.00400  2.228E-03    0   0.7207   age116_m42            0.0000     1.5056E-05    15.2970   1.4287   105.9227
 11      7.4952     2.0924E-01    2.7468E-01    2.861200E+08  0.00400  1.093E-03    0   0.6648   age125_m42            0.0000     1.3732E-05    14.3292   0.8816   107.8989
 12      0.0000     0.0000E+00    0.0000E+00    5.088000E+08  0.00400  6.597E-04    0   0.6365   age130_m42            0.0000     1.4303E-05    14.6753   0.8852   108.0610
 13      0.4021     5.7552E-02    6.5890E-02    1.434000E+09  0.00400  2.132E-04    0   0.5798   age139_m42            0.0000     1.3121E-05    14.2932  -0.0524   108.6979
 14      0.0000     0.0000E+00    0.0000E+00    4.250000E+09  0.00400  5.895E-05    0   0.5377   age158_m42            0.0000     1.4754E-05    15.3124  -0.5217   105.6011
 15      1.1538     1.0030E+00    1.0323E+00    7.500000E+09  0.00400  3.510E-05    0   0.5212   age171_m42            0.0000     1.5376E-05    15.5334  -0.7109   104.8208
 16      2.6055     3.9652E+00    3.9415E+00    1.300000E+10  0.00400  2.005E-05    0   0.5034   age193_m42            0.0000     1.6005E-05    15.7328  -0.8785   104.2061
 17      0.0000     0.0000E+00    0.0000E+00    1.800000E+10  0.00400  1.525E-05    0   0.4967   age213_m42            0.0000     1.5885E-05    15.6641  -0.9041   103.8919
 18      0.0000     0.0000E+00    0.0000E+00    1.000000E+06  0.00800  1.238E-02    0   1.0000   age020_m52            0.0000     1.9030E-05    17.3418   2.5515   101.2083
 19      5.0584     5.0210E-03    9.8810E-03    3.160000E+06  0.00800  3.074E-02    0   0.9966   age045_m52            0.0000     1.8943E-05    17.3440   2.4789   101.9483
 20      2.5351     2.8993E-03    5.4062E-03    5.010000E+06  0.00800  2.668E-02    0   0.9443   age055_m52            0.0000     1.7797E-05    16.8505   2.2660   102.8896
 21      3.4291     4.8984E-03    8.8765E-03    6.610000E+06  0.00800  2.136E-02    0   0.9177   age061_m52            0.0000     1.3845E-05    15.0318   1.0730   107.5460
 22      0.0000     0.0000E+00    0.0000E+00    1.000000E+07  0.00800  1.215E-02    0   0.8827   age070_m52            0.0000     1.3833E-05    14.5911   1.7362   106.7941
 23      0.0000     0.0000E+00    0.0000E+00    1.445000E+07  0.00800  8.717E-03    0   0.8552   age078_m52            0.0000     1.4610E-05    15.1233   1.8463   105.8755
 24     11.3204     6.1770E-02    9.9554E-02    2.512000E+07  0.00800  5.592E-03    0   0.8162   age090_m52            0.0000     1.3395E-05    14.3502   1.5188   107.6353
 25      0.2187     1.7128E-03    2.6519E-03    4.000000E+07  0.00800  3.896E-03    0   0.7841   age104_m52            0.0000     1.3508E-05    14.4093   1.4457   107.6538
 26      0.0000     0.0000E+00    0.0000E+00    1.015200E+08  0.00800  2.148E-03    0   0.7226   age116_m52            0.0000     1.4289E-05    14.8941   1.3963   106.7896
 27      0.0000     0.0000E+00    0.0000E+00    2.861200E+08  0.00800  9.925E-04    0   0.6683   age125_m52            0.0000     1.3999E-05    14.6423   0.9510   109.0274
 28      4.2796     4.1574E-01    5.0389E-01    9.047900E+08  0.00800  3.141E-04    0   0.6138   age135_m52            0.0000     1.3660E-05    14.5613   0.1892   111.5319
 29      0.0000     0.0000E+00    0.0000E+00    1.434000E+09  0.00800  1.719E-04    0   0.5853   age139_m52            0.0000     1.3292E-05    14.4332  -0.4111   110.1081
 30      0.0000     0.0000E+00    0.0000E+00    2.500000E+09  0.00800  7.872E-05    0   0.5600   age150_m52            0.0000     1.5171E-05    15.4885  -0.6896   107.5668
 31      2.3614     1.6617E+00    1.7804E+00    4.250000E+09  0.00800  4.336E-05    0   0.5426   age158_m52            0.0000     1.5448E-05    15.6146  -0.7082   106.6955
 32      0.0000     0.0000E+00    0.0000E+00    6.250000E+09  0.00800  3.159E-05    0   0.5319   age166_m52            0.0000     1.6386E-05    15.9540  -0.9060   106.3467
 33      0.0000     0.0000E+00    0.0000E+00    1.300000E+10  0.00800  1.361E-05    0   0.5073   age193_m52            0.0000     2.2797E-05    16.9987  -1.0000    94.8486
 34      0.0000     0.0000E+00    0.0000E+00    1.800000E+10  0.00800  9.886E-06    0   0.4990   age213_m52            0.0000     2.7456E-05    17.9688  -1.0000    91.1386
 35      0.0708     1.3995E-04    2.7635E-04    1.000000E+06  0.02000  1.544E-02    0   1.0000   age020_m62            0.0000     1.9078E-05    17.3685   2.5456   101.5475
 36     17.4914     1.4187E-02    2.7616E-02    3.160000E+06  0.02000  3.762E-02    0   0.9858   age045_m62            0.0000     1.9063E-05    17.4320   2.4798   102.6298
 37      0.0000     0.0000E+00    0.0000E+00    5.010000E+06  0.02000  3.296E-02    0   0.9342   age055_m62            0.0000     1.7719E-05    16.7948   2.1678   103.9593
 38      0.0000     0.0000E+00    0.0000E+00    8.710000E+06  0.02000  1.154E-02    0   0.8861   age067_m62            0.0000     1.1017E-05    12.5196   1.1656   111.4182
 39      0.0000     0.0000E+00    0.0000E+00    1.445000E+07  0.02000  7.663E-03    0   0.8472   age078_m62            0.0000     1.2480E-05    13.6927   1.3858   109.1349
 40      1.8187     1.2245E-02    1.9583E-02    2.512000E+07  0.02000  4.532E-03    0   0.8099   age090_m62            0.0000     1.2264E-05    13.4660   1.3835   108.5513
 41      0.0000     0.0000E+00    0.0000E+00    5.500000E+07  0.02000  2.733E-03    0   0.7595   age110_m62            0.0000     1.3398E-05    14.4111   1.4197   107.3061
 42      0.0000     0.0000E+00    0.0000E+00    1.609000E+08  0.02000  1.369E-03    0   0.6985   age120_m62            0.0000     1.4043E-05    14.7568   1.2918   108.4710
 43      0.0000     0.0000E+00    0.0000E+00    2.861200E+08  0.02000  9.013E-04    0   0.6714   age125_m62            0.0000     1.4119E-05    14.7578   1.0702   110.1507
 44      0.0000     0.0000E+00    0.0000E+00    5.088000E+08  0.02000  5.028E-04    0   0.6449   age130_m62            0.0000     1.4857E-05    15.1688   0.7190   111.5624
 45      0.0000     0.0000E+00    0.0000E+00    9.047900E+08  0.02000  2.428E-04    0   0.6179   age135_m62            0.0000     1.4351E-05    15.2470   0.1248   111.0852
 46      0.0000     0.0000E+00    0.0000E+00    1.434000E+09  0.02000  1.263E-04    0   0.5908   age139_m62            0.0000     1.4621E-05    15.4489  -0.3329   110.0198
 47      0.0000     0.0000E+00    0.0000E+00    2.500000E+09  0.02000  5.985E-05    0   0.5673   age150_m62            0.0000     1.6278E-05    16.1297  -0.7089   108.7989
 48      1.1479     1.0707E+00    1.1561E+00    4.250000E+09  0.02000  3.271E-05    0   0.5468   age158_m62            0.0000     1.8347E-05    16.7356  -1.0000   107.3187
 49      0.8746     1.9623E+00    2.0021E+00    1.000000E+10  0.02000  1.360E-05    0   0.5167   age181_m62            0.0000     2.5525E-05    17.5927  -1.0000    96.6308
 50      3.7574     1.6093E+01    1.5931E+01    1.800000E+10  0.02000  7.124E-06    0   0.5013   age213_m62            0.0000     3.5051E-05    19.1707  -1.0000    89.5875
 51      0.0815     9.5957E-05    1.8944E-04    1.000000E+06  0.05000  2.592E-02    0   0.9998   age020_m72            0.0000     1.9228E-05    17.4154   2.5278   101.9950
 52      0.0000     0.0000E+00    0.0000E+00    3.160000E+06  0.05000  4.845E-02    0   0.9577   age045_m72            0.0000     1.8745E-05    17.2975   2.3857   102.9384
 53      0.0000     0.0000E+00    0.0000E+00    5.010000E+06  0.05000  3.072E-02    0   0.9147   age055_m72            0.0000     1.4582E-05    14.8973   1.9276   106.5457
 54     28.5462     5.9864E-02    1.0493E-01    6.610000E+06  0.05000  1.455E-02    0   0.8877   age061_m72            0.0000     1.3211E-05    13.2341   1.1729   113.2856
 55      0.0000     0.0000E+00    0.0000E+00    1.000000E+07  0.05000  9.074E-03    0   0.8524   age070_m72            0.0000     1.5761E-05    15.5797   2.0865   106.5749
 56      0.0000     0.0000E+00    0.0000E+00    2.512000E+07  0.05000  4.250E-03    0   0.7902   age090_m72            0.0000     1.4297E-05    14.5918   1.8426   106.5128
 57      0.0000     0.0000E+00    0.0000E+00    4.000000E+07  0.05000  3.087E-03    0   0.7618   age104_m72            0.0000     1.3748E-05    14.1518   1.6334   107.4848
 58      0.0000     0.0000E+00    0.0000E+00    1.015200E+08  0.05000  1.700E-03    0   0.7096   age116_m72            0.0000     1.3796E-05    14.3903   1.4265   108.3696
 59      2.2128     9.1438E-02    1.1976E-01    2.861200E+08  0.05000  7.384E-04    0   0.6633   age125_m72            0.0000     1.4296E-05    14.8568   0.9482   111.0625
 60      0.0000     0.0000E+00    0.0000E+00    5.088000E+08  0.05000  3.819E-04    0   0.6372   age130_m72            0.0000     1.4632E-05    15.4006   0.4630   112.3802
 61      0.0000     0.0000E+00    0.0000E+00    9.047900E+08  0.05000  1.676E-04    0   0.6110   age135_m72            0.0000     1.6264E-05    16.3561  -0.2529   111.0476
 62      0.0000     0.0000E+00    0.0000E+00    1.434000E+09  0.05000  8.837E-05    0   0.5874   age139_m72            0.0000     1.6434E-05    16.1155  -0.7113   110.3892
 63      0.0000     0.0000E+00    0.0000E+00    2.500000E+09  0.05000  4.233E-05    0   0.5598   age150_m72            0.0000     1.9084E-05    16.9221  -1.0000   108.2813
 64      0.1718     3.6530E-01    3.7863E-01    6.250000E+09  0.05000  1.435E-05    0   0.5249   age166_m72            0.0000     2.9674E-05    18.2428  -1.0000    93.4088
 65     15.5695     7.2942E+01    7.2535E+01    1.300000E+10  0.05000  6.513E-06    0   0.5036   age193_m72            0.0000     4.5151E-05    20.8111  -1.0000    85.7378
 66      0.0000     0.0000E+00    0.0000E+00    1.800000E+10  0.05000  4.527E-06    0   0.4945   age213_m72            0.0000     5.6541E-05    22.5720  -1.0000    80.6249


## Synthesis Results - Average & Chains ##

# j      x_j: min, <> & last-chain-values for 1 ...  7 chains
  1      0.0000     15.0599     16.5079     13.1328     15.4643     12.8564     15.4177     14.6823     16.3765
  2      0.0000      0.2590      0.0724      0.0000      0.0000      0.0863      0.2426      0.0000      0.0843
  3      0.0000      0.2252      0.3474      0.7500      0.0000      0.0832      0.0998      0.3034      0.3257
  4      0.0000      0.2518      0.0647      0.1347      0.1301      0.9929      0.0608      0.4451      0.1084
  5      0.0000      0.3148      0.2548      0.0299      0.0909      0.0000      0.0819      0.0000      0.0293
  6      0.0000      1.4518      1.3050      1.9016      1.3647      2.9774      1.3708      1.3972      1.4243
  7      0.0000      0.2625      0.4294      0.0744      0.2362      0.4900      0.0529      0.0000      0.2179
  8      0.0000      0.1780      0.1813      0.0000      0.0000      1.1573      0.0755      0.3654      0.0672
  9      0.0000      0.2661      0.1534      0.2084      0.0000      0.1281      0.0343      0.1719      0.0313
 10      0.0000      0.2329      0.0872      0.5681      0.0000      0.0000      0.0588      0.0000      0.2962
 11      7.4952      0.2187      0.2590      0.2880      0.0347      0.4288      0.0000      0.2896      0.1492
 12      0.0000      0.2643      0.2748      0.0000      0.5162      0.2091      0.1479      0.0392      0.2502
 13      0.4021      0.2464      0.2694      0.3099      0.1403      0.4478      0.2931      0.3475      0.0796
 14      0.0000      0.2639      0.0675      0.5765      0.0284      0.0000      0.0893      1.8280      0.0980
 15      1.1538      0.2079      0.0112      0.3712      0.0000      1.2349      0.1010      0.0000      0.4198
 16      2.6055      0.2684      0.0985      1.8369      0.3025      0.0982      0.0196      1.5022      0.3382
 17      0.0000      0.2475      0.1985      0.2862      0.4135      0.1748      0.1706      0.0587      0.1112
 18      0.0000      0.2379      0.0000      1.4527      0.0083      0.0000      0.0000      0.0000      0.0170
 19      5.0584      0.7441      0.8511      0.8189      0.7670      0.1562      0.7711      0.3380      0.8110
 20      2.5351      3.4963      3.9073      3.3847      3.6957      2.6074      3.7068      2.9063      3.7663
 21      3.4291      0.8101      0.7167      0.2653      0.8342      0.8267      0.3155      1.0195      1.0590
 22      0.0000      0.1992      0.0000      0.0000      0.0324      0.0000      0.0931      0.0514      0.0797
 23      0.0000      0.1769      0.2516      0.0000      0.0465      0.2384      0.2044      0.5890      0.2242
 24     11.3204      0.1916      0.0890      0.2887      0.1824      0.3570      0.0000      0.1754      0.2180
 25      0.2187      0.2357      0.3761      1.0470      0.1569      0.0000      0.0224      0.5653      0.0595
 26      0.0000      0.2268      0.0000      0.0448      0.0000      1.4379      0.0000      0.0000      0.1262
 27      0.0000      0.2099      0.0000      0.1611      0.0970      1.0964      0.1096      0.3181      0.0248
 28      4.2796      0.2361      0.1837      0.2894      0.1424      0.1513      0.0804      0.2545      0.1693
 29      0.0000      0.2207      0.2172      0.2417      0.3462      0.4746      0.0000      0.0753      0.1495
 30      0.0000      0.2322      0.4204      0.0000      0.0993      0.5911      0.0000      0.0631      0.1758
 31      2.3614      0.2070      0.0000      0.4953      0.1058      0.3461      0.0000      0.0197      0.0000
 32      0.0000      0.2050      0.0275      0.2631      0.3261      0.0000      0.1069      0.0000      0.1224
 33      0.0000      0.2562      0.0781      0.5087      0.0603      1.3349      0.0532      0.5310      0.1119
 34      0.0000      0.2454      0.0679      0.4417      0.0241      1.7376      0.2842      0.1882      0.1127
 35      0.0708      0.2550      0.1000      0.3929      0.0393      0.4363      0.0391      0.4680      0.0498
 36     17.4914      3.2725      3.5165      2.7658      4.0836      2.5708      3.2772      3.1541      3.2239
 37      0.0000      0.1591      0.0850      1.3950      0.0000      0.1490      0.0055      0.2117      0.1687
 38      0.0000      4.3168      4.4860      4.3308      4.2405      4.0157      4.1543      4.7383      4.4695
 39      0.0000      0.2377      0.4999      0.0000      0.4263      0.3360      0.1883      0.3180      0.1204
 40      1.8187      0.7250      0.7191      0.3303      0.8354      1.3545      0.5980      0.1252      0.8363
 41      0.0000      0.2453      0.1289      0.0064      0.2116      0.0000      0.1184      0.0022      0.0919
 42      0.0000      0.2118      0.3678      0.0832      0.0000      0.5582      0.2693      0.3380      0.1701
 43      0.0000      0.2462      0.0614      0.7209      0.0000      0.2060      0.3101      0.1363      0.0497
 44      0.0000      0.2545      0.0360      0.4712      0.1318      0.0000      0.1213      0.0000      0.0265
 45      0.0000      0.2153      0.0000      0.2609      0.0000      0.6065      0.0000      0.5183      0.0786
 46      0.0000      0.2234      0.0000      0.2713      0.0755      1.2447      0.2991      0.0000      0.1957
