###################################################################
## OUTPUT of StarlightChains_v04.for    [Cid@UFSC - 01/Apr/2007] ##
###################################################################

## Some input info
KUG0210-078._34_40.txt                   [arq_obs]
Base.CB07.vall.4m                        [arq_base]
Masks.EmLines.NEW.gm                     [arq_masks]
StCv04.C11.config                        [arq_config]
   66                                    [N_base]
    0                                    [N_YAV_components = # of components with extra extinction!]
    0                                    [i_FitPowerLaw (1/0 = Yes/No)]
-9.99                                    [alpha_PowerLaw]
CCM                                      [red_law_option]
 1.458241                                [q_norm = A(l_norm)/A(V)]

## (Re)Sampling Parameters
 3741.00                                 [l_ini (A)]
 7218.00                                 [l_fin (A)]
    1.00                                 [dl    (A)]     (OBS: dl_cushion =    50.00 A)

## Normalization info
 4020.00                                 [l_norm (A) - for base]
 4010.00                                 [llow_norm (A) - window for f_obs]
 4060.00                                 [lupp_norm (A) - window for f_obs]
9.758011E-18                             [fobs_norm (in input units)]

## S/N
 3691.00                                 [llow_SN (A) - window for S/N]
 7268.00                                 [lupp_SN (A) - window for S/N]
   3.727                                 [S/N in S/N window]
   2.225                                 [S/N in norm. window]
   0.021                                 [S/N_err in S/N window]
   0.012                                 [S/N_err in norm. window]
  1.0000                                 [fscale_chi2]

## etc...
    -2007545                             [idum_orig]
  2410                                   [NOl_eff]
  2404                                   [Nl_eff]
     6    NSIGMA                         [Ntot_cliped & clip_method]
  1160180                                [Nglobal_steps]
   7                                     [N_chains]
  22                                     [NEX0s_base = N_base in EX0s-fits]
 0   0   1        6   2.0   9.814E+02    [Clip-Bug, RC-Crash & Burn-In warning-flags, n_censored_weights, wei_nsig_threshold & wei_limit]
    25     24.875     24.476      0.399  [idt_all, wdt_TotTime, wdt_UsrTime & wdt_SysTime (sec)]

## Synthesis Results - Best model ##

 7.83305E-06                             [chi2/Nl_eff]
    39.15797                             [adev (%)]

   128.98772                             [sum-of-x (%)]
 1.33800E-17                             [Flux_tot (units of input spectrum!)]
 1.03487E-12                             [Mini_tot (???)]
 5.27059E-13                             [Mcor_tot (???)]

-107.69                                  [v0_min  (km/s)]
 278.64                                  [vd_min  (km/s)]
 0.0455                                  [AV_min  (mag)]
 0.0000                                  [YAV_min (mag)]

# j     x_j(%)      Mini_j(%)     Mcor_j(%)     age_j(yr)     Z_j      (L/M)_j    YAV?  Mstars   component_j        a/Fe...       SSP_chi2r SSP_adev(%)   SSP_AV   SSP_x(%)
  1      0.0000     0.0000E+00    0.0000E+00    1.000000E+06  0.00400  1.094E-02    0   1.0000   age020_m42            0.0000     1.7276E-05    77.3712   4.0000   108.9432
  2      0.0000     0.0000E+00    0.0000E+00    3.160000E+06  0.00400  4.007E-02    0   0.9999   age045_m42            0.0000     1.5582E-05    72.0345   3.3326   114.0643
  3      0.0000     0.0000E+00    0.0000E+00    5.010000E+06  0.00400  2.539E-02    0   0.9488   age055_m42            0.0000     1.6331E-05    74.5246   3.6547   111.1753
  4      0.0000     0.0000E+00    0.0000E+00    6.610000E+06  0.00400  2.620E-02    0   0.9220   age061_m42            0.0000     1.5691E-05    72.7558   3.2572   114.3909
  5      0.0000     0.0000E+00    0.0000E+00    1.000000E+07  0.00400  1.322E-02    0   0.8862   age070_m42            0.0000     1.7660E-05    76.6809   2.9704   116.9299
  6      0.0000     0.0000E+00    0.0000E+00    1.445000E+07  0.00400  7.883E-03    0   0.8571   age078_m42            0.0000     1.7894E-05    77.5336   3.2993   113.8729
  7      2.9556     5.6419E-03    9.0550E-03    2.512000E+07  0.00400  5.251E-03    0   0.8174   age090_m42            0.0000     1.8010E-05    77.0710   2.8397   117.6130
  8      0.0000     0.0000E+00    0.0000E+00    4.000000E+07  0.00400  3.649E-03    0   0.7851   age104_m42            0.0000     1.7425E-05    75.3215   2.6113   118.6798
  9      0.0000     0.0000E+00    0.0000E+00    5.500000E+07  0.00400  3.098E-03    0   0.7629   age110_m42            0.0000     1.6298E-05    73.7599   2.7635   118.8006
 10      0.0000     0.0000E+00    0.0000E+00    1.015200E+08  0.00400  2.228E-03    0   0.7207   age116_m42            0.0000     1.5568E-05    72.4858   2.7835   119.0788
 11      0.0000     0.0000E+00    0.0000E+00    2.861200E+08  0.00400  1.093E-03    0   0.6648   age125_m42            0.0000     1.5976E-05    70.9212   2.2003   123.0859
 12      0.0000     0.0000E+00    0.0000E+00    5.088000E+08  0.00400  6.597E-04    0   0.6365   age130_m42            0.0000     1.4563E-05    67.3779   2.1915   124.1866
 13      0.0000     0.0000E+00    0.0000E+00    1.434000E+09  0.00400  2.132E-04    0   0.5798   age139_m42            0.0000     1.2777E-05    59.0639   1.2269   126.5196
 14      0.0000     0.0000E+00    0.0000E+00    4.250000E+09  0.00400  5.895E-05    0   0.5377   age158_m42            0.0000     1.1234E-05    49.2262   0.7943   121.3906
 15      0.0000     0.0000E+00    0.0000E+00    7.500000E+09  0.00400  3.510E-05    0   0.5212   age171_m42            0.0000     1.0578E-05    45.8477   0.6064   120.6050
 16      0.0000     0.0000E+00    0.0000E+00    1.300000E+10  0.00400  2.005E-05    0   0.5034   age193_m42            0.0000     1.0104E-05    43.2811   0.4409   119.9670
 17      0.0000     0.0000E+00    0.0000E+00    1.800000E+10  0.00400  1.525E-05    0   0.4967   age213_m42            0.0000     1.0273E-05    43.7241   0.4183   119.4028
 18      0.0000     0.0000E+00    0.0000E+00    1.000000E+06  0.00800  1.238E-02    0   1.0000   age020_m52            0.0000     1.7252E-05    77.2148   4.0000   109.0178
 19      0.0000     0.0000E+00    0.0000E+00    3.160000E+06  0.00800  3.074E-02    0   0.9966   age045_m52            0.0000     1.6972E-05    75.4611   3.9881   107.4862
 20      0.0000     0.0000E+00    0.0000E+00    5.010000E+06  0.00800  2.668E-02    0   0.9443   age055_m52            0.0000     1.6595E-05    74.9285   3.7392   110.0991
 21      0.0000     0.0000E+00    0.0000E+00    6.610000E+06  0.00800  2.136E-02    0   0.9177   age061_m52            0.0000     1.6822E-05    71.9398   2.4775   118.0400
 22      0.0000     0.0000E+00    0.0000E+00    1.000000E+07  0.00800  1.215E-02    0   0.8827   age070_m52            0.0000     1.8633E-05    78.0575   3.1467   116.6960
 23      0.0000     0.0000E+00    0.0000E+00    1.445000E+07  0.00800  8.717E-03    0   0.8552   age078_m52            0.0000     1.7788E-05    77.0095   3.2632   115.5344
 24      0.0000     0.0000E+00    0.0000E+00    2.512000E+07  0.00800  5.592E-03    0   0.8162   age090_m52            0.0000     1.8103E-05    76.8059   2.9001   119.1204
 25      0.0000     0.0000E+00    0.0000E+00    4.000000E+07  0.00800  3.896E-03    0   0.7841   age104_m52            0.0000     1.7325E-05    74.8991   2.8092   120.2048
 26      0.0000     0.0000E+00    0.0000E+00    1.015200E+08  0.00800  2.148E-03    0   0.7226   age116_m52            0.0000     1.5961E-05    71.5260   2.7480   120.1040
 27      0.0000     0.0000E+00    0.0000E+00    2.861200E+08  0.00800  9.925E-04    0   0.6683   age125_m52            0.0000     1.4563E-05    67.1813   2.2550   125.4167
 28      0.0000     0.0000E+00    0.0000E+00    9.047900E+08  0.00800  3.141E-04    0   0.6138   age135_m52            0.0000     1.1977E-05    52.5020   1.4566   130.7386
 29      0.0000     0.0000E+00    0.0000E+00    1.434000E+09  0.00800  1.719E-04    0   0.5853   age139_m52            0.0000     1.1582E-05    51.0014   0.8788   127.9305
 30      0.0000     0.0000E+00    0.0000E+00    2.500000E+09  0.00800  7.872E-05    0   0.5600   age150_m52            0.0000     1.0018E-05    45.5119   0.6207   124.2744
 31      0.0000     0.0000E+00    0.0000E+00    4.250000E+09  0.00800  4.336E-05    0   0.5426   age158_m52            0.0000     9.9549E-06    44.0753   0.6057   123.1064
 32      0.0000     0.0000E+00    0.0000E+00    6.250000E+09  0.00800  3.159E-05    0   0.5319   age166_m52            0.0000     9.1404E-06    40.8416   0.4037   123.1743
 33      0.0000     0.0000E+00    0.0000E+00    1.300000E+10  0.00800  1.361E-05    0   0.5073   age193_m52            0.0000     8.3089E-06    37.3502  -0.0657   122.5252
 34      0.0000     0.0000E+00    0.0000E+00    1.800000E+10  0.00800  9.886E-06    0   0.4990   age213_m52            0.0000     7.7748E-06    35.1962  -0.1751   122.0507
 35      0.0000     0.0000E+00    0.0000E+00    1.000000E+06  0.02000  1.544E-02    0   1.0000   age020_m62            0.0000     1.7284E-05    77.1379   4.0000   109.1183
 36      0.0000     0.0000E+00    0.0000E+00    3.160000E+06  0.02000  3.762E-02    0   0.9858   age045_m62            0.0000     1.7148E-05    75.7197   4.0000   107.6941
 37      0.0000     0.0000E+00    0.0000E+00    5.010000E+06  0.02000  3.296E-02    0   0.9342   age055_m62            0.0000     1.5841E-05    73.5972   3.6135   112.6350
 38      0.0000     0.0000E+00    0.0000E+00    8.710000E+06  0.02000  1.154E-02    0   0.8861   age067_m62            0.0000     2.4954E-05    86.1678   2.5876   119.9807
 39      0.0000     0.0000E+00    0.0000E+00    1.445000E+07  0.02000  7.663E-03    0   0.8472   age078_m62            0.0000     2.0167E-05    79.1177   2.7863   119.4626
 40      0.0000     0.0000E+00    0.0000E+00    2.512000E+07  0.02000  4.532E-03    0   0.8099   age090_m62            0.0000     2.0530E-05    80.3829   2.7745   119.2703
 41      0.0000     0.0000E+00    0.0000E+00    5.500000E+07  0.02000  2.733E-03    0   0.7595   age110_m62            0.0000     1.7305E-05    75.5307   2.7931   119.2997
 42      0.0000     0.0000E+00    0.0000E+00    1.609000E+08  0.02000  1.369E-03    0   0.6985   age120_m62            0.0000     1.5467E-05    71.5833   2.6260   122.9912
 43      0.0000     0.0000E+00    0.0000E+00    2.861200E+08  0.02000  9.013E-04    0   0.6714   age125_m62            0.0000     1.4388E-05    67.6791   2.3725   126.7885
 44      0.0000     0.0000E+00    0.0000E+00    5.088000E+08  0.02000  5.028E-04    0   0.6449   age130_m62            0.0000     1.2383E-05    58.1454   1.9942   130.2930
 45      0.0000     0.0000E+00    0.0000E+00    9.047900E+08  0.02000  2.428E-04    0   0.6179   age135_m62            0.0000     1.0827E-05    49.0165   1.4095   129.5130
 46      0.0000     0.0000E+00    0.0000E+00    1.434000E+09  0.02000  1.263E-04    0   0.5908   age139_m62            0.0000     1.0171E-05    45.1279   0.9688   127.5146
 47      2.7485     4.6031E-01    5.1273E-01    2.500000E+09  0.02000  5.985E-05    0   0.5673   age150_m62            0.0000     9.1335E-06    41.2440   0.6055   125.7493
 48      0.0000     0.0000E+00    0.0000E+00    4.250000E+09  0.02000  3.271E-05    0   0.5468   age158_m62            0.0000     8.1604E-06    38.2338   0.3002   124.8051
 49      0.0000     0.0000E+00    0.0000E+00    1.000000E+10  0.02000  1.360E-05    0   0.5167   age181_m62            0.0000     7.3668E-06    34.3148  -0.0517   124.5685
 50      0.0000     0.0000E+00    0.0000E+00    1.800000E+10  0.02000  7.124E-06    0   0.5013   age213_m62            0.0000     7.0118E-06    32.4693  -0.2648   123.7766
 51      0.5068     1.9600E-04    3.8477E-04    1.000000E+06  0.05000  2.592E-02    0   0.9998   age020_m72            0.0000     1.7474E-05    77.0304   4.0000   108.8201
 52      0.0000     0.0000E+00    0.0000E+00    3.160000E+06  0.05000  4.845E-02    0   0.9577   age045_m72            0.0000     1.6521E-05    74.8591   3.8794   109.3072
 53      0.0000     0.0000E+00    0.0000E+00    5.010000E+06  0.05000  3.072E-02    0   0.9147   age055_m72            0.0000     1.9131E-05    78.3722   3.3710   114.9105
 54      0.0000     0.0000E+00    0.0000E+00    6.610000E+06  0.05000  1.455E-02    0   0.8877   age061_m72            0.0000     3.0427E-05    91.1665   2.5972   121.6740
 55      0.0000     0.0000E+00    0.0000E+00    1.000000E+07  0.05000  9.074E-03    0   0.8524   age070_m72            0.0000     2.0351E-05    80.0005   3.5314   115.0561
 56      0.0000     0.0000E+00    0.0000E+00    2.512000E+07  0.05000  4.250E-03    0   0.7902   age090_m72            0.0000     1.9150E-05    78.5793   3.2395   117.2439
 57      0.0000     0.0000E+00    0.0000E+00    4.000000E+07  0.05000  3.087E-03    0   0.7618   age104_m72            0.0000     1.9325E-05    78.6579   3.0097   119.2958
 58      0.0000     0.0000E+00    0.0000E+00    1.015200E+08  0.05000  1.700E-03    0   0.7096   age116_m72            0.0000     1.6525E-05    73.5235   2.7635   122.5704
 59      0.0000     0.0000E+00    0.0000E+00    2.861200E+08  0.05000  7.384E-04    0   0.6633   age125_m72            0.0000     1.3271E-05    63.2307   2.2387   128.6946
 60      3.0691     8.0553E-02    1.0078E-01    5.088000E+08  0.05000  3.819E-04    0   0.6372   age130_m72            0.0000     1.1241E-05    53.5931   1.7517   130.7073
 61     23.4621     1.4032E+00    1.6834E+00    9.047900E+08  0.05000  1.676E-04    0   0.6110   age135_m72            0.0000     9.2380E-06    43.4717   1.0623   128.2902
 62      7.7835     8.8287E-01    1.0183E+00    1.434000E+09  0.05000  8.837E-05    0   0.5874   age139_m72            0.0000     8.9176E-06    40.0499   0.6001   127.8477
 63     20.4229     4.8361E+00    5.3156E+00    2.500000E+09  0.05000  4.233E-05    0   0.5598   age150_m72            0.0000     7.9096E-06    37.0967   0.2970   126.0499
 64     33.1170     2.3132E+01    2.3841E+01    6.250000E+09  0.05000  1.435E-05    0   0.5249   age166_m72            0.0000     7.2753E-06    35.2127  -0.1511   124.1948
 65     12.0342     1.8521E+01    1.8313E+01    1.300000E+10  0.05000  6.513E-06    0   0.5036   age193_m72            0.0000     7.0244E-06    32.6190  -0.4334   125.4924
 66     22.8880     5.0678E+01    4.9205E+01    1.800000E+10  0.05000  4.527E-06    0   0.4945   age213_m72            0.0000     7.0366E-06    31.3585  -0.5965   125.3099


## Synthesis Results - Average & Chains ##

# j      x_j: min, <> & last-chain-values for 1 ...  7 chains
  1      0.0000      1.0748      0.0000      0.0741      0.1601      0.2123      0.0000      0.0000      0.0772
  2      0.0000      1.8192      0.1072      0.0000      0.0000      0.0562      0.0000      0.0000      0.0000
  3      0.0000      1.5131      0.1783      0.2369      0.1583      0.0520      0.9557      0.0000      0.0000
  4      0.0000      1.0658      0.1288      0.0000      0.0000      0.5180      0.1674      0.0000      0.1720
  5      0.0000      1.6071      0.0595      0.3390      0.6734      0.3339      1.0895      0.1906      0.8122
  6      0.0000      1.1261      0.4167      0.5171      0.0000      0.1558      0.2401      0.2823      0.2520
  7      2.9556      1.4729      0.1786      0.1988      0.4135      0.0000      0.3034      0.3892      0.4983
  8      0.0000      1.1593      0.0000      0.0000      0.0000      0.0000      0.0041      0.0375      0.1052
  9      0.0000      1.7226      0.5431      0.4269      0.2458      0.0000      0.3315      0.1955      0.0010
 10      0.0000      1.2250      0.4220      0.0000      0.0295      0.0000      0.0156      0.0000      0.0831
 11      0.0000      1.2766      0.4006      0.3584      0.1169      0.3271      0.0000      0.0838      0.0000
 12      0.0000      1.7328      0.0000      0.2078      0.0000      0.0000      0.0000      0.2308      0.0119
 13      0.0000      1.4280      0.2107      0.0582      0.1851      0.3331      0.0275      0.0000      0.0000
 14      0.0000      1.6175      0.2378      0.0000      0.0211      0.0000      0.0000      0.9183      0.0000
 15      0.0000      1.4706      0.3056      0.3049      0.0000      0.0000      0.0000      0.3889      0.0750
 16      0.0000      1.3368      0.0000      0.1903      0.1567      0.0000      0.2090      0.0167      0.0000
 17      0.0000      1.3955      0.3426      0.0000      0.1575      0.0000      0.0000      1.1392      0.1895
 18      0.0000      1.2927      1.3430      0.3816      0.3270      0.2204      0.7205      0.6768      0.4713
 19      0.0000      1.4545      0.0000      0.3731      0.0000      0.0760      0.0450      0.0000      0.0000
 20      0.0000      1.5030      0.9793      0.0000      0.5325      0.1833      0.1744      0.1286      0.0000
 21      0.0000      1.2581      0.0747      0.0000      0.0000      0.0000      0.0595      0.1607      0.0000
 22      0.0000      1.2361      0.3479      0.0000      0.5466      0.1183      0.0878      0.0000      0.2535
 23      0.0000      1.2334      0.1462      0.0000      0.2192      0.0000      0.3404      0.2718      0.1657
 24      0.0000      1.4758      0.2157      0.0187      0.0000      0.0114      0.0297      0.0000      0.0000
 25      0.0000      1.7899      0.2024      0.0000      0.0000      0.0000      0.0000      0.0000      0.1293
 26      0.0000      1.5768      0.3917      0.1325      0.0000      0.5435      0.2008      0.5968      0.0000
 27      0.0000      2.3566      0.3215      0.0000      0.0000      0.0000      0.0000      0.3990      0.1139
 28      0.0000      1.4229      0.4749      0.0000      0.0117      0.0000      0.0000      0.0806      0.0000
 29      0.0000      1.1478      0.0000      0.0186      0.2477      0.1527      0.0392      0.0000      0.0362
 30      0.0000      0.9568      0.3826      0.4292      0.0573      0.1415      0.0000      0.0489      0.0000
 31      0.0000      1.3152      0.0000      0.0000      0.0000      0.5524      0.0000      0.0007      0.0000
 32      0.0000      1.2364      0.1962      0.0000      0.0818      0.0000      0.0000      0.4145      0.0049
 33      0.0000      1.3581      0.5596      0.0000      0.0000      0.1276      0.0000      0.0000      0.0218
 34      0.0000      1.6665      0.9018      0.0214      0.0000      0.0000      0.0000      0.3841      0.3832
 35      0.0000      1.7479      0.4263      0.5826      0.7828      0.9768      1.0465      0.0000      1.1412
 36      0.0000      1.3728      0.0000      0.1970      0.0000      0.0000      0.0568      0.2134      0.1539
 37      0.0000      1.5120      0.2082      0.0000      0.4362      0.0198      0.3565      0.0000      0.6192
 38      0.0000      1.6547      0.1478      0.0000      0.0000      0.3432      0.0688      0.0000      0.2672
 39      0.0000      1.9496      0.2764      0.0000      0.6855      0.1787      0.2534      0.0000      0.0406
 40      0.0000      1.3270      0.3306      1.3716      0.5844      0.3602      0.5830      0.6961      0.4548
 41      0.0000      1.5668      1.3959      2.1613      1.5947      1.3353      1.5527      1.5573      2.1864
 42      0.0000      1.5604      0.0000      0.2201      0.2318      0.1675      0.3251      0.2076      0.1493
 43      0.0000      1.2583      0.5951      0.3326      0.5649      0.0865      0.0000      0.1289      0.1498
 44      0.0000      1.3504      0.0000      0.6457      0.4647      0.6484      0.0000      0.0000      0.0458
 45      0.0000      1.2618      0.0378      0.2532      0.0190      0.0000      0.0000      0.0940      0.0199
 46      0.0000      1.3334      0.1691      0.0000      0.3444      0.0610      0.0000      0.2011      0.0000
