###################################################################
## OUTPUT of StarlightChains_v04.for    [Cid@UFSC - 01/Apr/2007] ##
###################################################################

## Some input info
KUG0210-078._33_28.txt                   [arq_obs]
Base.CB07.vall.4m                        [arq_base]
Masks.EmLines.NEW.gm                     [arq_masks]
StCv04.C11.config                        [arq_config]
   66                                    [N_base]
    0                                    [N_YAV_components = # of components with extra extinction!]
    0                                    [i_FitPowerLaw (1/0 = Yes/No)]
-9.99                                    [alpha_PowerLaw]
CCM                                      [red_law_option]
 1.458241                                [q_norm = A(l_norm)/A(V)]

## (Re)Sampling Parameters
 3741.00                                 [l_ini (A)]
 7218.00                                 [l_fin (A)]
    1.00                                 [dl    (A)]     (OBS: dl_cushion =    50.00 A)

## Normalization info
 4020.00                                 [l_norm (A) - for base]
 4010.00                                 [llow_norm (A) - window for f_obs]
 4060.00                                 [lupp_norm (A) - window for f_obs]
3.090218E-17                             [fobs_norm (in input units)]

## S/N
 3691.00                                 [llow_SN (A) - window for S/N]
 7268.00                                 [lupp_SN (A) - window for S/N]
   4.680                                 [S/N in S/N window]
   5.378                                 [S/N in norm. window]
   0.039                                 [S/N_err in S/N window]
   0.045                                 [S/N_err in norm. window]
  1.0000                                 [fscale_chi2]

## etc...
    -2007503                             [idum_orig]
  2432                                   [NOl_eff]
  2126                                   [Nl_eff]
   306    NSIGMA                         [Ntot_cliped & clip_method]
 10563210                                [Nglobal_steps]
   7                                     [N_chains]
  43                                     [NEX0s_base = N_base in EX0s-fits]
 0   0   1      306   2.0   2.401E+04    [Clip-Bug, RC-Crash & Burn-In warning-flags, n_censored_weights, wei_nsig_threshold & wei_limit]
    91     90.652     89.963      0.690  [idt_all, wdt_TotTime, wdt_UsrTime & wdt_SysTime (sec)]

## Synthesis Results - Best model ##

 9.70721E-06                             [chi2/Nl_eff]
     4.39406                             [adev (%)]

   121.85703                             [sum-of-x (%)]
 9.82977E-18                             [Flux_tot (units of input spectrum!)]
 6.91062E-13                             [Mini_tot (???)]
 3.46601E-13                             [Mcor_tot (???)]

  16.88                                  [v0_min  (km/s)]
 218.73                                  [vd_min  (km/s)]
-1.0000                                  [AV_min  (mag)]
 0.0000                                  [YAV_min (mag)]

# j     x_j(%)      Mini_j(%)     Mcor_j(%)     age_j(yr)     Z_j      (L/M)_j    YAV?  Mstars   component_j        a/Fe...       SSP_chi2r SSP_adev(%)   SSP_AV   SSP_x(%)
  1      0.0000     0.0000E+00    0.0000E+00    1.000000E+06  0.00400  1.094E-02    0   1.0000   age020_m42            0.0000     1.8671E-05     6.1424   2.3222   109.8261
  2      2.3316     6.7923E-04    1.3541E-03    3.160000E+06  0.00400  4.007E-02    0   0.9999   age045_m42            0.0000     2.0093E-05     5.7954   1.6740   113.7435
  3      0.0000     0.0000E+00    0.0000E+00    5.010000E+06  0.00400  2.539E-02    0   0.9488   age055_m42            0.0000     1.8868E-05     5.8579   1.9600   112.5520
  4      0.0000     0.0000E+00    0.0000E+00    6.610000E+06  0.00400  2.620E-02    0   0.9220   age061_m42            0.0000     1.9196E-05     5.6582   1.6060   113.8512
  5      0.0000     0.0000E+00    0.0000E+00    1.000000E+07  0.00400  1.322E-02    0   0.8862   age070_m42            0.0000     1.7704E-05     5.4481   1.3268   116.8819
  6      0.0000     0.0000E+00    0.0000E+00    1.445000E+07  0.00400  7.883E-03    0   0.8571   age078_m42            0.0000     1.7693E-05     5.5128   1.6334   114.7532
  7      1.5115     3.3599E-03    5.4759E-03    2.512000E+07  0.00400  5.251E-03    0   0.8174   age090_m42            0.0000     1.7755E-05     5.5211   1.2063   117.2564
  8      0.0000     0.0000E+00    0.0000E+00    4.000000E+07  0.00400  3.649E-03    0   0.7851   age104_m42            0.0000     1.7615E-05     5.4504   0.9911   117.5824
  9      0.1567     5.9047E-04    8.9816E-04    5.500000E+07  0.00400  3.098E-03    0   0.7629   age110_m42            0.0000     1.8901E-05     5.4392   1.1523   116.8733
 10      0.0018     9.5014E-06    1.3653E-05    1.015200E+08  0.00400  2.228E-03    0   0.7207   age116_m42            0.0000     1.9493E-05     5.4515   1.1797   116.5421
 11      0.0000     0.0000E+00    0.0000E+00    2.861200E+08  0.00400  1.093E-03    0   0.6648   age125_m42            0.0000     1.9243E-05     5.7600   0.6347   118.9621
 12      0.0000     0.0000E+00    0.0000E+00    5.088000E+08  0.00400  6.597E-04    0   0.6365   age130_m42            0.0000     1.9536E-05     5.5226   0.6371   119.0654
 13      0.8829     4.8342E-02    5.5884E-02    1.434000E+09  0.00400  2.132E-04    0   0.5798   age139_m42            0.0000     1.4781E-05     4.7524  -0.3020   119.8105
 14      0.0000     0.0000E+00    0.0000E+00    4.250000E+09  0.00400  5.895E-05    0   0.5377   age158_m42            0.0000     1.1215E-05     4.5660  -0.7563   115.3291
 15      0.3093     1.0286E-01    1.0689E-01    7.500000E+09  0.00400  3.510E-05    0   0.5212   age171_m42            0.0000     1.0725E-05     4.5909  -0.9416   114.2275
 16      0.0000     0.0000E+00    0.0000E+00    1.300000E+10  0.00400  2.005E-05    0   0.5034   age193_m42            0.0000     1.1418E-05     4.6273  -1.0000   110.2861
 17      0.0000     0.0000E+00    0.0000E+00    1.800000E+10  0.00400  1.525E-05    0   0.4967   age213_m42            0.0000     1.1785E-05     4.7866  -1.0000   109.1698
 18      0.0000     0.0000E+00    0.0000E+00    1.000000E+06  0.00800  1.238E-02    0   1.0000   age020_m52            0.0000     1.8743E-05     6.1481   2.3172   110.0907
 19      0.0000     0.0000E+00    0.0000E+00    3.160000E+06  0.00800  3.074E-02    0   0.9966   age045_m52            0.0000     1.8678E-05     6.1056   2.2455   110.8423
 20      0.0000     0.0000E+00    0.0000E+00    5.010000E+06  0.00800  2.668E-02    0   0.9443   age055_m52            0.0000     1.8279E-05     5.8192   2.0317   112.0538
 21     11.8938     6.4997E-03    1.1893E-02    6.610000E+06  0.00800  2.136E-02    0   0.9177   age061_m52            0.0000     1.4576E-05     5.0212   0.8249   118.2755
 22      0.0865     8.3147E-05    1.4633E-04    1.000000E+07  0.00800  1.215E-02    0   0.8827   age070_m52            0.0000     1.7678E-05     5.5872   1.4973   117.1893
 23      0.7724     1.0343E-03    1.7636E-03    1.445000E+07  0.00800  8.717E-03    0   0.8552   age078_m52            0.0000     1.7647E-05     5.4427   1.6069   116.0212
 24      0.0000     0.0000E+00    0.0000E+00    2.512000E+07  0.00800  5.592E-03    0   0.8162   age090_m52            0.0000     1.8051E-05     5.5737   1.2757   118.3950
 25      0.0651     1.9495E-04    3.0478E-04    4.000000E+07  0.00800  3.896E-03    0   0.7841   age104_m52            0.0000     1.8349E-05     5.5847   1.2017   118.4411
 26      3.7375     2.0311E-02    2.9262E-02    1.015200E+08  0.00800  2.148E-03    0   0.7226   age116_m52            0.0000     1.8167E-05     5.4573   1.1537   117.2813
 27      0.0000     0.0000E+00    0.0000E+00    2.861200E+08  0.00800  9.925E-04    0   0.6683   age125_m52            0.0000     1.8752E-05     5.4445   0.7006   120.2728
 28      0.0000     0.0000E+00    0.0000E+00    9.047900E+08  0.00800  3.141E-04    0   0.6138   age135_m52            0.0000     1.6813E-05     5.0675  -0.0539   122.5733
 29      0.0649     4.4077E-03    5.1438E-03    1.434000E+09  0.00800  1.719E-04    0   0.5853   age139_m52            0.0000     1.2418E-05     4.8021  -0.6486   120.6677
 30      0.0000     0.0000E+00    0.0000E+00    2.500000E+09  0.00800  7.872E-05    0   0.5600   age150_m52            0.0000     1.0805E-05     4.6091  -0.9206   117.2350
 31      0.0000     0.0000E+00    0.0000E+00    4.250000E+09  0.00800  4.336E-05    0   0.5426   age158_m52            0.0000     1.0658E-05     4.6416  -0.9357   116.0799
 32      0.0000     0.0000E+00    0.0000E+00    6.250000E+09  0.00800  3.159E-05    0   0.5319   age166_m52            0.0000     1.1541E-05     4.6582  -1.0000   111.5460
 33     11.5792     9.9311E+00    1.0045E+01    1.300000E+10  0.00800  1.361E-05    0   0.5073   age193_m52            0.0000     3.2963E-05    11.1619  -1.0000    96.1173
 34      0.0000     0.0000E+00    0.0000E+00    1.800000E+10  0.00800  9.886E-06    0   0.4990   age213_m52            0.0000     4.2212E-05    12.7532  -1.0000    92.1309
 35      0.0000     0.0000E+00    0.0000E+00    1.000000E+06  0.02000  1.544E-02    0   1.0000   age020_m62            0.0000     1.8785E-05     6.1635   2.3104   110.4716
 36      0.0000     0.0000E+00    0.0000E+00    3.160000E+06  0.02000  3.762E-02    0   0.9858   age045_m62            0.0000     1.8902E-05     6.1794   2.2469   111.5359
 37      0.0000     0.0000E+00    0.0000E+00    5.010000E+06  0.02000  3.296E-02    0   0.9342   age055_m62            0.0000     1.9089E-05     5.8214   1.9284   113.4764
 38      4.8710     4.9270E-03    8.7047E-03    8.710000E+06  0.02000  1.154E-02    0   0.8861   age067_m62            0.0000     1.8704E-05     6.9782   0.9282   123.0399
 39      0.5059     7.7069E-04    1.3018E-03    1.445000E+07  0.02000  7.663E-03    0   0.8472   age078_m62            0.0000     1.7459E-05     5.9630   1.1464   120.1101
 40      0.0000     0.0000E+00    0.0000E+00    2.512000E+07  0.02000  4.532E-03    0   0.8099   age090_m62            0.0000     1.7660E-05     6.1702   1.1450   119.5319
 41      0.8131     3.4730E-03    5.2592E-03    5.500000E+07  0.02000  2.733E-03    0   0.7595   age110_m62            0.0000     1.7020E-05     5.4325   1.1752   118.0476
 42      0.0591     5.0373E-04    7.0154E-04    1.609000E+08  0.02000  1.369E-03    0   0.6985   age120_m62            0.0000     1.8490E-05     5.3808   1.0414   119.5828
 43      0.0000     0.0000E+00    0.0000E+00    2.861200E+08  0.02000  9.013E-04    0   0.6714   age125_m62            0.0000     1.9612E-05     5.2706   0.8125   121.8089
 44      4.3195     1.0028E-01    1.2894E-01    5.088000E+08  0.02000  5.028E-04    0   0.6449   age130_m62            0.0000     2.0287E-05     5.1333   0.4615   123.2032
 45      0.0000     0.0000E+00    0.0000E+00    9.047900E+08  0.02000  2.428E-04    0   0.6179   age135_m62            0.0000     1.4630E-05     4.7427  -0.1119   121.5037
 46     13.4843     1.2462E+00    1.4680E+00    1.434000E+09  0.02000  1.263E-04    0   0.5908   age139_m62            0.0000     1.1569E-05     4.5652  -0.5604   119.7654
 47      0.1341     2.6162E-02    2.9592E-02    2.500000E+09  0.02000  5.985E-05    0   0.5673   age150_m62            0.0000     1.0825E-05     4.7459  -0.9369   118.2529
 48      0.0000     0.0000E+00    0.0000E+00    4.250000E+09  0.02000  3.271E-05    0   0.5468   age158_m62            0.0000     1.4653E-05     5.3710  -1.0000   109.4115
 49      0.0000     0.0000E+00    0.0000E+00    1.000000E+10  0.02000  1.360E-05    0   0.5167   age181_m62            0.0000     3.3602E-05    10.3050  -1.0000    97.7050
 50     33.7940     5.5372E+01    5.5345E+01    1.800000E+10  0.02000  7.124E-06    0   0.5013   age213_m62            0.0000     5.3590E-05    13.5911  -1.0000    90.2352
 51      0.0000     0.0000E+00    0.0000E+00    1.000000E+06  0.05000  2.592E-02    0   0.9998   age020_m72            0.0000     1.8836E-05     6.1758   2.2957   110.8102
 52      7.0795     1.7056E-03    3.2569E-03    3.160000E+06  0.05000  4.845E-02    0   0.9577   age045_m72            0.0000     1.8870E-05     6.0828   2.1523   111.9477
 53      8.1123     3.0825E-03    5.6217E-03    5.010000E+06  0.05000  3.072E-02    0   0.9147   age055_m72            0.0000     1.7891E-05     6.0412   1.7006   116.3150
 54      0.0000     0.0000E+00    0.0000E+00    6.610000E+06  0.05000  1.455E-02    0   0.8877   age061_m72            0.0000     2.5719E-05     9.6813   0.9527   125.0872
 55      0.0000     0.0000E+00    0.0000E+00    1.000000E+07  0.05000  9.074E-03    0   0.8524   age070_m72            0.0000     2.0447E-05     7.2740   1.8722   116.0584
 56      0.0000     0.0000E+00    0.0000E+00    2.512000E+07  0.05000  4.250E-03    0   0.7902   age090_m72            0.0000     1.9442E-05     6.5167   1.6147   116.5994
 57      1.5992     6.0469E-03    9.1846E-03    4.000000E+07  0.05000  3.087E-03    0   0.7618   age104_m72            0.0000     1.9880E-05     6.6219   1.4022   117.9684
 58      0.0000     0.0000E+00    0.0000E+00    1.015200E+08  0.05000  1.700E-03    0   0.7096   age116_m72            0.0000     1.9106E-05     5.6952   1.1811   119.3401
 59      0.0000     0.0000E+00    0.0000E+00    2.861200E+08  0.05000  7.384E-04    0   0.6633   age125_m72            0.0000     1.9693E-05     5.1545   0.6961   122.4166
 60      0.0000     0.0000E+00    0.0000E+00    5.088000E+08  0.05000  3.819E-04    0   0.6372   age130_m72            0.0000     1.6786E-05     4.7535   0.2203   123.1657
 61      0.0082     5.7450E-04    6.9988E-04    9.047900E+08  0.05000  1.676E-04    0   0.6110   age135_m72            0.0000     1.2450E-05     4.7962  -0.4752   120.3981
 62      0.0000     0.0000E+00    0.0000E+00    1.434000E+09  0.05000  8.837E-05    0   0.5874   age139_m72            0.0000     1.1089E-05     4.7481  -0.9277   119.4470
 63      0.1496     4.1255E-02    4.6046E-02    2.500000E+09  0.05000  4.233E-05    0   0.5598   age150_m72            0.0000     1.5518E-05     5.4278  -1.0000   110.2619
 64      0.0000     0.0000E+00    0.0000E+00    6.250000E+09  0.05000  1.435E-05    0   0.5249   age166_m72            0.0000     4.2289E-05    11.8690  -1.0000    94.2354
 65      2.3188     4.1559E+00    4.1729E+00    1.300000E+10  0.05000  6.513E-06    0   0.5036   age193_m72            0.0000     7.4296E-05    16.2292  -1.0000    86.1756
 66     11.2149     2.8918E+01    2.8511E+01    1.800000E+10  0.05000  4.527E-06    0   0.4945   age213_m72            0.0000     9.7402E-05    18.5025  -1.0000    80.9319


## Synthesis Results - Average & Chains ##

# j      x_j: min, <> & last-chain-values for 1 ...  7 chains
  1      0.0000      0.1929      0.1836      0.0965      1.0050      1.2968      0.4209      0.6763      1.0588
  2      2.3316      0.1953      0.4490      0.1452      0.7735      0.8615      0.0000      0.1168      0.5534
  3      0.0000      0.2014      0.1073      0.1380      0.1308      0.3205      0.4787      0.1738      0.0471
  4      0.0000      0.2505      0.8743      0.0083      0.0000      1.0872      0.6117      0.1194      0.1692
  5      0.0000      0.1632      0.0000      0.0915      0.7662      0.4544      0.0000      0.1697      0.0000
  6      0.0000      0.2104      0.5524      0.3834      0.2299      1.1134      0.6988      0.4061      0.0168
  7      1.5115      0.2278      0.4712      0.3048      0.8198      0.1728      0.0000      0.6624      0.0000
  8      0.0000      0.2702      0.0000      0.2462      0.7622      1.0243      0.4897      0.3531      0.0000
  9      0.1567      0.2235      1.8400      0.6989      0.0000      0.0000      0.0000      1.4688      0.0000
 10      0.0018      0.1765      1.3979      0.4805      0.0000      1.5984      0.1678      0.0000      0.0000
 11      0.0000      0.3217      0.0000      0.2208      0.4115      1.3566      0.6692      0.0162      1.2985
 12      0.0000      0.3391      0.0000      0.0000      0.5345      1.1766      1.0804      0.7410      2.0423
 13      0.8829      0.2628      1.3440      0.1698      0.7201      0.1137      0.8872      0.0000      0.3984
 14      0.0000      0.1570      0.0000      0.5257      0.7721      0.4728      0.0000      0.0000      0.3216
 15      0.3093      0.2662      0.4629      0.0000      0.2787      0.4756      0.1392      1.1806      0.1168
 16      0.0000      0.1660      0.0000      0.1437      0.1280      0.5541      1.0526      0.5085      0.1253
 17      0.0000      0.2449      1.3899      2.5504      0.3360      0.0358      0.7129      0.0100      0.0450
 18      0.0000      0.3233      1.7263      1.6070      0.4644      1.8803      0.8289      0.7400      1.5032
 19      0.0000      0.2468      0.1893      1.0457      0.0000      0.0000      0.1923      2.0019      0.0000
 20      0.0000      0.2440      0.3268      0.8852      0.0000      0.0000      0.9886      0.6049      1.0929
 21     11.8938      0.3109      1.2388      0.4397      1.1089      0.5520      0.9456      0.5350      1.1386
 22      0.0865      0.2166      1.6875      0.1033      0.3802      1.2016      0.0368      0.7092      0.2283
 23      0.7724      0.3415      0.3260      0.7937      3.0986      0.0000      0.3552      0.5500      0.4731
 24      0.0000      0.2054      0.0024      0.0985      1.6664      0.6356      0.7371      0.8389      0.6101
 25      0.0651      0.3097      0.4128      0.5822      0.5505      1.4214      1.4689      0.0000      0.6223
 26      3.7375      0.2344      1.3356      0.6469      0.1065      0.0000      1.2081      0.0406      0.9590
 27      0.0000      0.2545      0.2092      1.1858      0.7039      1.7448      0.5880      0.0000      0.1308
 28      0.0000      0.2258      0.2154      1.3191      1.2344      1.0213      1.1880      0.0000      0.0000
 29      0.0649      0.2410      0.6225      3.3450      1.3122      0.5202      1.0535      0.0498      0.0000
 30      0.0000      0.2294      1.1309      0.4996      0.1885      1.3209      0.8071      0.3080      0.4441
 31      0.0000      0.2132      0.0000      0.5751      2.0613      0.0442      0.0000      0.0000      0.3882
 32      0.0000      0.1820      0.3019      0.9802      0.0000      0.0000      1.0741      1.3943      0.0217
 33     11.5792      0.2234      0.9322      0.0702      0.5531      0.0000      0.5907      0.3169      0.4775
 34      0.0000      0.2341      0.2870      0.4884      0.0000      0.6886      0.7907      0.0000      0.3660
 35      0.0000      0.3349      0.0000      0.7839      1.9148      0.0000      0.6767      0.9257      2.0238
 36      0.0000      0.2872      1.4868      1.3260      0.1928      0.0000      0.5327      1.4016      0.0000
 37      0.0000      0.3213      2.6495      0.3678      0.6161      0.6915      0.2907      0.8994      0.2131
 38      4.8710      0.2153      0.4811      0.0000      0.1798      0.3119      0.3367      1.1004      0.0000
 39      0.5059      0.2446      2.2502      0.7483      0.4606      0.0000      0.2658      0.2738      0.0000
 40      0.0000      0.3319      0.1847      0.0512      0.1493      1.5034      1.9474      0.6242      1.6553
 41      0.8131      0.1626      0.3701      0.3208      0.3139      0.1778      0.0000      0.6093      0.2789
 42      0.0591      0.1738      1.1060      0.5861      0.0000      0.4287      0.6724      0.0803      0.5730
 43      0.0000      0.2284      0.8048      0.3225      0.8532      0.6029      0.9694      0.1929      0.3766
 44      4.3195     10.6204      8.3814     10.2812      7.0945      8.4584     10.5971      8.9446      7.6141
 45      0.0000      0.2559      0.7470      1.0241      1.6897      0.0000      1.8508      1.6408      0.2118
 46     13.4843      0.2485      1.4376      1.3637      0.0000      0.0000      1.0273      0.2959      0.8531
