###################################################################
## OUTPUT of StarlightChains_v04.for    [Cid@UFSC - 01/Apr/2007] ##
###################################################################

## Some input info
KUG0210-078._37_43.txt                   [arq_obs]
Base.CB07.vall.4m                        [arq_base]
Masks.EmLines.NEW.gm                     [arq_masks]
StCv04.C11.config                        [arq_config]
   66                                    [N_base]
    0                                    [N_YAV_components = # of components with extra extinction!]
    0                                    [i_FitPowerLaw (1/0 = Yes/No)]
-9.99                                    [alpha_PowerLaw]
CCM                                      [red_law_option]
 1.458241                                [q_norm = A(l_norm)/A(V)]

## (Re)Sampling Parameters
 3741.00                                 [l_ini (A)]
 7218.00                                 [l_fin (A)]
    1.00                                 [dl    (A)]     (OBS: dl_cushion =    50.00 A)

## Normalization info
 4020.00                                 [l_norm (A) - for base]
 4010.00                                 [llow_norm (A) - window for f_obs]
 4060.00                                 [lupp_norm (A) - window for f_obs]
1.614306E-17                             [fobs_norm (in input units)]

## S/N
 3691.00                                 [llow_SN (A) - window for S/N]
 7268.00                                 [lupp_SN (A) - window for S/N]
   5.301                                 [S/N in S/N window]
   5.526                                 [S/N in norm. window]
   0.019                                 [S/N_err in S/N window]
   0.019                                 [S/N_err in norm. window]
  1.0000                                 [fscale_chi2]

## etc...
    -2007637                             [idum_orig]
  2431                                   [NOl_eff]
  2389                                   [Nl_eff]
    42    NSIGMA                         [Ntot_cliped & clip_method]
  8032570                                [Nglobal_steps]
   7                                     [N_chains]
  34                                     [NEX0s_base = N_base in EX0s-fits]
 0   0   1       42   2.0   4.416E+03    [Clip-Bug, RC-Crash & Burn-In warning-flags, n_censored_weights, wei_nsig_threshold & wei_limit]
    71     68.900     68.197      0.703  [idt_all, wdt_TotTime, wdt_UsrTime & wdt_SysTime (sec)]

## Synthesis Results - Best model ##

 1.96208E-05                             [chi2/Nl_eff]
    20.91297                             [adev (%)]

   102.47289                             [sum-of-x (%)]
 1.71157E-17                             [Flux_tot (units of input spectrum!)]
 4.61718E-13                             [Mini_tot (???)]
 2.40278E-13                             [Mcor_tot (???)]

-244.31                                  [v0_min  (km/s)]
  34.53                                  [vd_min  (km/s)]
 0.0254                                  [AV_min  (mag)]
 0.0000                                  [YAV_min (mag)]

# j     x_j(%)      Mini_j(%)     Mcor_j(%)     age_j(yr)     Z_j      (L/M)_j    YAV?  Mstars   component_j        a/Fe...       SSP_chi2r SSP_adev(%)   SSP_AV   SSP_x(%)
  1      0.0000     0.0000E+00    0.0000E+00    1.000000E+06  0.00400  1.094E-02    0   1.0000   age020_m42            0.0000     2.9719E-05    28.1207   3.3075    82.7829
  2      0.0000     0.0000E+00    0.0000E+00    3.160000E+06  0.00400  4.007E-02    0   0.9999   age045_m42            0.0000     2.5187E-05    25.8594   2.5543    89.1799
  3      0.0000     0.0000E+00    0.0000E+00    5.010000E+06  0.00400  2.539E-02    0   0.9488   age055_m42            0.0000     2.7370E-05    27.0264   2.8914    86.5342
  4      0.0000     0.0000E+00    0.0000E+00    6.610000E+06  0.00400  2.620E-02    0   0.9220   age061_m42            0.0000     2.5301E-05    25.8231   2.4857    89.2084
  5      0.0000     0.0000E+00    0.0000E+00    1.000000E+07  0.00400  1.322E-02    0   0.8862   age070_m42            0.0000     2.6689E-05    27.1929   2.2469    89.8058
  6      0.0000     0.0000E+00    0.0000E+00    1.445000E+07  0.00400  7.883E-03    0   0.8571   age078_m42            0.0000     2.7888E-05    27.7861   2.5757    87.4942
  7      0.0000     0.0000E+00    0.0000E+00    2.512000E+07  0.00400  5.251E-03    0   0.8174   age090_m42            0.0000     2.6745E-05    27.3548   2.1235    90.1136
  8      0.0000     0.0000E+00    0.0000E+00    4.000000E+07  0.00400  3.649E-03    0   0.7851   age104_m42            0.0000     2.5783E-05    26.7183   1.8846    91.1947
  9      0.0000     0.0000E+00    0.0000E+00    5.500000E+07  0.00400  3.098E-03    0   0.7629   age110_m42            0.0000     2.4616E-05    25.5358   2.0139    91.9258
 10      0.0000     0.0000E+00    0.0000E+00    1.015200E+08  0.00400  2.228E-03    0   0.7207   age116_m42            0.0000     2.3877E-05    24.6527   2.0193    92.5485
 11      0.0000     0.0000E+00    0.0000E+00    2.861200E+08  0.00400  1.093E-03    0   0.6648   age125_m42            0.0000     2.3276E-05    24.4551   1.4530    95.0427
 12     10.1683     5.5758E-01    6.8198E-01    5.088000E+08  0.00400  6.597E-04    0   0.6365   age130_m42            0.0000     2.2067E-05    22.9908   1.4169    96.6792
 13      0.0000     0.0000E+00    0.0000E+00    1.434000E+09  0.00400  2.132E-04    0   0.5798   age139_m42            0.0000     2.0090E-05    21.7024   0.4263    99.1815
 14      7.0500     4.3263E+00    4.4701E+00    4.250000E+09  0.00400  5.895E-05    0   0.5377   age158_m42            0.0000     2.0703E-05    22.0822  -0.0336    95.9035
 15      0.0000     0.0000E+00    0.0000E+00    7.500000E+09  0.00400  3.510E-05    0   0.5212   age171_m42            0.0000     2.0934E-05    21.7027  -0.2346    95.5896
 16      0.0000     0.0000E+00    0.0000E+00    1.300000E+10  0.00400  2.005E-05    0   0.5034   age193_m42            0.0000     2.1328E-05    21.4912  -0.4102    95.3071
 17      0.4527     1.0738E+00    1.0249E+00    1.800000E+10  0.00400  1.525E-05    0   0.4967   age213_m42            0.0000     2.1347E-05    21.6915  -0.4303    94.8087
 18      0.0000     0.0000E+00    0.0000E+00    1.000000E+06  0.00800  1.238E-02    0   1.0000   age020_m52            0.0000     2.9736E-05    28.1417   3.3016    82.9890
 19      0.0000     0.0000E+00    0.0000E+00    3.160000E+06  0.00800  3.074E-02    0   0.9966   age045_m52            0.0000     2.9526E-05    28.0929   3.2260    83.7166
 20      0.0000     0.0000E+00    0.0000E+00    5.010000E+06  0.00800  2.668E-02    0   0.9443   age055_m52            0.0000     2.8080E-05    27.4271   2.9786    85.6436
 21      0.0000     0.0000E+00    0.0000E+00    6.610000E+06  0.00800  2.136E-02    0   0.9177   age061_m52            0.0000     2.6237E-05    27.0105   1.7449    90.9166
 22      0.0000     0.0000E+00    0.0000E+00    1.000000E+07  0.00800  1.215E-02    0   0.8827   age070_m52            0.0000     2.7851E-05    28.0461   2.4397    89.1897
 23      0.0000     0.0000E+00    0.0000E+00    1.445000E+07  0.00800  8.717E-03    0   0.8552   age078_m52            0.0000     2.7440E-05    27.5940   2.5396    88.7556
 24      0.0000     0.0000E+00    0.0000E+00    2.512000E+07  0.00800  5.592E-03    0   0.8162   age090_m52            0.0000     2.6579E-05    27.2979   2.1856    91.2010
 25      0.0000     0.0000E+00    0.0000E+00    4.000000E+07  0.00800  3.896E-03    0   0.7841   age104_m52            0.0000     2.5477E-05    26.4507   2.0828    92.3375
 26      0.0000     0.0000E+00    0.0000E+00    1.015200E+08  0.00800  2.148E-03    0   0.7226   age116_m52            0.0000     2.4160E-05    25.1595   1.9970    92.9373
 27      0.0000     0.0000E+00    0.0000E+00    2.861200E+08  0.00800  9.925E-04    0   0.6683   age125_m52            0.0000     2.2059E-05    22.7780   1.4804    97.6242
 28     22.8322     2.6296E+00    3.1015E+00    9.047900E+08  0.00800  3.141E-04    0   0.6138   age135_m52            0.0000     1.9790E-05    20.8692   0.6363   103.0217
 29      0.0000     0.0000E+00    0.0000E+00    1.434000E+09  0.00800  1.719E-04    0   0.5853   age139_m52            0.0000     1.9935E-05    21.6854   0.0594   100.7041
 30      4.4277     2.0347E+00    2.1895E+00    2.500000E+09  0.00800  7.872E-05    0   0.5600   age150_m52            0.0000     2.0309E-05    21.2046  -0.2365    98.9100
 31      0.0000     0.0000E+00    0.0000E+00    4.250000E+09  0.00800  4.336E-05    0   0.5426   age158_m52            0.0000     2.0691E-05    21.3481  -0.2510    97.9528
 32      9.8806     1.1315E+01    1.1565E+01    6.250000E+09  0.00800  3.159E-05    0   0.5319   age166_m52            0.0000     2.0980E-05    20.8151  -0.4769    98.6114
 33      0.0000     0.0000E+00    0.0000E+00    1.300000E+10  0.00800  1.361E-05    0   0.5073   age193_m52            0.0000     2.1857E-05    20.0222  -0.9737    98.7132
 34      0.0000     0.0000E+00    0.0000E+00    1.800000E+10  0.00800  9.886E-06    0   0.4990   age213_m52            0.0000     2.2864E-05    18.9604  -1.0000    96.5485
 35      0.0000     0.0000E+00    0.0000E+00    1.000000E+06  0.02000  1.544E-02    0   1.0000   age020_m62            0.0000     2.9909E-05    28.2698   3.3016    83.0992
 36      0.0000     0.0000E+00    0.0000E+00    3.160000E+06  0.02000  3.762E-02    0   0.9858   age045_m62            0.0000     2.9965E-05    28.3043   3.2384    83.8624
 37      0.0000     0.0000E+00    0.0000E+00    5.010000E+06  0.02000  3.296E-02    0   0.9342   age055_m62            0.0000     2.6466E-05    26.4396   2.8389    87.9606
 38      0.0000     0.0000E+00    0.0000E+00    8.710000E+06  0.02000  1.154E-02    0   0.8861   age067_m62            0.0000     3.3762E-05    32.3421   1.9668    89.1754
 39      0.0000     0.0000E+00    0.0000E+00    1.445000E+07  0.02000  7.663E-03    0   0.8472   age078_m62            0.0000     2.8832E-05    29.0484   2.1034    90.5539
 40      0.0000     0.0000E+00    0.0000E+00    2.512000E+07  0.02000  4.532E-03    0   0.8099   age090_m62            0.0000     2.9072E-05    29.1378   2.0984    90.1794
 41      0.0000     0.0000E+00    0.0000E+00    5.500000E+07  0.02000  2.733E-03    0   0.7595   age110_m62            0.0000     2.5932E-05    26.6532   2.0696    91.5469
 42      0.0000     0.0000E+00    0.0000E+00    1.609000E+08  0.02000  1.369E-03    0   0.6985   age120_m62            0.0000     2.3536E-05    24.1408   1.8677    95.3209
 43     11.3261     4.5459E-01    5.8650E-01    2.861200E+08  0.02000  9.013E-04    0   0.6714   age125_m62            0.0000     2.2215E-05    22.4739   1.5913    98.8907
 44      0.0000     0.0000E+00    0.0000E+00    5.088000E+08  0.02000  5.028E-04    0   0.6449   age130_m62            0.0000     2.0399E-05    20.6828   1.1670   102.9679
 45     15.2677     2.2747E+00    2.7009E+00    9.047900E+08  0.02000  2.428E-04    0   0.6179   age135_m62            0.0000     1.9704E-05    20.9141   0.5640   102.8012
 46      0.0000     0.0000E+00    0.0000E+00    1.434000E+09  0.02000  1.263E-04    0   0.5908   age139_m62            0.0000     2.0154E-05    21.3248   0.1158   101.3569
 47      0.0000     0.0000E+00    0.0000E+00    2.500000E+09  0.02000  5.985E-05    0   0.5673   age150_m62            0.0000     2.0828E-05    21.0956  -0.2772   100.7373
 48      1.5137     1.6741E+00    1.7590E+00    4.250000E+09  0.02000  3.271E-05    0   0.5468   age158_m62            0.0000     2.1656E-05    20.3717  -0.6180   100.8880
 49      6.1869     1.6457E+01    1.6340E+01    1.000000E+10  0.02000  1.360E-05    0   0.5167   age181_m62            0.0000     2.3436E-05    19.6232  -1.0000   101.4486
 50      9.1929     4.6681E+01    4.4968E+01    1.800000E+10  0.02000  7.124E-06    0   0.5013   age213_m62            0.0000     2.6424E-05    18.1932  -1.0000    95.8401
 51      0.0000     0.0000E+00    0.0000E+00    1.000000E+06  0.05000  2.592E-02    0   0.9998   age020_m72            0.0000     3.0579E-05    28.6189   3.2979    82.9918
 52      0.0000     0.0000E+00    0.0000E+00    3.160000E+06  0.05000  4.845E-02    0   0.9577   age045_m72            0.0000     2.8697E-05    27.6234   3.1113    85.2443
 53      0.0000     0.0000E+00    0.0000E+00    5.010000E+06  0.05000  3.072E-02    0   0.9147   age055_m72            0.0000     2.9392E-05    28.7897   2.6689    87.6609
 54      0.0000     0.0000E+00    0.0000E+00    6.610000E+06  0.05000  1.455E-02    0   0.8877   age061_m72            0.0000     3.8004E-05    34.6287   2.0148    89.1819
 55      0.0000     0.0000E+00    0.0000E+00    1.000000E+07  0.05000  9.074E-03    0   0.8524   age070_m72            0.0000     3.0000E-05    29.0483   2.8366    87.4969
 56      0.0000     0.0000E+00    0.0000E+00    2.512000E+07  0.05000  4.250E-03    0   0.7902   age090_m72            0.0000     2.8038E-05    27.9913   2.5374    89.3468
 57      0.0000     0.0000E+00    0.0000E+00    4.000000E+07  0.05000  3.087E-03    0   0.7618   age104_m72            0.0000     2.7517E-05    27.7253   2.3112    90.7828
 58      0.0000     0.0000E+00    0.0000E+00    1.015200E+08  0.05000  1.700E-03    0   0.7096   age116_m72            0.0000     2.4419E-05    25.0297   2.0221    94.5015
 59      0.0000     0.0000E+00    0.0000E+00    2.861200E+08  0.05000  7.384E-04    0   0.6633   age125_m72            0.0000     2.1291E-05    21.4480   1.4338   101.0471
 60      0.0000     0.0000E+00    0.0000E+00    5.088000E+08  0.05000  3.819E-04    0   0.6372   age130_m72            0.0000     1.9879E-05    20.7382   0.9048   103.8409
 61      0.0000     0.0000E+00    0.0000E+00    9.047900E+08  0.05000  1.676E-04    0   0.6110   age135_m72            0.0000     2.0247E-05    21.1904   0.1735   103.0097
 62      0.0000     0.0000E+00    0.0000E+00    1.434000E+09  0.05000  8.837E-05    0   0.5874   age139_m72            0.0000     2.1123E-05    21.0854  -0.2896   102.5267
 63      0.0000     0.0000E+00    0.0000E+00    2.500000E+09  0.05000  4.233E-05    0   0.5598   age150_m72            0.0000     2.2051E-05    20.3502  -0.6377   102.3186
 64      4.1741     1.0522E+01    1.0613E+01    6.250000E+09  0.05000  1.435E-05    0   0.5249   age166_m72            0.0000     2.4077E-05    18.8865  -1.0000    98.8889
 65      0.0000     0.0000E+00    0.0000E+00    1.300000E+10  0.05000  6.513E-06    0   0.5036   age193_m72            0.0000     3.0168E-05    19.1515  -1.0000    92.8888
 66      0.0000     0.0000E+00    0.0000E+00    1.800000E+10  0.05000  4.527E-06    0   0.4945   age213_m72            0.0000     3.5418E-05    20.7173  -1.0000    88.4707


## Synthesis Results - Average & Chains ##

# j      x_j: min, <> & last-chain-values for 1 ...  7 chains
  1      0.0000      0.3358      0.0000      0.2642      0.0006      0.0017      0.0293      0.0148      0.0000
  2      0.0000      0.3208      0.0000      0.0466      0.0010      0.0018      0.1683      0.0000      0.8197
  3      0.0000      8.1166      6.8492      8.0384      9.5666      9.5922      9.2117      7.3666      6.4977
  4      0.0000      0.3082      0.0000      0.4966      0.0016      0.0001      0.3408      0.2477      0.0000
  5      0.0000      0.1974      0.0838      0.2936      0.0007      0.0002      0.0000      0.0000      0.0000
  6      0.0000      0.2727      0.1228      0.2661      0.0002      0.0002      0.1470      0.4606      0.5343
  7      0.0000      0.2417      0.0000      0.3901      0.0012      0.0016      0.0000      0.3072      0.3363
  8      0.0000      0.4213      0.0000      0.1172      0.0005      0.0006      0.0452      1.6281      0.1577
  9      0.0000      0.2435      0.0387      0.0000      0.0007      0.0014      0.0096      0.3934      0.0000
 10      0.0000      0.2779      0.3045      0.0551      0.0009      0.0010      0.0536      0.0638      0.4059
 11      0.0000      0.2942      0.4717      0.1059      0.0091      0.0000      0.3638      0.4423      0.0000
 12     10.1683      0.4457      0.3699      0.1461      0.0085      0.0099      0.0100      0.0000      1.1303
 13      0.0000      0.2291      0.0000      0.2084      0.0013      0.0009      0.0000      0.0000      0.2065
 14      7.0500      6.6774      6.2456      6.3784      6.9644      7.3973      7.2131      5.3934      6.1767
 15      0.0000      0.3606      0.0000      0.3312      0.0039      0.0037      0.0975      0.1903      0.0000
 16      0.0000      0.2110      2.1881      0.0000      0.0004      0.0002      0.0000      0.0000      0.3957
 17      0.4527      0.3709      1.0367      0.3356      0.0017      0.0018      0.0122      0.9545      0.0760
 18      0.0000      0.2433      0.0000      0.1285      0.0035      0.0036      0.0012      0.0000      0.4117
 19      0.0000      0.4677      0.9975      0.0000      0.0008      0.0005      0.0000      0.1911      0.2299
 20      0.0000      0.2826      0.0000      0.1778      0.1813      0.1227      0.0783      0.5320      0.3711
 21      0.0000      0.3452      1.4783      0.0000      0.0008      0.0006      0.1749      0.7411      0.2171
 22      0.0000      0.2900      0.0000      0.2622      0.0020      0.0014      0.0419      0.5896      0.0000
 23      0.0000      0.2481      0.4574      0.0209      0.0011      0.0012      0.0000      0.4476      0.0000
 24      0.0000      0.2802      1.0422      0.1732      0.0008      0.0009      0.0000      0.5552      0.0000
 25      0.0000      0.2186      0.0914      0.2739      0.0001      0.0008      0.1037      0.9294      0.1303
 26      0.0000      0.2212      0.0000      0.4698      0.0013      0.0003      0.1091      0.5231      0.0982
 27      0.0000      0.3595      0.0000      0.3359      0.0000      0.0005      0.2356      0.0000      0.0523
 28     22.8322      0.2565      1.2909      0.2863      0.0006      0.0005      0.1722      0.0000      1.6001
 29      0.0000     49.2931     46.0900     53.3954     58.8470     58.2893     56.6042     45.9350     49.8683
 30      4.4277      0.2462      0.3674      0.4128      0.0023      0.0029      0.0000      0.4895      0.0037
 31      0.0000      0.6988      0.3680      0.5353      0.0283      0.1328      1.5456      0.3538      0.2365
 32      9.8806      0.4500      0.4469      0.1139      0.0028      0.0023      0.0000      1.9610      1.2152
 33      0.0000      0.2794      0.2141      0.2716      0.0032      0.0017      0.2119      0.4430      0.3882
 34      0.0000      0.2910      0.0000      0.2527      0.0034      0.0021      0.1208      0.0000      0.4846
 35      0.0000      6.3111      5.2617      5.7037      7.2891      7.2034      6.7587      5.2400      5.6442
 36      0.0000      0.3758      0.1965      0.0650      0.0000      0.0002      0.0000      0.0000      0.1191
 37      0.0000      0.3395      0.0000      0.1021      0.0016      0.0012      0.2407      0.2679      0.7886
 38      0.0000      0.3717      0.0000      0.3958      0.0003      0.0000      0.0000      0.3165      0.2403
 39      0.0000      2.4300      2.3061      1.2926      2.8633      2.8292      2.6324      1.7530      2.6630
 40      0.0000      0.4106      0.0660      0.7659      0.2310      0.3069      0.2877      0.0000      0.3611
 41      0.0000      0.2602      1.8952      0.0828      0.0028      0.0026      0.0806      0.2035      0.0000
 42      0.0000      0.2977      0.3874      0.4773      0.0007      0.0006      0.3383      0.8669      0.5182
 43     11.3261      0.2867      2.0840      0.0000      0.0003      0.0002      0.0005      0.2218      0.2676
 44      0.0000      0.3063      0.0679      0.2294      0.0016      0.0003      0.0817      0.0077      0.6138
 45     15.2677      0.3741      0.3538      0.6564      0.1543      0.0018      0.0000      1.5043      0.3522
 46      0.0000      0.2772      1.4573      0.9654      0.0017      0.0012      0.0000      0.7631      0.0997
