###################################################################
## OUTPUT of StarlightChains_v04.for    [Cid@UFSC - 01/Apr/2007] ##
###################################################################

## Some input info
KUG0210-078._33_43.txt                   [arq_obs]
Base.CB07.vall.4m                        [arq_base]
Masks.EmLines.NEW.gm                     [arq_masks]
StCv04.C11.config                        [arq_config]
   66                                    [N_base]
    0                                    [N_YAV_components = # of components with extra extinction!]
    0                                    [i_FitPowerLaw (1/0 = Yes/No)]
-9.99                                    [alpha_PowerLaw]
CCM                                      [red_law_option]
 1.458241                                [q_norm = A(l_norm)/A(V)]

## (Re)Sampling Parameters
 3741.00                                 [l_ini (A)]
 7218.00                                 [l_fin (A)]
    1.00                                 [dl    (A)]     (OBS: dl_cushion =    50.00 A)

## Normalization info
 4020.00                                 [l_norm (A) - for base]
 4010.00                                 [llow_norm (A) - window for f_obs]
 4060.00                                 [lupp_norm (A) - window for f_obs]
8.035398E-18                             [fobs_norm (in input units)]

## S/N
 3691.00                                 [llow_SN (A) - window for S/N]
 7268.00                                 [lupp_SN (A) - window for S/N]
   4.700                                 [S/N in S/N window]
   3.160                                 [S/N in norm. window]
   0.013                                 [S/N_err in S/N window]
   0.009                                 [S/N_err in norm. window]
  1.0000                                 [fscale_chi2]

## etc...
    -2007518                             [idum_orig]
  2416                                   [NOl_eff]
  2401                                   [Nl_eff]
    15    NSIGMA                         [Ntot_cliped & clip_method]
   486640                                [Nglobal_steps]
   7                                     [N_chains]
  11                                     [NEX0s_base = N_base in EX0s-fits]
 0   0   1       15   2.0   1.292E+03    [Clip-Bug, RC-Crash & Burn-In warning-flags, n_censored_weights, wei_nsig_threshold & wei_limit]
    11     10.537     10.065      0.471  [idt_all, wdt_TotTime, wdt_UsrTime & wdt_SysTime (sec)]

## Synthesis Results - Best model ##

 1.12483E-05                             [chi2/Nl_eff]
    14.54763                             [adev (%)]

   130.00000                             [sum-of-x (%)]
 7.85764E-18                             [Flux_tot (units of input spectrum!)]
 5.52080E-13                             [Mini_tot (???)]
 2.78487E-13                             [Mcor_tot (???)]

 280.71                                  [v0_min  (km/s)]
 322.40                                  [vd_min  (km/s)]
-0.2120                                  [AV_min  (mag)]
 0.0000                                  [YAV_min (mag)]

# j     x_j(%)      Mini_j(%)     Mcor_j(%)     age_j(yr)     Z_j      (L/M)_j    YAV?  Mstars   component_j        a/Fe...       SSP_chi2r SSP_adev(%)   SSP_AV   SSP_x(%)
  1      0.0000     0.0000E+00    0.0000E+00    1.000000E+06  0.00400  1.094E-02    0   1.0000   age020_m42            0.0000     1.4101E-05    18.8464   3.5432   116.6165
  2      0.0000     0.0000E+00    0.0000E+00    3.160000E+06  0.00400  4.007E-02    0   0.9999   age045_m42            0.0000     1.2957E-05    17.8008   2.8041   125.1996
  3      0.0000     0.0000E+00    0.0000E+00    5.010000E+06  0.00400  2.539E-02    0   0.9488   age055_m42            0.0000     1.3398E-05    18.2710   3.1285   121.9638
  4      0.0000     0.0000E+00    0.0000E+00    6.610000E+06  0.00400  2.620E-02    0   0.9220   age061_m42            0.0000     1.2955E-05    17.8052   2.7310   125.4660
  5      0.0000     0.0000E+00    0.0000E+00    1.000000E+07  0.00400  1.322E-02    0   0.8862   age070_m42            0.0000     1.3581E-05    19.0566   2.4803   126.7830
  6      0.0000     0.0000E+00    0.0000E+00    1.445000E+07  0.00400  7.883E-03    0   0.8571   age078_m42            0.0000     1.3761E-05    19.1654   2.8050   123.6465
  7      0.0000     0.0000E+00    0.0000E+00    2.512000E+07  0.00400  5.251E-03    0   0.8174   age090_m42            0.0000     1.3620E-05    19.2351   2.3533   127.3757
  8      1.1997     3.5997E-03    5.6025E-03    4.000000E+07  0.00400  3.649E-03    0   0.7851   age104_m42            0.0000     1.3333E-05    18.9049   2.1212   128.7012
  9      6.5116     2.3012E-02    3.4803E-02    5.500000E+07  0.00400  3.098E-03    0   0.7629   age110_m42            0.0000     1.2955E-05    18.1111   2.2601   129.3258
 10      0.0000     0.0000E+00    0.0000E+00    1.015200E+08  0.00400  2.228E-03    0   0.7207   age116_m42            0.0000     1.2762E-05    17.5695   2.2683   130.0701
 11      0.0000     0.0000E+00    0.0000E+00    2.861200E+08  0.00400  1.093E-03    0   0.6648   age125_m42            0.0000     1.2834E-05    17.7988   1.7037   133.6434
 12      0.0000     0.0000E+00    0.0000E+00    5.088000E+08  0.00400  6.597E-04    0   0.6365   age130_m42            0.0000     1.2462E-05    16.9187   1.6791   135.4917
 13      0.0000     0.0000E+00    0.0000E+00    1.434000E+09  0.00400  2.132E-04    0   0.5798   age139_m42            0.0000     1.1705E-05    16.2415   0.7020   138.7112
 14      0.0000     0.0000E+00    0.0000E+00    4.250000E+09  0.00400  5.895E-05    0   0.5377   age158_m42            0.0000     1.1280E-05    15.7083   0.2395   134.5667
 15      0.0000     0.0000E+00    0.0000E+00    7.500000E+09  0.00400  3.510E-05    0   0.5212   age171_m42            0.0000     1.1227E-05    15.3997   0.0409   134.1471
 16     43.0832     2.3526E+01    2.3477E+01    1.300000E+10  0.00400  2.005E-05    0   0.5034   age193_m42            0.0000     1.1253E-05    15.1844  -0.1330   133.7990
 17     41.9312     3.0103E+01    2.9642E+01    1.800000E+10  0.00400  1.525E-05    0   0.4967   age213_m42            0.0000     1.1283E-05    15.3126  -0.1536   133.1241
 18      0.0000     0.0000E+00    0.0000E+00    1.000000E+06  0.00800  1.238E-02    0   1.0000   age020_m52            0.0000     1.4099E-05    18.8300   3.5373   116.9221
 19      0.0000     0.0000E+00    0.0000E+00    3.160000E+06  0.00800  3.074E-02    0   0.9966   age045_m52            0.0000     1.3966E-05    18.7472   3.4605   118.0166
 20      0.0000     0.0000E+00    0.0000E+00    5.010000E+06  0.00800  2.668E-02    0   0.9443   age055_m52            0.0000     1.3549E-05    18.4623   3.2165   120.6815
 21      0.0000     0.0000E+00    0.0000E+00    6.610000E+06  0.00800  2.136E-02    0   0.9177   age061_m52            0.0000     1.3312E-05    18.9137   1.9801   128.4022
 22      0.0000     0.0000E+00    0.0000E+00    1.000000E+07  0.00800  1.215E-02    0   0.8827   age070_m52            0.0000     1.3951E-05    19.6173   2.6666   126.1149
 23      0.0000     0.0000E+00    0.0000E+00    1.445000E+07  0.00800  8.717E-03    0   0.8552   age078_m52            0.0000     1.3683E-05    19.1420   2.7717   125.3292
 24      0.0000     0.0000E+00    0.0000E+00    2.512000E+07  0.00800  5.592E-03    0   0.8162   age090_m52            0.0000     1.3613E-05    19.3094   2.4191   128.7827
 25      0.0000     0.0000E+00    0.0000E+00    4.000000E+07  0.00800  3.896E-03    0   0.7841   age104_m52            0.0000     1.3241E-05    18.7710   2.3200   130.2536
 26      0.0000     0.0000E+00    0.0000E+00    1.015200E+08  0.00800  2.148E-03    0   0.7226   age116_m52            0.0000     1.2808E-05    17.9060   2.2432   130.7742
 27      0.0000     0.0000E+00    0.0000E+00    2.861200E+08  0.00800  9.925E-04    0   0.6683   age125_m52            0.0000     1.2467E-05    16.9085   1.7444   136.7198
 28      0.0000     0.0000E+00    0.0000E+00    9.047900E+08  0.00800  3.141E-04    0   0.6138   age135_m52            0.0000     1.1575E-05    15.6119   0.9198   143.7785
 29      0.0000     0.0000E+00    0.0000E+00    1.434000E+09  0.00800  1.719E-04    0   0.5853   age139_m52            0.0000     1.1238E-05    15.7712   0.3374   141.0926
 30      0.0000     0.0000E+00    0.0000E+00    2.500000E+09  0.00800  7.872E-05    0   0.5600   age150_m52            0.0000     1.1009E-05    15.0165   0.0488   138.4645
 31      0.0000     0.0000E+00    0.0000E+00    4.250000E+09  0.00800  4.336E-05    0   0.5426   age158_m52            0.0000     1.1093E-05    15.0379   0.0332   137.2031
 32      0.0000     0.0000E+00    0.0000E+00    6.250000E+09  0.00800  3.159E-05    0   0.5319   age166_m52            0.0000     1.1084E-05    14.6223  -0.1866   138.0163
 33      0.0000     0.0000E+00    0.0000E+00    1.300000E+10  0.00800  1.361E-05    0   0.5073   age193_m52            0.0000     1.1154E-05    14.2688  -0.6745   138.1188
 34      0.0000     0.0000E+00    0.0000E+00    1.800000E+10  0.00800  9.886E-06    0   0.4990   age213_m52            0.0000     1.1285E-05    14.0990  -0.8022   138.3523
 35      0.0000     0.0000E+00    0.0000E+00    1.000000E+06  0.02000  1.544E-02    0   1.0000   age020_m62            0.0000     1.4146E-05    18.8862   3.5359   117.1174
 36      0.0000     0.0000E+00    0.0000E+00    3.160000E+06  0.02000  3.762E-02    0   0.9858   age045_m62            0.0000     1.4093E-05    18.8292   3.4715   118.2898
 37      0.0000     0.0000E+00    0.0000E+00    5.010000E+06  0.02000  3.296E-02    0   0.9342   age055_m62            0.0000     1.3161E-05    17.9423   3.0835   123.7148
 38      0.0000     0.0000E+00    0.0000E+00    8.710000E+06  0.02000  1.154E-02    0   0.8861   age067_m62            0.0000     1.6444E-05    23.2374   2.1692   127.2012
 39      0.0000     0.0000E+00    0.0000E+00    1.445000E+07  0.02000  7.663E-03    0   0.8472   age078_m62            0.0000     1.4420E-05    20.5330   2.3259   128.3472
 40      0.0000     0.0000E+00    0.0000E+00    2.512000E+07  0.02000  4.532E-03    0   0.8099   age090_m62            0.0000     1.4472E-05    20.6586   2.3200   127.8939
 41      0.0000     0.0000E+00    0.0000E+00    5.500000E+07  0.02000  2.733E-03    0   0.7595   age110_m62            0.0000     1.3302E-05    18.8330   2.3044   129.2876
 42      0.0000     0.0000E+00    0.0000E+00    1.609000E+08  0.02000  1.369E-03    0   0.6985   age120_m62            0.0000     1.2784E-05    17.5053   2.1198   133.9153
 43      0.0000     0.0000E+00    0.0000E+00    2.861200E+08  0.02000  9.013E-04    0   0.6714   age125_m62            0.0000     1.2574E-05    16.7575   1.8581   138.3562
 44      0.0000     0.0000E+00    0.0000E+00    5.088000E+08  0.02000  5.028E-04    0   0.6449   age130_m62            0.0000     1.1950E-05    15.5095   1.4547   143.3206
 45      0.0000     0.0000E+00    0.0000E+00    9.047900E+08  0.02000  2.428E-04    0   0.6179   age135_m62            0.0000     1.1242E-05    15.0579   0.8514   143.4596
 46      0.0000     0.0000E+00    0.0000E+00    1.434000E+09  0.02000  1.263E-04    0   0.5908   age139_m62            0.0000     1.1063E-05    15.0131   0.4014   141.7791
 47      0.0000     0.0000E+00    0.0000E+00    2.500000E+09  0.02000  5.985E-05    0   0.5673   age150_m62            0.0000     1.0993E-05    14.6041   0.0156   140.8868
 48      0.0000     0.0000E+00    0.0000E+00    4.250000E+09  0.02000  3.271E-05    0   0.5468   age158_m62            0.0000     1.1044E-05    14.2413  -0.3150   140.9402
 49      0.0000     0.0000E+00    0.0000E+00    1.000000E+10  0.02000  1.360E-05    0   0.5167   age181_m62            0.0000     1.1336E-05    14.0204  -0.6970   141.9764
 50      0.0000     0.0000E+00    0.0000E+00    1.800000E+10  0.02000  7.124E-06    0   0.5013   age213_m62            0.0000     1.1677E-05    14.0930  -0.9350   142.1845
 51      0.0000     0.0000E+00    0.0000E+00    1.000000E+06  0.05000  2.592E-02    0   0.9998   age020_m72            0.0000     1.4302E-05    19.0306   3.5277   117.1266
 52      0.0000     0.0000E+00    0.0000E+00    3.160000E+06  0.05000  4.845E-02    0   0.9577   age045_m72            0.0000     1.3627E-05    18.3972   3.3459   120.2386
 53      0.0000     0.0000E+00    0.0000E+00    5.010000E+06  0.05000  3.072E-02    0   0.9147   age055_m72            0.0000     1.4245E-05    19.8042   2.8914   124.1836
 54      0.0000     0.0000E+00    0.0000E+00    6.610000E+06  0.05000  1.455E-02    0   0.8877   age061_m72            0.0000     1.8326E-05    25.4223   2.2113   127.5942
 55      0.0000     0.0000E+00    0.0000E+00    1.000000E+07  0.05000  9.074E-03    0   0.8524   age070_m72            0.0000     1.4522E-05    20.0104   3.0636   123.8606
 56      0.0000     0.0000E+00    0.0000E+00    2.512000E+07  0.05000  4.250E-03    0   0.7902   age090_m72            0.0000     1.3915E-05    19.5394   2.7657   126.4109
 57      0.0000     0.0000E+00    0.0000E+00    4.000000E+07  0.05000  3.087E-03    0   0.7618   age104_m72            0.0000     1.3931E-05    19.6478   2.5396   128.4596
 58      0.0000     0.0000E+00    0.0000E+00    1.015200E+08  0.05000  1.700E-03    0   0.7096   age116_m72            0.0000     1.3104E-05    18.0948   2.2697   132.9175
 59      0.0000     0.0000E+00    0.0000E+00    2.861200E+08  0.05000  7.384E-04    0   0.6633   age125_m72            0.0000     1.2234E-05    16.0911   1.7102   141.0501
 60      0.0000     0.0000E+00    0.0000E+00    5.088000E+08  0.05000  3.819E-04    0   0.6372   age130_m72            0.0000     1.1454E-05    15.1375   1.1944   144.6919
 61      0.0000     0.0000E+00    0.0000E+00    9.047900E+08  0.05000  1.676E-04    0   0.6110   age135_m72            0.0000     1.1019E-05    14.6033   0.4691   143.8005
 62      0.0000     0.0000E+00    0.0000E+00    1.434000E+09  0.05000  8.837E-05    0   0.5874   age139_m72            0.0000     1.1063E-05    14.5591   0.0067   143.3779
 63      0.0000     0.0000E+00    0.0000E+00    2.500000E+09  0.05000  4.233E-05    0   0.5598   age150_m72            0.0000     1.1102E-05    14.2123  -0.3274   142.7734
 64     17.7695     1.3557E+01    1.4107E+01    6.250000E+09  0.05000  1.435E-05    0   0.5249   age166_m72            0.0000     1.1395E-05    14.1734  -0.8041   141.9374
 65     19.5047     3.2787E+01    3.2733E+01    1.300000E+10  0.05000  6.513E-06    0   0.5036   age193_m72            0.0000     1.2032E-05    13.8999  -1.0000   140.3986
 66      0.0000     0.0000E+00    0.0000E+00    1.800000E+10  0.05000  4.527E-06    0   0.4945   age213_m72            0.0000     1.3095E-05    14.3780  -1.0000   133.9595


## Synthesis Results - Average & Chains ##

# j      x_j: min, <> & last-chain-values for 1 ...  7 chains
  1      0.0000      0.4119      0.1386      0.2041      0.0000      0.0000      0.0000      0.0000      0.0000
  2      0.0000      0.4038      0.0000      0.0000      0.0000      0.0000      0.0000      0.0799      0.0000
  3      0.0000      0.4975      0.0003      0.0000      0.0000      0.0005      0.0000      0.0000      0.0000
  4      0.0000      0.3895      0.0000      0.0000      0.0000      0.0000      0.0000      0.0000      0.0002
  5      0.0000      0.3600      0.0000      0.0000      0.0002      0.0000      0.0000      0.0000      0.0000
  6      0.0000      0.5673      0.0000      0.0000      0.0000      0.0000      0.0000      0.0886      0.0000
  7      0.0000      0.3846      0.0007      0.0000      0.0000      0.0000      0.0000      0.1653      0.0000
  8      1.1997      0.5217      0.0000      0.0000      0.0000      0.0000      0.0000      0.2221      0.0000
  9      6.5116      0.6093      0.0000      0.0000      0.0000      0.0000      0.0000      0.2746      0.0000
 10      0.0000      0.3429      0.0000      0.0000      0.0000      0.0000      0.0000      0.0000      0.0000
 11      0.0000      0.3795      0.0000      0.0004      0.0001      0.0000      0.0000      0.0139      0.0000
 12      0.0000      0.3446      0.0001      0.0000      0.0000      0.0000      0.0000      0.0000      0.0000
 13      0.0000      0.6675      0.0000      0.0000      0.0000      0.0000      0.0012      0.0000      0.0000
 14      0.0000      0.5411      0.0000      0.0000      0.0000      0.0000      0.0000      0.0000      0.0000
 15      0.0000      0.4321      0.0000      0.0000      0.0000      0.0001      0.0000      0.0000      0.0000
 16     43.0832      0.6164      0.0000      0.1787      0.0000      0.0000      0.2656      0.4067      0.0000
 17     41.9312      0.4577      0.0000      0.0000      0.0000      0.0000      0.0000      0.1775      0.0009
 18      0.0000      0.5148      0.0000      0.0011      0.0000      0.0000      0.0003      0.2066      0.0000
 19      0.0000      0.4635      0.0000      0.0000      0.0000      0.0000      0.0000      0.0000      0.0000
 20      0.0000      0.3684      0.0000      0.0000      0.0000      0.0000      0.0000      0.0351      0.0000
 21      0.0000      0.5429      0.0000      0.0000      0.0000      0.0000      0.0000      0.0000      0.0000
 22      0.0000      0.5080      0.0000      0.0000      0.0000      0.0000      0.0000      0.0000      0.0000
 23      0.0000      0.4623      0.0000      0.0000      0.0000      0.0000      0.0671      0.0000      0.0000
 24      0.0000      0.4501      0.0000      0.0000      0.0000      0.0000      0.0000      0.0000      0.0000
 25      0.0000      0.4732      0.0000      0.0000      0.0000      0.0000      0.0000      0.0000      0.0000
 26      0.0000      0.4878      0.0000      0.0000      0.0000      0.0000      0.0000      0.0000      0.0000
 27      0.0000      0.4717      0.0000      0.0000      0.0000      0.0046      0.0000      0.0000      0.0000
 28      0.0000      0.5080      0.0000      0.0000      0.0000      0.0000      0.0000      0.0000      0.0000
 29      0.0000      0.4962      0.0000      0.0000      0.0000      0.0000      0.0000      0.0000      0.0000
 30      0.0000      0.4048      0.0000      0.0000      0.0000      0.0000      0.0000      0.0455      0.0000
 31      0.0000      0.4455      0.0000      0.0002      0.0000      0.0000      0.3666      0.0001      0.0000
 32      0.0000      0.4318      0.0000      0.0000      0.0000      0.0000      0.0398      0.1448      0.0000
 33      0.0000      0.6903      0.1256      0.0000      0.0000      0.0007      0.0010      0.0827      0.0000
 34      0.0000      0.4271      0.0000      0.0000      0.0000      0.0000      0.0000      0.0000      0.0000
 35      0.0000      0.4595      0.0000      0.0000      0.0000      0.0000      0.0000      0.1943      0.2986
 36      0.0000      0.4387      0.0000      0.0000      0.0000      0.0000      0.0000      0.0000      0.0000
 37      0.0000      0.4910      0.0000      0.0003      0.0000      0.0176      0.0000      0.0000      0.0000
 38      0.0000      2.0831      3.3900      2.9650      3.1188      3.1778      3.2907      2.5301      2.9512
 39      0.0000      0.7217      0.0000      0.0000      0.0000      0.0001      0.1276      0.0000      0.0000
 40      0.0000      0.4398      0.0000      0.0001      0.0000      0.0000      0.0000      0.0318      0.0000
 41      0.0000      0.4398      0.0000      0.0000      0.0000      0.0000      0.0000      0.1487      0.0000
 42      0.0000      0.4644      0.0000      0.0000      0.0000      0.0000      0.0010      0.0000      0.0000
 43      0.0000      0.3402      0.0000      0.0000      0.0000      0.0000      0.0000      0.0000      0.0000
 44      0.0000      0.5417      0.0000      0.0000      0.0000      0.0000      0.0000      0.0000      0.0000
 45      0.0000      0.4614      0.0000      0.0000      0.0000      0.0000      0.0000      0.0000      0.0000
 46      0.0000      0.4446      0.0000      0.0000      0.0000      0.0000      0.0000      0.0000      0.0000
