###################################################################
## OUTPUT of StarlightChains_v04.for    [Cid@UFSC - 01/Apr/2007] ##
###################################################################

## Some input info
KUG0210-078._34_35.txt                   [arq_obs]
Base.CB07.vall.4m                        [arq_base]
Masks.EmLines.NEW.gm                     [arq_masks]
StCv04.C11.config                        [arq_config]
   66                                    [N_base]
    0                                    [N_YAV_components = # of components with extra extinction!]
    0                                    [i_FitPowerLaw (1/0 = Yes/No)]
-9.99                                    [alpha_PowerLaw]
CCM                                      [red_law_option]
 1.458241                                [q_norm = A(l_norm)/A(V)]

## (Re)Sampling Parameters
 3741.00                                 [l_ini (A)]
 7218.00                                 [l_fin (A)]
    1.00                                 [dl    (A)]     (OBS: dl_cushion =    50.00 A)

## Normalization info
 4020.00                                 [l_norm (A) - for base]
 4010.00                                 [llow_norm (A) - window for f_obs]
 4060.00                                 [lupp_norm (A) - window for f_obs]
4.341862E-17                             [fobs_norm (in input units)]

## S/N
 3691.00                                 [llow_SN (A) - window for S/N]
 7268.00                                 [lupp_SN (A) - window for S/N]
   4.036                                 [S/N in S/N window]
   2.658                                 [S/N in norm. window]
   0.094                                 [S/N_err in S/N window]
   0.062                                 [S/N_err in norm. window]
  1.0000                                 [fscale_chi2]

## etc...
    -2007540                             [idum_orig]
  2432                                   [NOl_eff]
  2424                                   [Nl_eff]
     8    NSIGMA                         [Ntot_cliped & clip_method]
  5149060                                [Nglobal_steps]
   7                                     [N_chains]
  34                                     [NEX0s_base = N_base in EX0s-fits]
 0   0   1        8   2.0   5.036E+03    [Clip-Bug, RC-Crash & Burn-In warning-flags, n_censored_weights, wei_nsig_threshold & wei_limit]
    87     87.033     86.508      0.525  [idt_all, wdt_TotTime, wdt_UsrTime & wdt_SysTime (sec)]

## Synthesis Results - Best model ##

 2.78706E-05                             [chi2/Nl_eff]
     3.73691                             [adev (%)]

   113.46661                             [sum-of-x (%)]
 4.20734E-17                             [Flux_tot (units of input spectrum!)]
 4.60878E-12                             [Mini_tot (???)]
 2.32682E-12                             [Mcor_tot (???)]

 -77.56                                  [v0_min  (km/s)]
 231.50                                  [vd_min  (km/s)]
-0.1175                                  [AV_min  (mag)]
 0.0000                                  [YAV_min (mag)]

# j     x_j(%)      Mini_j(%)     Mcor_j(%)     age_j(yr)     Z_j      (L/M)_j    YAV?  Mstars   component_j        a/Fe...       SSP_chi2r SSP_adev(%)   SSP_AV   SSP_x(%)
  1      0.0000     0.0000E+00    0.0000E+00    1.000000E+06  0.00400  1.094E-02    0   1.0000   age020_m42            0.0000     2.4430E-04    11.5824   4.0000    96.8108
  2      0.0000     0.0000E+00    0.0000E+00    3.160000E+06  0.00400  4.007E-02    0   0.9999   age045_m42            0.0000     1.8133E-04    10.7768   3.4117    99.2550
  3      0.0000     0.0000E+00    0.0000E+00    5.010000E+06  0.00400  2.539E-02    0   0.9488   age055_m42            0.0000     2.0416E-04    11.2612   3.7465    96.2101
  4      0.0000     0.0000E+00    0.0000E+00    6.610000E+06  0.00400  2.620E-02    0   0.9220   age061_m42            0.0000     1.8406E-04    10.8676   3.3363    99.4870
  5      0.0000     0.0000E+00    0.0000E+00    1.000000E+07  0.00400  1.322E-02    0   0.8862   age070_m42            0.0000     2.2360E-04    12.4308   3.0634   100.8184
  6      0.0000     0.0000E+00    0.0000E+00    1.445000E+07  0.00400  7.883E-03    0   0.8571   age078_m42            0.0000     2.3330E-04    12.5337   3.3961    98.0435
  7      0.0000     0.0000E+00    0.0000E+00    2.512000E+07  0.00400  5.251E-03    0   0.8174   age090_m42            0.0000     2.2895E-04    12.6853   2.9334   101.3297
  8      0.0000     0.0000E+00    0.0000E+00    4.000000E+07  0.00400  3.649E-03    0   0.7851   age104_m42            0.0000     2.1398E-04    12.2975   2.6991   102.5447
  9      0.0000     0.0000E+00    0.0000E+00    5.500000E+07  0.00400  3.098E-03    0   0.7629   age110_m42            0.0000     1.9032E-04    11.4328   2.8434   103.1269
 10      0.0000     0.0000E+00    0.0000E+00    1.015200E+08  0.00400  2.228E-03    0   0.7207   age116_m42            0.0000     1.7587E-04    10.8545   2.8558   103.7631
 11      3.0687     2.2588E-02    2.9744E-02    2.861200E+08  0.00400  1.093E-03    0   0.6648   age125_m42            0.0000     1.8362E-04    11.3676   2.2706   107.1358
 12      0.0000     0.0000E+00    0.0000E+00    5.088000E+08  0.00400  6.597E-04    0   0.6365   age130_m42            0.0000     1.5549E-04    10.3250   2.2528   108.6743
 13      0.0000     0.0000E+00    0.0000E+00    1.434000E+09  0.00400  2.132E-04    0   0.5798   age139_m42            0.0000     1.1070E-04     8.8781   1.2785   111.3458
 14      0.0000     0.0000E+00    0.0000E+00    4.250000E+09  0.00400  5.895E-05    0   0.5377   age158_m42            0.0000     8.5557E-05     7.5370   0.8458   107.0528
 15      0.0000     0.0000E+00    0.0000E+00    7.500000E+09  0.00400  3.510E-05    0   0.5212   age171_m42            0.0000     7.5267E-05     6.9829   0.6537   106.6017
 16      0.0000     0.0000E+00    0.0000E+00    1.300000E+10  0.00400  2.005E-05    0   0.5034   age193_m42            0.0000     6.9114E-05     6.5605   0.4846   106.2280
 17      0.0000     0.0000E+00    0.0000E+00    1.800000E+10  0.00400  1.525E-05    0   0.4967   age213_m42            0.0000     7.2188E-05     6.7085   0.4632   105.6674
 18      0.0000     0.0000E+00    0.0000E+00    1.000000E+06  0.00800  1.238E-02    0   1.0000   age020_m52            0.0000     2.4318E-04    11.5596   4.0000    96.9019
 19      0.0000     0.0000E+00    0.0000E+00    3.160000E+06  0.00800  3.074E-02    0   0.9966   age045_m52            0.0000     2.2801E-04    11.3639   4.0000    95.4736
 20      0.0000     0.0000E+00    0.0000E+00    5.010000E+06  0.00800  2.668E-02    0   0.9443   age055_m52            0.0000     2.1089E-04    11.4083   3.8337    95.1674
 21      0.0000     0.0000E+00    0.0000E+00    6.610000E+06  0.00800  2.136E-02    0   0.9177   age061_m52            0.0000     2.0658E-04    11.9691   2.5707   101.8425
 22      0.0000     0.0000E+00    0.0000E+00    1.000000E+07  0.00800  1.215E-02    0   0.8827   age070_m52            0.0000     2.4618E-04    13.0990   3.2454   100.2621
 23      0.0000     0.0000E+00    0.0000E+00    1.445000E+07  0.00800  8.717E-03    0   0.8552   age078_m52            0.0000     2.2912E-04    12.4677   3.3591    99.5076
 24      0.0000     0.0000E+00    0.0000E+00    2.512000E+07  0.00800  5.592E-03    0   0.8162   age090_m52            0.0000     2.2974E-04    12.7273   2.9919   102.6672
 25      0.0000     0.0000E+00    0.0000E+00    4.000000E+07  0.00800  3.896E-03    0   0.7841   age104_m52            0.0000     2.1179E-04    12.2264   2.8950   103.9217
 26      0.0000     0.0000E+00    0.0000E+00    1.015200E+08  0.00800  2.148E-03    0   0.7226   age116_m52            0.0000     1.8338E-04    11.2358   2.8242   104.3972
 27      0.0000     0.0000E+00    0.0000E+00    2.861200E+08  0.00800  9.925E-04    0   0.6683   age125_m52            0.0000     1.5371E-04    10.2578   2.3149   109.8091
 28      6.1209     1.5678E-01    1.9061E-01    9.047900E+08  0.00800  3.141E-04    0   0.6138   age135_m52            0.0000     9.9846E-05     8.3205   1.4982   115.5564
 29      0.0000     0.0000E+00    0.0000E+00    1.434000E+09  0.00800  1.719E-04    0   0.5853   age139_m52            0.0000     9.0333E-05     7.9374   0.9236   112.9428
 30      0.0000     0.0000E+00    0.0000E+00    2.500000E+09  0.00800  7.872E-05    0   0.5600   age150_m52            0.0000     6.3576E-05     6.4279   0.6594   110.2551
 31      0.0000     0.0000E+00    0.0000E+00    4.250000E+09  0.00800  4.336E-05    0   0.5426   age158_m52            0.0000     6.4288E-05     6.4702   0.6467   109.1344
 32      0.0000     0.0000E+00    0.0000E+00    6.250000E+09  0.00800  3.159E-05    0   0.5319   age166_m52            0.0000     5.1289E-05     5.6360   0.4347   109.7258
 33      8.1742     4.8322E+00    4.8555E+00    1.300000E+10  0.00800  1.361E-05    0   0.5073   age193_m52            0.0000     3.8849E-05     4.6585  -0.0442   109.7153
 34      0.0000     0.0000E+00    0.0000E+00    1.800000E+10  0.00800  9.886E-06    0   0.4990   age213_m52            0.0000     3.3130E-05     4.1756  -0.1633   109.8155
 35      0.0000     0.0000E+00    0.0000E+00    1.000000E+06  0.02000  1.544E-02    0   1.0000   age020_m62            0.0000     2.4407E-04    11.5681   4.0000    97.0054
 36      0.0000     0.0000E+00    0.0000E+00    3.160000E+06  0.02000  3.762E-02    0   0.9858   age045_m62            0.0000     2.3486E-04    11.4554   4.0000    96.0041
 37      0.0000     0.0000E+00    0.0000E+00    5.010000E+06  0.02000  3.296E-02    0   0.9342   age055_m62            0.0000     1.9076E-04    10.8482   3.6985    97.7893
 38      0.0000     0.0000E+00    0.0000E+00    8.710000E+06  0.02000  1.154E-02    0   0.8861   age067_m62            0.0000     3.8233E-04    16.9805   2.7118   101.2655
 39      0.0000     0.0000E+00    0.0000E+00    1.445000E+07  0.02000  7.663E-03    0   0.8472   age078_m62            0.0000     2.7858E-04    14.2087   2.8891   102.2046
 40      0.0000     0.0000E+00    0.0000E+00    2.512000E+07  0.02000  4.532E-03    0   0.8099   age090_m62            0.0000     2.8538E-04    14.4213   2.8772   101.9828
 41      0.0000     0.0000E+00    0.0000E+00    5.500000E+07  0.02000  2.733E-03    0   0.7595   age110_m62            0.0000     2.1387E-04    12.2410   2.8809   103.0479
 42      0.0000     0.0000E+00    0.0000E+00    1.609000E+08  0.02000  1.369E-03    0   0.6985   age120_m62            0.0000     1.7364E-04    10.8854   2.6954   107.2241
 43      0.0000     0.0000E+00    0.0000E+00    2.861200E+08  0.02000  9.013E-04    0   0.6714   age125_m62            0.0000     1.5075E-04    10.1339   2.4301   111.1900
 44      0.0000     0.0000E+00    0.0000E+00    5.088000E+08  0.02000  5.028E-04    0   0.6449   age130_m62            0.0000     1.1019E-04     8.6003   2.0354   115.2660
 45      0.0000     0.0000E+00    0.0000E+00    9.047900E+08  0.02000  2.428E-04    0   0.6179   age135_m62            0.0000     7.8279E-05     7.2909   1.4471   114.8456
 46      0.0000     0.0000E+00    0.0000E+00    1.434000E+09  0.02000  1.263E-04    0   0.5908   age139_m62            0.0000     6.6945E-05     6.6874   1.0081   113.0733
 47      0.5245     7.0507E-02    7.9226E-02    2.500000E+09  0.02000  5.985E-05    0   0.5673   age150_m62            0.0000     5.0772E-05     5.5937   0.6382   111.9735
 48      9.8113     2.4132E+00    2.6137E+00    4.250000E+09  0.02000  3.271E-05    0   0.5468   age158_m62            0.0000     3.5737E-05     4.4221   0.3203   111.8690
 49      7.5888     4.4894E+00    4.5946E+00    1.000000E+10  0.02000  1.360E-05    0   0.5167   age181_m62            0.0000     2.9037E-05     3.7668  -0.0484   112.5611
 50     24.8847     2.8104E+01    2.7905E+01    1.800000E+10  0.02000  7.124E-06    0   0.5013   age213_m62            0.0000     3.1402E-05     3.8245  -0.2751   112.5615
 51      0.0000     0.0000E+00    0.0000E+00    1.000000E+06  0.05000  2.592E-02    0   0.9998   age020_m72            0.0000     2.4889E-04    11.6729   4.0000    96.7520
 52      0.0000     0.0000E+00    0.0000E+00    3.160000E+06  0.05000  4.845E-02    0   0.9577   age045_m72            0.0000     2.1224E-04    11.2849   3.9726    94.5813
 53      0.0000     0.0000E+00    0.0000E+00    5.010000E+06  0.05000  3.072E-02    0   0.9147   age055_m72            0.0000     2.6757E-04    13.4654   3.4715    98.5286
 54      0.0000     0.0000E+00    0.0000E+00    6.610000E+06  0.05000  1.455E-02    0   0.8877   age061_m72            0.0000     5.1113E-04    20.0639   2.7206   101.9617
 55      0.0000     0.0000E+00    0.0000E+00    1.000000E+07  0.05000  9.074E-03    0   0.8524   age070_m72            0.0000     3.0038E-04    14.1497   3.6245    98.6733
 56      0.0000     0.0000E+00    0.0000E+00    2.512000E+07  0.05000  4.250E-03    0   0.7902   age090_m72            0.0000     2.6191E-04    13.4724   3.3304   100.8425
 57      0.0000     0.0000E+00    0.0000E+00    4.000000E+07  0.05000  3.087E-03    0   0.7618   age104_m72            0.0000     2.6121E-04    13.6084   3.0977   102.6918
 58      0.0000     0.0000E+00    0.0000E+00    1.015200E+08  0.05000  1.700E-03    0   0.7096   age116_m72            0.0000     1.9480E-04    11.6049   2.8375   106.5248
 59      2.2300     2.4298E-02    3.1923E-02    2.861200E+08  0.05000  7.384E-04    0   0.6633   age125_m72            0.0000     1.2806E-04     9.2990   2.2875   113.3929
 60      0.0000     0.0000E+00    0.0000E+00    5.088000E+08  0.05000  3.819E-04    0   0.6372   age130_m72            0.0000     8.5865E-05     7.5469   1.7892   115.9329
 61      1.7392     8.3490E-02    1.0104E-01    9.047900E+08  0.05000  1.676E-04    0   0.6110   age135_m72            0.0000     5.2031E-05     5.6756   1.0930   114.3579
 62      0.0000     0.0000E+00    0.0000E+00    1.434000E+09  0.05000  8.837E-05    0   0.5874   age139_m72            0.0000     4.7719E-05     5.3381   0.6281   114.0737
 63      0.1634     3.1048E-02    3.4426E-02    2.500000E+09  0.05000  4.233E-05    0   0.5598   age150_m72            0.0000     3.2132E-05     4.1163   0.3122   113.2562
 64      7.1117     3.9873E+00    4.1455E+00    6.250000E+09  0.05000  1.435E-05    0   0.5249   age166_m72            0.0000     2.8140E-05     3.6744  -0.1517   112.4460
 65     34.9596     4.3186E+01    4.3077E+01    1.300000E+10  0.05000  6.513E-06    0   0.5036   age193_m72            0.0000     3.5431E-05     4.0793  -0.4498   114.4721
 66      7.0898     1.2600E+01    1.2341E+01    1.800000E+10  0.05000  4.527E-06    0   0.4945   age213_m72            0.0000     4.4598E-05     4.6117  -0.6219   114.7791


## Synthesis Results - Average & Chains ##

# j      x_j: min, <> & last-chain-values for 1 ...  7 chains
  1      0.0000      1.4042      0.4066      0.1910      0.2446      0.3953      0.0000      0.1913      0.2592
  2      0.0000      1.5124      0.2816      0.1092      0.2329      0.0000      0.1616      0.1235      0.2441
  3      0.0000      1.2578      0.0711      0.0282      0.0148      0.0000      0.0097      0.0000      0.0565
  4      0.0000      1.2158      0.1602      0.1177      0.1181      0.4531      0.1660      0.1672      0.1464
  5      0.0000      1.1834      0.4055      0.0588      0.0675      0.4592      0.0000      0.0761      0.1206
  6      0.0000      1.5110      0.0590      0.3485      0.1496      0.1599      0.5432      0.1232      0.7949
  7      0.0000      1.4933      0.0639      0.0943      0.0474      0.0000      0.0155      0.0857      0.0605
  8      0.0000      1.3154      0.1816      0.0112      0.0933      0.0000      0.0008      0.0386      0.0000
  9      0.0000      1.4632      0.0000      0.0894      0.2293      0.2344      0.1560      0.2193      0.2348
 10      0.0000      1.4646      0.2950      0.1124      0.1066      0.0000      0.1224      0.1023      0.1394
 11      3.0687      1.2086      0.1605      0.0000      0.1440      0.8543      0.0840      0.0000      0.0095
 12      0.0000      1.4239      0.0000      0.0672      0.0000      0.0000      0.0000      0.0000      0.0000
 13      0.0000      1.3545      0.1490      0.0535      0.1330      0.2233      0.0790      0.1357      0.1455
 14      0.0000      1.4537      0.0866      0.1851      0.0493      0.3888      0.0296      0.0240      0.0778
 15      0.0000      1.3562      0.1952      0.0490      0.0091      0.1863      0.0033      0.0705      0.0000
 16      0.0000      1.7196      0.1472      0.0000      0.0039      0.1884      0.0000      0.0121      0.0394
 17      0.0000      1.5943      0.0432      0.0702      0.0581      0.1924      0.0666      0.0000      0.0000
 18      0.0000      1.6403      0.8071      3.2799      3.6135      3.0147      0.8119      3.5926      3.5743
 19      0.0000      1.0201      0.0000      0.0166      0.0364      0.0000      0.0375      0.1575      0.0484
 20      0.0000      1.5027      0.1510      0.1268      0.0138      0.3962      0.0000      0.0195      0.0224
 21      0.0000      1.4313      0.0832      0.0863      0.1103      0.0000      0.0514      0.1135      0.0680
 22      0.0000      1.0856      0.2080      0.2619      0.3284      0.0381      0.3170      0.3455      0.3745
 23      0.0000      1.3158      0.2358      0.1637      0.2383      0.2741      0.1664      0.2164      0.1811
 24      0.0000      1.0580      0.1113      0.4315      0.2630      0.2616      0.2964      0.4233      0.3019
 25      0.0000      1.2528      0.3031      0.0000      0.1720      0.0000      0.0995      0.1244      0.1447
 26      0.0000      1.0995      0.1149      0.1577      0.1716      0.0000      1.5823      0.2145      0.1958
 27      0.0000      1.3671      0.2413      0.7317      0.9567      0.9107      0.8922      0.9708      0.9926
 28      6.1209      1.7531      0.2045      1.2989      1.4785      1.0789      1.3348      1.4976      1.4242
 29      0.0000      1.3504      0.0750      0.0356      0.0000      0.2163      0.0175      0.0662      0.0023
 30      0.0000      1.2461      0.0719      0.2808      0.0195      0.0000      0.0575      0.0530      0.0494
 31      0.0000      1.7811      0.0673      0.1683      0.0099      0.2117      0.0445      0.0751      0.0776
 32      0.0000      1.3841      0.0296      0.0493      0.0454      1.2983      0.0153      0.0717      0.0320
 33      8.1742      2.7072      8.5468      8.5125      8.5569      8.4712      8.2379      8.4007      8.4348
 34      0.0000      1.9458      0.7838      3.5139      3.6656      3.2364      3.5351      3.5278      3.6502
 35      0.0000      1.5692      0.0000      0.4553      0.6373      0.4198      0.5113      0.5228      0.0000
 36      0.0000      1.5124      0.2446      0.1505      0.0767      0.0000      0.1104      0.1573      0.1183
 37      0.0000      1.8297      0.0725      0.0784      0.0511      0.1919      0.1410      0.1460      0.1494
 38      0.0000      1.4367      0.1253      0.0873      0.0736      0.2212      0.0888      0.1424      0.1142
 39      0.0000      1.6699      0.0000      0.0861      0.0751      0.1059      0.0418      0.1144      0.1516
 40      0.0000      1.3491      0.2509      0.1847      0.2617      0.3885      0.2135      0.1756      0.1053
 41      0.0000      1.3836      0.5739      0.2316      0.0000      0.3245      0.3221      0.4418      0.3254
 42      0.0000      1.5850      0.5222      0.5283      0.6770      0.7994      0.6244      0.6673      0.6398
 43      0.0000      2.0550      0.0583      0.0000      0.0000      0.0000      0.0447      0.0847      0.0661
 44      0.0000      1.6512      0.0665      0.0269      0.0037      0.0939      0.0358      0.0273      0.0756
 45      0.0000      0.8521      0.0000      0.1643      0.0803      0.0000      0.0836      0.1227      0.0836
 46      0.0000      1.4866      0.0000      0.3721      0.3106      0.2358      3.4209      0.1818      0.0000
