###################################################################
## OUTPUT of StarlightChains_v04.for    [Cid@UFSC - 01/Apr/2007] ##
###################################################################

## Some input info
KUG0210-078._32_23.txt                   [arq_obs]
Base.CB07.vall.4m                        [arq_base]
Masks.EmLines.NEW.gm                     [arq_masks]
StCv04.C11.config                        [arq_config]
   66                                    [N_base]
    0                                    [N_YAV_components = # of components with extra extinction!]
    0                                    [i_FitPowerLaw (1/0 = Yes/No)]
-9.99                                    [alpha_PowerLaw]
CCM                                      [red_law_option]
 1.458241                                [q_norm = A(l_norm)/A(V)]

## (Re)Sampling Parameters
 3741.00                                 [l_ini (A)]
 7218.00                                 [l_fin (A)]
    1.00                                 [dl    (A)]     (OBS: dl_cushion =    50.00 A)

## Normalization info
 4020.00                                 [l_norm (A) - for base]
 4010.00                                 [llow_norm (A) - window for f_obs]
 4060.00                                 [lupp_norm (A) - window for f_obs]
8.359466E-18                             [fobs_norm (in input units)]

## S/N
 3691.00                                 [llow_SN (A) - window for S/N]
 7268.00                                 [lupp_SN (A) - window for S/N]
   3.936                                 [S/N in S/N window]
   4.124                                 [S/N in norm. window]
   0.011                                 [S/N_err in S/N window]
   0.012                                 [S/N_err in norm. window]
  1.0000                                 [fscale_chi2]

## etc...
    -2007471                             [idum_orig]
  2364                                   [NOl_eff]
  1968                                   [Nl_eff]
   396    NSIGMA                         [Ntot_cliped & clip_method]
 10541090                                [Nglobal_steps]
   7                                     [N_chains]
  34                                     [NEX0s_base = N_base in EX0s-fits]
 0   0   1      396   2.0   7.525E+03    [Clip-Bug, RC-Crash & Burn-In warning-flags, n_censored_weights, wei_nsig_threshold & wei_limit]
    80     78.346     77.386      0.960  [idt_all, wdt_TotTime, wdt_UsrTime & wdt_SysTime (sec)]

## Synthesis Results - Best model ##

 3.84274E-06                             [chi2/Nl_eff]
    13.80098                             [adev (%)]

   123.65320                             [sum-of-x (%)]
 2.14234E-17                             [Flux_tot (units of input spectrum!)]
 3.33111E-13                             [Mini_tot (???)]
 1.70015E-13                             [Mcor_tot (???)]

  30.04                                  [v0_min  (km/s)]
  90.84                                  [vd_min  (km/s)]
 0.5426                                  [AV_min  (mag)]
 0.0000                                  [YAV_min (mag)]

# j     x_j(%)      Mini_j(%)     Mcor_j(%)     age_j(yr)     Z_j      (L/M)_j    YAV?  Mstars   component_j        a/Fe...       SSP_chi2r SSP_adev(%)   SSP_AV   SSP_x(%)
  1      0.0000     0.0000E+00    0.0000E+00    1.000000E+06  0.00400  1.094E-02    0   1.0000   age020_m42            0.0000     5.3653E-06    17.5419   2.5255   108.6545
  2      0.0269     3.4905E-05    6.8383E-05    3.160000E+06  0.00400  4.007E-02    0   0.9999   age045_m42            0.0000     5.0807E-06    16.7282   1.8832   112.2947
  3      0.0000     0.0000E+00    0.0000E+00    5.010000E+06  0.00400  2.539E-02    0   0.9488   age055_m42            0.0000     5.1508E-06    17.0234   2.1610   111.4847
  4      0.0000     0.0000E+00    0.0000E+00    6.610000E+06  0.00400  2.620E-02    0   0.9220   age061_m42            0.0000     4.9619E-06    16.5028   1.8087   112.7268
  5      0.0366     1.4409E-04    2.5019E-04    1.000000E+07  0.00400  1.322E-02    0   0.8862   age070_m42            0.0000     4.4632E-06    15.3067   1.5142   116.6532
  6      0.0000     0.0000E+00    0.0000E+00    1.445000E+07  0.00400  7.883E-03    0   0.8571   age078_m42            0.0000     4.6046E-06    15.6800   1.8234   114.3717
  7      0.0000     0.0000E+00    0.0000E+00    2.512000E+07  0.00400  5.251E-03    0   0.8174   age090_m42            0.0000     4.3619E-06    15.0386   1.3923   117.0949
  8      0.3007     4.2864E-03    6.5935E-03    4.000000E+07  0.00400  3.649E-03    0   0.7851   age104_m42            0.0000     4.3520E-06    14.9839   1.1848   117.0629
  9      0.0000     0.0000E+00    0.0000E+00    5.500000E+07  0.00400  3.098E-03    0   0.7629   age110_m42            0.0000     4.5232E-06    15.3487   1.3561   115.7881
 10      0.0000     0.0000E+00    0.0000E+00    1.015200E+08  0.00400  2.228E-03    0   0.7207   age116_m42            0.0000     4.6047E-06    15.5487   1.3858   115.3315
 11      0.0000     0.0000E+00    0.0000E+00    2.861200E+08  0.00400  1.093E-03    0   0.6648   age125_m42            0.0000     4.3211E-06    14.6823   0.8299   118.3913
 12      0.0000     0.0000E+00    0.0000E+00    5.088000E+08  0.00400  6.597E-04    0   0.6365   age130_m42            0.0000     4.4514E-06    15.0373   0.8345   118.3469
 13      0.0000     0.0000E+00    0.0000E+00    1.434000E+09  0.00400  2.132E-04    0   0.5798   age139_m42            0.0000     4.2659E-06    14.7758  -0.1002   118.8777
 14      0.0000     0.0000E+00    0.0000E+00    4.250000E+09  0.00400  5.895E-05    0   0.5377   age158_m42            0.0000     4.5494E-06    15.6061  -0.5429   113.8311
 15      0.2540     3.7639E-01    3.8437E-01    7.500000E+09  0.00400  3.510E-05    0   0.5212   age171_m42            0.0000     4.6473E-06    15.7749  -0.7280   112.7473
 16      0.0000     0.0000E+00    0.0000E+00    1.300000E+10  0.00400  2.005E-05    0   0.5034   age193_m42            0.0000     4.7718E-06    15.9986  -0.9010   112.3289
 17      0.0000     0.0000E+00    0.0000E+00    1.800000E+10  0.00400  1.525E-05    0   0.4967   age213_m42            0.0000     4.7398E-06    15.9410  -0.9254   111.9178
 18      0.1306     5.4852E-04    1.0747E-03    1.000000E+06  0.00800  1.238E-02    0   1.0000   age020_m52            0.0000     5.3633E-06    17.5533   2.5196   108.9548
 19      0.0000     0.0000E+00    0.0000E+00    3.160000E+06  0.00800  3.074E-02    0   0.9966   age045_m52            0.0000     5.3527E-06    17.5573   2.4479   109.7227
 20      0.8204     1.5993E-03    2.9590E-03    5.010000E+06  0.00800  2.668E-02    0   0.9443   age055_m52            0.0000     5.1489E-06    17.0765   2.2327   111.0214
 21      0.0000     0.0000E+00    0.0000E+00    6.610000E+06  0.00800  2.136E-02    0   0.9177   age061_m52            0.0000     4.4471E-06    15.4152   1.0089   118.1905
 22      0.0000     0.0000E+00    0.0000E+00    1.000000E+07  0.00800  1.215E-02    0   0.8827   age070_m52            0.0000     4.3543E-06    15.0337   1.6786   117.3083
 23      0.0000     0.0000E+00    0.0000E+00    1.445000E+07  0.00800  8.717E-03    0   0.8552   age078_m52            0.0000     4.5353E-06    15.5152   1.7937   115.7938
 24      7.8918     7.3401E-02    1.1738E-01    2.512000E+07  0.00800  5.592E-03    0   0.8162   age090_m52            0.0000     4.2757E-06    14.7606   1.4694   117.8912
 25      0.0000     0.0000E+00    0.0000E+00    4.000000E+07  0.00800  3.896E-03    0   0.7841   age104_m52            0.0000     4.2999E-06    14.7643   1.4050   117.4438
 26      0.0000     0.0000E+00    0.0000E+00    1.015200E+08  0.00800  2.148E-03    0   0.7226   age116_m52            0.0000     4.4676E-06    15.1739   1.3621   115.9875
 27      0.0000     0.0000E+00    0.0000E+00    2.861200E+08  0.00800  9.925E-04    0   0.6683   age125_m52            0.0000     4.3840E-06    14.8859   0.9149   118.6551
 28      0.0000     0.0000E+00    0.0000E+00    9.047900E+08  0.00800  3.141E-04    0   0.6138   age135_m52            0.0000     4.3744E-06    14.6898   0.2029   118.7362
 29      0.1127     3.4113E-02    3.9120E-02    1.434000E+09  0.00800  1.719E-04    0   0.5853   age139_m52            0.0000     4.2581E-06    14.6557  -0.3951   117.1074
 30      0.4914     3.2470E-01    3.5626E-01    2.500000E+09  0.00800  7.872E-05    0   0.5600   age150_m52            0.0000     4.5524E-06    15.4489  -0.6563   113.2640
 31      0.0000     0.0000E+00    0.0000E+00    4.250000E+09  0.00800  4.336E-05    0   0.5426   age158_m52            0.0000     4.6035E-06    15.5655  -0.6769   112.4092
 32      0.0000     0.0000E+00    0.0000E+00    6.250000E+09  0.00800  3.159E-05    0   0.5319   age166_m52            0.0000     4.7502E-06    15.8457  -0.8720   111.8787
 33      0.0000     0.0000E+00    0.0000E+00    1.300000E+10  0.00800  1.361E-05    0   0.5073   age193_m52            0.0000     5.3650E-06    15.7019  -1.0000    99.4975
 34     12.8989     6.7862E+01    6.6348E+01    1.800000E+10  0.00800  9.886E-06    0   0.4990   age213_m52            0.0000     5.8281E-06    15.9972  -1.0000    95.1903
 35      2.3494     7.9142E-03    1.5506E-02    1.000000E+06  0.02000  1.544E-02    0   1.0000   age020_m62            0.0000     5.3755E-06    17.5915   2.5100   109.4691
 36      0.0000     0.0000E+00    0.0000E+00    3.160000E+06  0.02000  3.762E-02    0   0.9858   age045_m62            0.0000     5.3913E-06    17.6705   2.4397   110.8512
 37      0.5562     8.7771E-04    1.6066E-03    5.010000E+06  0.02000  3.296E-02    0   0.9342   age055_m62            0.0000     5.1434E-06    17.0019   2.1331   112.2539
 38      0.0000     0.0000E+00    0.0000E+00    8.710000E+06  0.02000  1.154E-02    0   0.8861   age067_m62            0.0000     3.6072E-06    13.1199   1.0684   125.7297
 39     17.9373     1.2175E-01    2.0209E-01    1.445000E+07  0.02000  7.663E-03    0   0.8472   age078_m62            0.0000     4.0542E-06    14.1681   1.3246   120.5205
 40      0.0000     0.0000E+00    0.0000E+00    2.512000E+07  0.02000  4.532E-03    0   0.8099   age090_m62            0.0000     3.9782E-06    13.9691   1.3200   120.1296
 41      0.0000     0.0000E+00    0.0000E+00    5.500000E+07  0.02000  2.733E-03    0   0.7595   age110_m62            0.0000     4.2805E-06    14.8038   1.3748   117.2647
 42      0.0000     0.0000E+00    0.0000E+00    1.609000E+08  0.02000  1.369E-03    0   0.6985   age120_m62            0.0000     4.4048E-06    14.9990   1.2588   117.8188
 43      2.0997     1.2117E-01    1.5939E-01    2.861200E+08  0.02000  9.013E-04    0   0.6714   age125_m62            0.0000     4.4350E-06    14.9296   1.0465   119.1401
 44      0.0000     0.0000E+00    0.0000E+00    5.088000E+08  0.02000  5.028E-04    0   0.6449   age130_m62            0.0000     4.6214E-06    15.1437   0.7362   118.3553
 45      0.0000     0.0000E+00    0.0000E+00    9.047900E+08  0.02000  2.428E-04    0   0.6179   age135_m62            0.0000     4.4941E-06    15.0627   0.1798   115.9195
 46      0.0000     0.0000E+00    0.0000E+00    1.434000E+09  0.02000  1.263E-04    0   0.5908   age139_m62            0.0000     4.4617E-06    15.1667  -0.2698   114.3773
 47      0.0000     0.0000E+00    0.0000E+00    2.500000E+09  0.02000  5.985E-05    0   0.5673   age150_m62            0.0000     4.6771E-06    15.7206  -0.6362   112.5128
 48      0.0000     0.0000E+00    0.0000E+00    4.250000E+09  0.02000  3.271E-05    0   0.5468   age158_m62            0.0000     4.9259E-06    16.2108  -0.9342   110.9396
 49      0.0000     0.0000E+00    0.0000E+00    1.000000E+10  0.02000  1.360E-05    0   0.5167   age181_m62            0.0000     5.3586E-06    15.9729  -1.0000   100.4892
 50      0.1186     8.6557E-01    8.5016E-01    1.800000E+10  0.02000  7.124E-06    0   0.5013   age213_m62            0.0000     6.0010E-06    16.1965  -1.0000    92.5254
 51     41.3010     8.2874E-02    1.6234E-01    1.000000E+06  0.05000  2.592E-02    0   0.9998   age020_m72            0.0000     5.3804E-06    17.6141   2.4958   109.8049
 52      0.8538     9.1650E-04    1.7197E-03    3.160000E+06  0.05000  4.845E-02    0   0.9577   age045_m72            0.0000     5.3355E-06    17.5346   2.3482   111.1214
 53     16.2297     2.7478E-02    4.9245E-02    5.010000E+06  0.05000  3.072E-02    0   0.9147   age055_m72            0.0000     4.4643E-06    15.2832   1.8796   116.5948
 54      0.0000     0.0000E+00    0.0000E+00    6.610000E+06  0.05000  1.455E-02    0   0.8877   age061_m72            0.0000     3.6803E-06    13.1154   1.0702   129.3671
 55      0.0000     0.0000E+00    0.0000E+00    1.000000E+07  0.05000  9.074E-03    0   0.8524   age070_m72            0.0000     4.5724E-06    15.5753   2.0459   116.6237
 56      1.3919     1.7034E-02    2.6373E-02    2.512000E+07  0.05000  4.250E-03    0   0.7902   age090_m72            0.0000     4.3567E-06    14.8481   1.8042   116.3904
 57      5.6648     9.5443E-02    1.4246E-01    4.000000E+07  0.05000  3.087E-03    0   0.7618   age104_m72            0.0000     4.2269E-06    14.4580   1.5936   117.6921
 58      0.0000     0.0000E+00    0.0000E+00    1.015200E+08  0.05000  1.700E-03    0   0.7096   age116_m72            0.0000     4.3189E-06    14.7229   1.3872   118.2141
 59      0.0000     0.0000E+00    0.0000E+00    2.861200E+08  0.05000  7.384E-04    0   0.6633   age125_m72            0.0000     4.4513E-06    14.8835   0.9615   118.1396
 60      0.0000     0.0000E+00    0.0000E+00    5.088000E+08  0.05000  3.819E-04    0   0.6372   age130_m72            0.0000     4.5266E-06    15.1109   0.5279   116.6815
 61      1.7364     5.3884E-01    6.4506E-01    9.047900E+08  0.05000  1.676E-04    0   0.6110   age135_m72            0.0000     4.6896E-06    15.6697  -0.1356   112.5877
 62      2.2129     1.3024E+00    1.4989E+00    1.434000E+09  0.05000  8.837E-05    0   0.5874   age139_m72            0.0000     4.6279E-06    15.5006  -0.5987   112.2661
 63      0.8409     1.0332E+00    1.1332E+00    2.500000E+09  0.05000  4.233E-05    0   0.5598   age150_m72            0.0000     4.9474E-06    16.2110  -0.9067   110.4234
 64      7.3281     2.6560E+01    2.7316E+01    6.250000E+09  0.05000  1.435E-05    0   0.5249   age166_m72            0.0000     5.5739E-06    16.0254  -1.0000    96.7166
 65      0.0685     5.4726E-01    5.3999E-01    1.300000E+10  0.05000  6.513E-06    0   0.5036   age193_m72            0.0000     6.6468E-06    16.5603  -1.0000    88.1701
 66      0.0000     0.0000E+00    0.0000E+00    1.800000E+10  0.05000  4.527E-06    0   0.4945   age213_m72            0.0000     7.4618E-06    17.0974  -1.0000    82.8041


## Synthesis Results - Average & Chains ##

# j      x_j: min, <> & last-chain-values for 1 ...  7 chains
  1      0.0000      0.2598      0.2346      0.4778      0.0190      0.2928      0.1786      0.0000      0.3514
  2      0.0269      0.2016      0.1465      1.0776      0.0498      0.1437      0.0992      0.2646      0.0641
  3      0.0000      0.1930      0.0712      0.7888      0.0554      0.0000      0.1637      0.1342      0.2468
  4      0.0000      0.2131      0.0795      0.0000      0.1532      0.1954      0.0223      0.7246      0.2538
  5      0.0366      0.1931      0.0346      0.8081      0.0360      0.0000      0.0000      0.8985      0.2720
  6      0.0000      0.2053      0.0000      0.0474      0.1553      0.0854      0.0000      0.0000      0.5261
  7      0.0000      0.2086      0.1566      0.0000      0.0304      0.3816      0.1156      0.0000      0.0000
  8      0.3007      0.2342      0.1873      0.4985      0.0488      0.0000      0.2853      1.3760      0.4718
  9      0.0000      0.1833      0.1593      0.0000      0.0022      0.2650      0.1477      0.2195      0.1785
 10      0.0000      0.2448      0.0000      0.0701      0.2601      0.0173      0.1912      1.2776      0.1932
 11      0.0000      0.2103      0.0000      0.1073      0.0674      0.2349      0.2235      0.0000      0.0000
 12      0.0000      0.2664      0.1016      0.0177      0.3001      0.5577      0.0908      0.9331      0.0395
 13      0.0000      0.1679      0.0119      0.0000      0.0978      0.4462      0.0734      0.3969      0.5455
 14      0.0000      0.2191      0.0074      0.5538      0.0904      0.9431      0.2436      0.0000      0.3838
 15      0.2540      0.2011      0.0000      1.7027      0.1491      0.3360      0.1286      0.8036      0.2161
 16      0.0000      0.2832      0.0062      0.3683      0.0277      0.1128      0.0558      1.2384      1.3054
 17      0.0000      0.2334      0.1218      0.2943      0.0881      0.1872      0.0902      1.8570      0.4850
 18      0.1306      0.2291      0.1001      0.4920      0.0444      0.5919      0.3074      0.0304      0.2756
 19      0.0000      0.1953      0.0348      0.0992      0.0000      0.6427      0.1321      0.0000      1.2730
 20      0.8204      0.1711      0.0613      0.5153      0.2516      0.0756      0.2181      0.0842      0.0000
 21      0.0000      0.2101      0.2298      0.3400      0.1358      0.0000      0.0000      0.6228      0.2880
 22      0.0000      0.2379      0.1190      0.0000      0.1171      0.0000      0.1139      0.5636      0.5076
 23      0.0000      0.1672      0.0540      0.0000      0.0000      0.4493      0.0000      0.2881      0.8389
 24      7.8918      0.2359      0.2007      1.3056      0.0193      0.0000      0.2048      1.3587      0.4207
 25      0.0000      0.2094      0.1328      0.0000      0.1367      0.0310      0.2384      0.1877      0.3562
 26      0.0000      0.2162      0.0725      0.0000      0.2296      0.0000      0.2987      0.9486      0.3159
 27      0.0000      0.1778      0.0170      0.0590      0.0000      0.2090      0.0061      1.1274      0.6396
 28      0.0000      0.1990      0.0143      0.2560      0.0509      0.2874      0.0460      0.0000      1.1654
 29      0.1127      0.2888      0.0668      0.4529      0.2565      0.2507      0.0643      0.0000      1.3819
 30      0.4914      0.2282      0.0135      1.2583      0.0489      0.1089      0.0677      0.3593      0.6668
 31      0.0000      0.2756      0.1414      0.0837      0.3828      1.2803      0.3392      0.5407      0.1061
 32      0.0000     32.7275     37.0187     29.7882     36.6049     31.8925     31.1164     25.3439     26.5971
 33      0.0000      0.1346      0.0000      0.1187      0.0386      0.0000      0.0596      0.0000      0.0202
 34     12.8989     11.5007     11.3711     12.5970     11.6812     11.9857     12.8546     10.4635      9.7851
 35      2.3494      0.2071      0.1382      0.2802      0.1462      0.0331      0.0017      0.8989      0.7999
 36      0.0000      0.2668      0.0459      0.2740      0.1076      0.2752      0.0790      0.2329      0.1426
 37      0.5562      0.2545      0.0129      0.3752      0.1943      0.0688      0.1659      0.0629      0.7940
 38      0.0000      0.2114      0.0833      0.0697      0.2031      0.0000      0.0871      0.0000      0.3667
 39     17.9373      0.1857      0.1563      0.3156      0.1962      0.1362      0.0076      0.1991      0.8159
 40      0.0000      0.2748      0.0000      0.1977      0.3905      0.0000      0.2704      0.4437      0.2771
 41      0.0000      0.1432      0.1816      0.0000      0.0062      0.4670      0.0411      0.2812      0.2914
 42      0.0000      0.2106      0.1520      1.0192      0.0344      0.0621      0.0000      0.4518      0.3529
 43      2.0997      0.2062      0.1381      0.9782      0.2723      0.0602      0.2414      0.6078      0.3830
 44      0.0000      0.1959      0.0338      0.2677      0.2026      0.0000      0.1374      0.4322      0.2098
 45      0.0000      0.2554      0.2437      0.1575      0.0000      0.0000      0.3718      0.1651      0.0171
 46      0.0000      0.1876      0.0000      0.0000      0.0650      0.0234      0.0001      0.7763      0.0000
