###################################################################
## OUTPUT of StarlightChains_v04.for    [Cid@UFSC - 01/Apr/2007] ##
###################################################################

## Some input info
KUG0210-078._24_37.txt                   [arq_obs]
Base.CB07.vall.4m                        [arq_base]
Masks.EmLines.NEW.gm                     [arq_masks]
StCv04.C11.config                        [arq_config]
   66                                    [N_base]
    0                                    [N_YAV_components = # of components with extra extinction!]
    0                                    [i_FitPowerLaw (1/0 = Yes/No)]
-9.99                                    [alpha_PowerLaw]
CCM                                      [red_law_option]
 1.458241                                [q_norm = A(l_norm)/A(V)]

## (Re)Sampling Parameters
 3741.00                                 [l_ini (A)]
 7218.00                                 [l_fin (A)]
    1.00                                 [dl    (A)]     (OBS: dl_cushion =    50.00 A)

## Normalization info
 4020.00                                 [l_norm (A) - for base]
 4010.00                                 [llow_norm (A) - window for f_obs]
 4060.00                                 [lupp_norm (A) - window for f_obs]
1.009942E-17                             [fobs_norm (in input units)]

## S/N
 3691.00                                 [llow_SN (A) - window for S/N]
 7268.00                                 [lupp_SN (A) - window for S/N]
   4.066                                 [S/N in S/N window]
   4.171                                 [S/N in norm. window]
   0.016                                 [S/N_err in S/N window]
   0.016                                 [S/N_err in norm. window]
  1.0000                                 [fscale_chi2]

## etc...
    -2007287                             [idum_orig]
  2414                                   [NOl_eff]
  1938                                   [Nl_eff]
   476    NSIGMA                         [Ntot_cliped & clip_method]
  7656600                                [Nglobal_steps]
   7                                     [N_chains]
  15                                     [NEX0s_base = N_base in EX0s-fits]
 0   0   1      476   2.0   9.872E+03    [Clip-Bug, RC-Crash & Burn-In warning-flags, n_censored_weights, wei_nsig_threshold & wei_limit]
    55     55.269     54.872      0.396  [idt_all, wdt_TotTime, wdt_UsrTime & wdt_SysTime (sec)]

## Synthesis Results - Best model ##

 5.22870E-05                             [chi2/Nl_eff]
    42.16931                             [adev (%)]

   123.76987                             [sum-of-x (%)]
 2.50471E-17                             [Flux_tot (units of input spectrum!)]
 2.27320E-13                             [Mini_tot (???)]
 1.28844E-13                             [Mcor_tot (???)]

 219.19                                  [v0_min  (km/s)]
  10.32                                  [vd_min  (km/s)]
 0.5175                                  [AV_min  (mag)]
 0.0000                                  [YAV_min (mag)]

# j     x_j(%)      Mini_j(%)     Mcor_j(%)     age_j(yr)     Z_j      (L/M)_j    YAV?  Mstars   component_j        a/Fe...       SSP_chi2r SSP_adev(%)   SSP_AV   SSP_x(%)
  1      0.7200     5.8588E-03    1.0337E-02    1.000000E+06  0.00400  1.094E-02    0   1.0000   age020_m42            0.0000     5.1873E-05    42.3674   3.2372   112.1306
  2      0.0000     0.0000E+00    0.0000E+00    3.160000E+06  0.00400  4.007E-02    0   0.9999   age045_m42            0.0000     5.2711E-05    42.5329   2.5639   117.4309
  3      0.0000     0.0000E+00    0.0000E+00    5.010000E+06  0.00400  2.539E-02    0   0.9488   age055_m42            0.0000     5.2029E-05    42.3476   2.8544   115.8383
  4      0.0000     0.0000E+00    0.0000E+00    6.610000E+06  0.00400  2.620E-02    0   0.9220   age061_m42            0.0000     5.2612E-05    42.4247   2.4812   118.1810
  5      0.0000     0.0000E+00    0.0000E+00    1.000000E+07  0.00400  1.322E-02    0   0.8862   age070_m42            0.0000     5.4405E-05    42.6326   2.1537   124.0151
  6      0.0000     0.0000E+00    0.0000E+00    1.445000E+07  0.00400  7.883E-03    0   0.8571   age078_m42            0.0000     5.4238E-05    42.6409   2.4766   120.9249
  7      0.0000     0.0000E+00    0.0000E+00    2.512000E+07  0.00400  5.251E-03    0   0.8174   age090_m42            0.0000     5.4868E-05    42.6956   2.0207   125.0901
  8      0.0000     0.0000E+00    0.0000E+00    4.000000E+07  0.00400  3.649E-03    0   0.7851   age104_m42            0.0000     5.5062E-05    42.7628   1.8079   125.3806
  9      0.0000     0.0000E+00    0.0000E+00    5.500000E+07  0.00400  3.098E-03    0   0.7629   age110_m42            0.0000     5.4269E-05    42.6210   1.9883   123.4887
 10      0.0000     0.0000E+00    0.0000E+00    1.015200E+08  0.00400  2.228E-03    0   0.7207   age116_m42            0.0000     5.3663E-05    42.5151   2.0258   122.5546
 11      0.0000     0.0000E+00    0.0000E+00    2.861200E+08  0.00400  1.093E-03    0   0.6648   age125_m42            0.0000     5.4666E-05    42.4608   1.4493   127.1103
 12      0.0000     0.0000E+00    0.0000E+00    5.088000E+08  0.00400  6.597E-04    0   0.6365   age130_m42            0.0000     5.4013E-05    42.4695   1.4716   126.1133
 13      0.0000     0.0000E+00    0.0000E+00    1.434000E+09  0.00400  2.132E-04    0   0.5798   age139_m42            0.0000     5.2846E-05    42.2703   0.5307   126.8772
 14      0.0000     0.0000E+00    0.0000E+00    4.250000E+09  0.00400  5.895E-05    0   0.5377   age158_m42            0.0000     5.1713E-05    42.1602   0.1100   120.4646
 15     14.1529     3.5896E+01    3.3008E+01    7.500000E+09  0.00400  3.510E-05    0   0.5212   age171_m42            0.0000     5.1810E-05    42.1573  -0.0595   118.6103
 16      0.0000     0.0000E+00    0.0000E+00    1.300000E+10  0.00400  2.005E-05    0   0.5034   age193_m42            0.0000     5.2422E-05    42.2451  -0.2114   117.2883
 17      0.0000     0.0000E+00    0.0000E+00    1.800000E+10  0.00400  1.525E-05    0   0.4967   age213_m42            0.0000     5.2105E-05    42.1949  -0.2395   117.0426
 18      0.0000     0.0000E+00    0.0000E+00    1.000000E+06  0.00800  1.238E-02    0   1.0000   age020_m52            0.0000     5.1758E-05    42.3418   3.2335   112.3193
 19      0.0000     0.0000E+00    0.0000E+00    3.160000E+06  0.00800  3.074E-02    0   0.9966   age045_m52            0.0000     5.1621E-05    42.3286   3.1628   113.0050
 20      0.0000     0.0000E+00    0.0000E+00    5.010000E+06  0.00800  2.668E-02    0   0.9443   age055_m52            0.0000     5.2127E-05    42.4133   2.9334   115.0244
 21      0.0000     0.0000E+00    0.0000E+00    6.610000E+06  0.00800  2.136E-02    0   0.9177   age061_m52            0.0000     5.3379E-05    42.5079   1.6526   125.3365
 22      0.0000     0.0000E+00    0.0000E+00    1.000000E+07  0.00800  1.215E-02    0   0.8827   age070_m52            0.0000     5.4755E-05    42.6143   2.3172   124.7733
 23      0.0000     0.0000E+00    0.0000E+00    1.445000E+07  0.00800  8.717E-03    0   0.8552   age078_m52            0.0000     5.4142E-05    42.5976   2.4428   122.5857
 24      0.0000     0.0000E+00    0.0000E+00    2.512000E+07  0.00800  5.592E-03    0   0.8162   age090_m52            0.0000     5.4528E-05    42.5492   2.0888   126.3178
 25      0.0000     0.0000E+00    0.0000E+00    4.000000E+07  0.00800  3.896E-03    0   0.7841   age104_m52            0.0000     5.4554E-05    42.5265   2.0207   126.0927
 26      3.7957     1.5731E-01    2.0056E-01    1.015200E+08  0.00800  2.148E-03    0   0.7226   age116_m52            0.0000     5.4098E-05    42.5625   1.9874   124.0759
 27      0.0000     0.0000E+00    0.0000E+00    2.861200E+08  0.00800  9.925E-04    0   0.6683   age125_m52            0.0000     5.3815E-05    42.3845   1.5380   127.1482
 28      0.0000     0.0000E+00    0.0000E+00    9.047900E+08  0.00800  3.141E-04    0   0.6138   age135_m52            0.0000     5.2670E-05    42.1702   0.8113   128.0241
 29      0.0000     0.0000E+00    0.0000E+00    1.434000E+09  0.00800  1.719E-04    0   0.5853   age139_m52            0.0000     5.2592E-05    42.1285   0.2268   125.7898
 30      0.0000     0.0000E+00    0.0000E+00    2.500000E+09  0.00800  7.872E-05    0   0.5600   age150_m52            0.0000     5.2736E-05    42.3048  -0.0088   120.3927
 31      0.0000     0.0000E+00    0.0000E+00    4.250000E+09  0.00800  4.336E-05    0   0.5426   age158_m52            0.0000     5.2687E-05    42.3324  -0.0230   119.1704
 32      0.0000     0.0000E+00    0.0000E+00    6.250000E+09  0.00800  3.159E-05    0   0.5319   age166_m52            0.0000     5.2735E-05    42.3496  -0.1985   117.6711
 33      0.0000     0.0000E+00    0.0000E+00    1.300000E+10  0.00800  1.361E-05    0   0.5073   age193_m52            0.0000     5.2286E-05    42.1706  -0.6338   114.9771
 34      0.0000     0.0000E+00    0.0000E+00    1.800000E+10  0.00800  9.886E-06    0   0.4990   age213_m52            0.0000     5.2414E-05    42.1720  -0.7132   112.8784
 35      0.0000     0.0000E+00    0.0000E+00    1.000000E+06  0.02000  1.544E-02    0   1.0000   age020_m62            0.0000     5.1809E-05    42.3709   3.2299   112.5804
 36      0.0000     0.0000E+00    0.0000E+00    3.160000E+06  0.02000  3.762E-02    0   0.9858   age045_m62            0.0000     5.1848E-05    42.3574   3.1705   113.4808
 37      0.0000     0.0000E+00    0.0000E+00    5.010000E+06  0.02000  3.296E-02    0   0.9342   age055_m62            0.0000     5.2093E-05    42.3706   2.8279   116.5605
 38      0.0000     0.0000E+00    0.0000E+00    8.710000E+06  0.02000  1.154E-02    0   0.8861   age067_m62            0.0000     5.8753E-05    42.7871   1.6644   136.4513
 39      0.0000     0.0000E+00    0.0000E+00    1.445000E+07  0.02000  7.663E-03    0   0.8472   age078_m62            0.0000     5.6022E-05    42.6584   1.9408   129.6063
 40      0.0000     0.0000E+00    0.0000E+00    2.512000E+07  0.02000  4.532E-03    0   0.8099   age090_m62            0.0000     5.6522E-05    42.6677   1.9321   129.4854
 41      1.4250     4.6418E-02    6.2200E-02    5.500000E+07  0.02000  2.733E-03    0   0.7595   age110_m62            0.0000     5.4814E-05    42.6288   1.9970   125.6521
 42      0.0000     0.0000E+00    0.0000E+00    1.609000E+08  0.02000  1.369E-03    0   0.6985   age120_m62            0.0000     5.4434E-05    42.5908   1.8810   126.2679
 43      0.0000     0.0000E+00    0.0000E+00    2.861200E+08  0.02000  9.013E-04    0   0.6714   age125_m62            0.0000     5.4586E-05    42.6745   1.6608   128.1696
 44      0.0000     0.0000E+00    0.0000E+00    5.088000E+08  0.02000  5.028E-04    0   0.6449   age130_m62            0.0000     5.4045E-05    42.6320   1.3429   127.8318
 45      0.0000     0.0000E+00    0.0000E+00    9.047900E+08  0.02000  2.428E-04    0   0.6179   age135_m62            0.0000     5.2634E-05    42.3065   0.7842   125.2650
 46      0.0000     0.0000E+00    0.0000E+00    1.434000E+09  0.02000  1.263E-04    0   0.5908   age139_m62            0.0000     5.3395E-05    42.5269   0.3525   122.9384
 47      0.0000     0.0000E+00    0.0000E+00    2.500000E+09  0.02000  5.985E-05    0   0.5673   age150_m62            0.0000     5.3086E-05    42.4671   0.0155   119.4716
 48      0.0000     0.0000E+00    0.0000E+00    4.250000E+09  0.02000  3.271E-05    0   0.5468   age158_m62            0.0000     5.3293E-05    42.4829  -0.2519   116.3747
 49      0.0000     0.0000E+00    0.0000E+00    1.000000E+10  0.02000  1.360E-05    0   0.5167   age181_m62            0.0000     5.3699E-05    42.4745  -0.5465   113.0769
 50      0.0000     0.0000E+00    0.0000E+00    1.800000E+10  0.02000  7.124E-06    0   0.5013   age213_m62            0.0000     5.4286E-05    42.5776  -0.7098   109.8918
 51      0.0000     0.0000E+00    0.0000E+00    1.000000E+06  0.05000  2.592E-02    0   0.9998   age020_m72            0.0000     5.1676E-05    42.3324   3.2143   112.9464
 52      0.0000     0.0000E+00    0.0000E+00    3.160000E+06  0.05000  4.845E-02    0   0.9577   age045_m72            0.0000     5.1797E-05    42.3306   3.0700   114.1369
 53      0.0000     0.0000E+00    0.0000E+00    5.010000E+06  0.05000  3.072E-02    0   0.9147   age055_m72            0.0000     5.4958E-05    42.5996   2.5551   122.5330
 54      0.0000     0.0000E+00    0.0000E+00    6.610000E+06  0.05000  1.455E-02    0   0.8877   age061_m72            0.0000     6.2030E-05    42.5466   1.6955   140.1873
 55      0.0000     0.0000E+00    0.0000E+00    1.000000E+07  0.05000  9.074E-03    0   0.8524   age070_m72            0.0000     5.5909E-05    42.5596   2.7575   121.5805
 56      0.0000     0.0000E+00    0.0000E+00    2.512000E+07  0.05000  4.250E-03    0   0.7902   age090_m72            0.0000     5.5768E-05    42.5768   2.4597   123.5773
 57      0.0000     0.0000E+00    0.0000E+00    4.000000E+07  0.05000  3.087E-03    0   0.7618   age104_m72            0.0000     5.5832E-05    42.4881   2.2291   125.9355
 58      0.0000     0.0000E+00    0.0000E+00    1.015200E+08  0.05000  1.700E-03    0   0.7096   age116_m72            0.0000     5.4779E-05    42.5552   2.0066   126.8735
 59      2.2917     2.7630E-01    3.2334E-01    2.861200E+08  0.05000  7.384E-04    0   0.6633   age125_m72            0.0000     5.3843E-05    42.4760   1.5611   127.7671
 60     39.7678     9.2701E+00    1.0422E+01    5.088000E+08  0.05000  3.819E-04    0   0.6372   age130_m72            0.0000     5.2244E-05    42.1975   1.1187   126.5328
 61     47.8630     2.5423E+01    2.7406E+01    9.047900E+08  0.05000  1.676E-04    0   0.6110   age135_m72            0.0000     5.1919E-05    42.2164   0.4705   121.4684
 62      0.0000     0.0000E+00    0.0000E+00    1.434000E+09  0.05000  8.837E-05    0   0.5874   age139_m72            0.0000     5.1968E-05    42.0853   0.0238   120.4083
 63     13.7537     2.8925E+01    2.8568E+01    2.500000E+09  0.05000  4.233E-05    0   0.5598   age150_m72            0.0000     5.3020E-05    42.3458  -0.2349   116.2906
 64      0.0000     0.0000E+00    0.0000E+00    6.250000E+09  0.05000  1.435E-05    0   0.5249   age166_m72            0.0000     5.3815E-05    42.4571  -0.6231   111.5956
 65      0.0000     0.0000E+00    0.0000E+00    1.300000E+10  0.05000  6.513E-06    0   0.5036   age193_m72            0.0000     5.4812E-05    42.6215  -0.8452   109.8119
 66      0.0000     0.0000E+00    0.0000E+00    1.800000E+10  0.05000  4.527E-06    0   0.4945   age213_m72            0.0000     5.4947E-05    42.5550  -0.9744   107.9676


## Synthesis Results - Average & Chains ##

# j      x_j: min, <> & last-chain-values for 1 ...  7 chains
  1      0.7200      0.4426      0.2546      0.3863      0.3960      0.4902      0.4004      0.4379      0.3751
  2      0.0000      0.2897      0.0502      0.0329      0.0460      0.1356      0.0752      0.1135      0.0428
  3      0.0000      0.2159      0.0000      0.0435      0.0000      0.0366      0.0000      0.0000      0.0671
  4      0.0000      0.2307      0.1143      0.0045      0.0225      0.0506      0.0068      0.0000      0.1909
  5      0.0000      0.2715      0.0564      0.0000      0.0066      0.1600      0.1208      0.0137      0.0391
  6      0.0000      0.2579      0.0810      0.0327      0.0743      0.1561      0.0609      0.0835      0.0878
  7      0.0000      0.5105      0.4243      0.6341      0.5017      0.4884      0.5951      0.7308      0.4613
  8      0.0000      0.4836      0.4827      0.5133      0.5295      0.5566      0.6527      0.4063      0.7560
  9      0.0000      0.3070      0.0000      0.2666      0.2045      0.1892      0.3960      0.3547      0.3221
 10      0.0000      0.2958      0.0414      0.0000      0.0000      0.1043      0.0323      0.1590      0.2253
 11      0.0000      0.2107      0.0332      0.0016      0.0022      0.1198      0.2828      0.0490      0.0516
 12      0.0000      0.3282      0.0951      0.0175      0.0313      0.0000      0.0177      0.1225      0.0671
 13      0.0000      0.1719      0.0404      0.0000      0.0327      0.2071      0.0667      0.0000      0.0186
 14      0.0000      0.2542      0.2009      0.0000      0.1574      0.0000      0.2484      0.0796      0.0076
 15     14.1529     11.0958     12.0981     12.0217     11.9676     11.9408     12.1230     11.5512     12.1271
 16      0.0000      3.1037      3.1837      3.4302      3.4709      3.4606      3.4506      3.3893      3.0811
 17      0.0000      0.2298      0.0809      0.0000      0.0326      0.1607      0.0792      0.0319      0.0688
 18      0.0000      0.2155      0.1336      0.1863      0.2542      0.2511      0.3227      0.0448      0.0000
 19      0.0000      0.3215      0.1856      0.2526      0.3688      0.1161      0.2786      0.4566      0.2459
 20      0.0000      0.2150      0.0000      0.0000      0.0000      0.0000      0.0000      0.0818      0.1991
 21      0.0000      0.2165      0.1418      0.0252      0.0684      0.0679      0.0325      0.1850      0.0012
 22      0.0000      0.1997      0.0079      0.0214      0.0232      0.0334      0.0000      0.0000      0.0801
 23      0.0000      0.2747      0.2390      0.0609      0.2298      0.1466      0.0079      0.1862      0.1160
 24      0.0000      0.3893      0.3447      0.4925      0.3485      0.4468      0.3182      0.4356      0.2914
 25      0.0000      0.6538      0.4995      0.4962      0.4221      0.4956      0.4157      0.4735      0.3919
 26      3.7957      0.4838      0.4838      0.5731      0.6279      0.6091      0.5311      0.5814      0.4810
 27      0.0000      0.1862      0.2057      0.0285      0.0112      0.0763      0.0000      0.0993      0.0993
 28      0.0000      0.2071      0.0950      0.0177      0.0938      0.0020      0.2986      0.0612      0.0765
 29      0.0000      0.1644      0.0617      0.0020      0.0050      0.0251      0.0000      0.2348      0.0000
 30      0.0000      0.1278      0.0000      0.1041      0.0000      0.0000      0.0698      0.0832      0.0775
 31      0.0000      0.2434      0.0691      0.0000      0.0064      0.2419      0.0000      0.1889      0.0325
 32      0.0000      0.2825      0.1907      0.0524      0.0021      0.0525      0.0288      0.0000      0.0410
 33      0.0000      0.2244      0.0000      0.0027      0.0453      0.0471      0.0117      0.2080      0.1914
 34      0.0000      0.1883      0.0252      0.0200      0.0000      0.0000      0.0000      0.0000      0.0273
 35      0.0000      0.4421      0.1618      0.2703      0.3459      0.2654      0.3272      0.3957      0.4531
 36      0.0000      0.3079      0.0358      0.0527      0.0729      0.0000      0.0852      0.2595      0.1071
 37      0.0000      0.2528      0.1154      0.0245      0.0000      0.0555      0.0000      0.0579      0.0686
 38      0.0000      0.3086      0.3483      0.0221      0.0585      0.1236      0.0928      0.0810      0.0538
 39      0.0000      0.1680      0.0696      0.0000      0.0000      0.0686      0.0000      0.0995      0.1509
 40      0.0000      0.3260      0.2874      0.0000      0.1289      0.2416      0.0943      0.0907      0.1222
 41      1.4250      0.4879      0.6754      0.5887      0.5241      0.3861      0.4852      0.5934      0.4873
 42      0.0000      0.2238      0.2912      0.0435      0.1870      0.0164      0.0000      0.0000      0.0000
 43      0.0000      0.1620      0.0000      0.0074      0.0481      0.2427      0.0000      0.0826      0.2404
 44      0.0000      0.3719      0.0030      0.0177      0.0669      0.0000      0.1859      0.0000      0.0036
 45      0.0000      0.3168      0.0000      0.0356      0.0665      0.1112      0.0527      0.0619      0.1368
 46      0.0000      0.1647      0.0303      0.0544      0.0458      0.1368      0.0952      0.0271      0.0000
