###################################################################
## OUTPUT of StarlightChains_v04.for    [Cid@UFSC - 01/Apr/2007] ##
###################################################################

## Some input info
KUG0210-078._36_24.txt                   [arq_obs]
Base.CB07.vall.4m                        [arq_base]
Masks.EmLines.NEW.gm                     [arq_masks]
StCv04.C11.config                        [arq_config]
   66                                    [N_base]
    0                                    [N_YAV_components = # of components with extra extinction!]
    0                                    [i_FitPowerLaw (1/0 = Yes/No)]
-9.99                                    [alpha_PowerLaw]
CCM                                      [red_law_option]
 1.458241                                [q_norm = A(l_norm)/A(V)]

## (Re)Sampling Parameters
 3741.00                                 [l_ini (A)]
 7218.00                                 [l_fin (A)]
    1.00                                 [dl    (A)]     (OBS: dl_cushion =    50.00 A)

## Normalization info
 4020.00                                 [l_norm (A) - for base]
 4010.00                                 [llow_norm (A) - window for f_obs]
 4060.00                                 [lupp_norm (A) - window for f_obs]
8.598932E-18                             [fobs_norm (in input units)]

## S/N
 3691.00                                 [llow_SN (A) - window for S/N]
 7268.00                                 [lupp_SN (A) - window for S/N]
   2.994                                 [S/N in S/N window]
   2.916                                 [S/N in norm. window]
   0.012                                 [S/N_err in S/N window]
   0.011                                 [S/N_err in norm. window]
  1.0000                                 [fscale_chi2]

## etc...
    -2007588                             [idum_orig]
  2400                                   [NOl_eff]
  2092                                   [Nl_eff]
   308    NSIGMA                         [Ntot_cliped & clip_method]
 11268390                                [Nglobal_steps]
   7                                     [N_chains]
  36                                     [NEX0s_base = N_base in EX0s-fits]
 0   0   1      308   2.0   6.749E+03    [Clip-Bug, RC-Crash & Burn-In warning-flags, n_censored_weights, wei_nsig_threshold & wei_limit]
    86     86.043     85.338      0.705  [idt_all, wdt_TotTime, wdt_UsrTime & wdt_SysTime (sec)]

## Synthesis Results - Best model ##

 3.26441E-05                             [chi2/Nl_eff]
    26.48813                             [adev (%)]

   129.99997                             [sum-of-x (%)]
 3.34395E-18                             [Flux_tot (units of input spectrum!)]
 1.72809E-13                             [Mini_tot (???)]
 8.71641E-14                             [Mcor_tot (???)]

   0.00                                  [v0_min  (km/s)]
 150.00                                  [vd_min  (km/s)]
-0.8986                                  [AV_min  (mag)]
 0.0000                                  [YAV_min (mag)]

# j     x_j(%)      Mini_j(%)     Mcor_j(%)     age_j(yr)     Z_j      (L/M)_j    YAV?  Mstars   component_j        a/Fe...       SSP_chi2r SSP_adev(%)   SSP_AV   SSP_x(%)
  1      0.8643     1.1760E-03    2.3315E-03    1.000000E+06  0.00400  1.094E-02    0   1.0000   age020_m42            0.0000     3.4352E-05    28.8030   1.9719   144.0839
  2      3.1739     1.1790E-03    2.3373E-03    3.160000E+06  0.00400  4.007E-02    0   0.9999   age045_m42            0.0000     3.2296E-05    28.4072   1.4132   144.7541
  3      0.0000     0.0000E+00    0.0000E+00    5.010000E+06  0.00400  2.539E-02    0   0.9488   age055_m42            0.0000     3.3830E-05    28.6631   1.6303   146.6371
  4      0.0000     0.0000E+00    0.0000E+00    6.610000E+06  0.00400  2.620E-02    0   0.9220   age061_m42            0.0000     3.2626E-05    28.4331   1.3370   145.2795
  5      0.0000     0.0000E+00    0.0000E+00    1.000000E+07  0.00400  1.322E-02    0   0.8862   age070_m42            0.0000     3.3213E-05    28.7061   1.0880   147.5873
  6      0.0000     0.0000E+00    0.0000E+00    1.445000E+07  0.00400  7.883E-03    0   0.8571   age078_m42            0.0000     3.4405E-05    28.7657   1.3356   147.9095
  7      0.2759     7.8198E-04    1.2672E-03    2.512000E+07  0.00400  5.251E-03    0   0.8174   age090_m42            0.0000     3.3719E-05    28.8648   0.9615   148.4422
  8      0.0000     0.0000E+00    0.0000E+00    4.000000E+07  0.00400  3.649E-03    0   0.7851   age104_m42            0.0000     3.3597E-05    28.8108   0.7486   148.6131
  9      0.0000     0.0000E+00    0.0000E+00    5.500000E+07  0.00400  3.098E-03    0   0.7629   age110_m42            0.0000     3.3133E-05    28.7114   0.9095   147.8130
 10      0.0000     0.0000E+00    0.0000E+00    1.015200E+08  0.00400  2.228E-03    0   0.7207   age116_m42            0.0000     3.2326E-05    28.5329   0.9561   146.3658
 11     15.8376     2.1568E-01    2.8427E-01    2.861200E+08  0.00400  1.093E-03    0   0.6648   age125_m42            0.0000     3.1396E-05    28.7144   0.4932   145.1536
 12      0.0000     0.0000E+00    0.0000E+00    5.088000E+08  0.00400  6.597E-04    0   0.6365   age130_m42            0.0000     3.0789E-05    28.3815   0.5019   144.9521
 13     11.5698     8.0777E-01    9.2853E-01    1.434000E+09  0.00400  2.132E-04    0   0.5798   age139_m42            0.0000     3.0240E-05    27.7129  -0.4161   144.6583
 14      0.0125     3.1494E-03    3.3574E-03    4.250000E+09  0.00400  5.895E-05    0   0.5377   age158_m42            0.0000     3.0648E-05    26.8200  -0.9474   143.0558
 15      0.0000     0.0000E+00    0.0000E+00    7.500000E+09  0.00400  3.510E-05    0   0.5212   age171_m42            0.0000     3.0919E-05    28.5666  -1.0000   139.8605
 16      0.0000     0.0000E+00    0.0000E+00    1.300000E+10  0.00400  2.005E-05    0   0.5034   age193_m42            0.0000     3.1802E-05    32.2216  -1.0000   135.9835
 17     63.4572     6.1938E+01    6.0994E+01    1.800000E+10  0.00400  1.525E-05    0   0.4967   age213_m42            0.0000     3.1965E-05    32.8875  -1.0000   135.0132
 18      0.0000     0.0000E+00    0.0000E+00    1.000000E+06  0.00800  1.238E-02    0   1.0000   age020_m52            0.0000     3.4261E-05    28.7793   1.9682   144.4687
 19      0.1360     6.5874E-05    1.3016E-04    3.160000E+06  0.00800  3.074E-02    0   0.9966   age045_m52            0.0000     3.4367E-05    28.7894   1.8846   145.9621
 20      0.2682     1.4963E-04    2.8013E-04    5.010000E+06  0.00800  2.668E-02    0   0.9443   age055_m52            0.0000     3.4440E-05    28.7344   1.6777   147.1113
 21      0.0000     0.0000E+00    0.0000E+00    6.610000E+06  0.00800  2.136E-02    0   0.9177   age061_m52            0.0000     3.2685E-05    28.2002   0.6033   148.3120
 22      0.0000     0.0000E+00    0.0000E+00    1.000000E+07  0.00800  1.215E-02    0   0.8827   age070_m52            0.0000     3.3682E-05    28.8119   1.2447   148.8180
 23      0.0000     0.0000E+00    0.0000E+00    1.445000E+07  0.00800  8.717E-03    0   0.8552   age078_m52            0.0000     3.3926E-05    28.6916   1.3274   148.6014
 24      0.0000     0.0000E+00    0.0000E+00    2.512000E+07  0.00800  5.592E-03    0   0.8162   age090_m52            0.0000     3.3606E-05    28.8468   1.0323   149.7597
 25      0.0000     0.0000E+00    0.0000E+00    4.000000E+07  0.00800  3.896E-03    0   0.7841   age104_m52            0.0000     3.3467E-05    28.8183   0.9604   149.7534
 26      0.1765     1.2230E-03    1.7521E-03    1.015200E+08  0.00800  2.148E-03    0   0.7226   age116_m52            0.0000     3.2686E-05    28.5732   0.9290   147.4590
 27      1.4597     2.1892E-02    2.9007E-02    2.861200E+08  0.00800  9.925E-04    0   0.6683   age125_m52            0.0000     3.0997E-05    28.3527   0.5673   146.2819
 28      0.0000     0.0000E+00    0.0000E+00    9.047900E+08  0.00800  3.141E-04    0   0.6138   age135_m52            0.0000     3.0136E-05    27.5796  -0.1773   148.4770
 29      0.0000     0.0000E+00    0.0000E+00    1.434000E+09  0.00800  1.719E-04    0   0.5853   age139_m52            0.0000     3.0185E-05    27.1046  -0.7902   147.2334
 30      0.0000     0.0000E+00    0.0000E+00    2.500000E+09  0.00800  7.872E-05    0   0.5600   age150_m52            0.0000     3.0191E-05    27.7758  -1.0000   143.4815
 31      0.0000     0.0000E+00    0.0000E+00    4.250000E+09  0.00800  4.336E-05    0   0.5426   age158_m52            0.0000     3.0374E-05    28.0849  -1.0000   142.0210
 32      0.0000     0.0000E+00    0.0000E+00    6.250000E+09  0.00800  3.159E-05    0   0.5319   age166_m52            0.0000     3.1444E-05    32.2903  -1.0000   137.8746
 33      2.1046     2.3018E+00    2.3151E+00    1.300000E+10  0.00800  1.361E-05    0   0.5073   age193_m52            0.0000     3.7939E-05    45.2425  -1.0000   126.3583
 34      0.0000     0.0000E+00    0.0000E+00    1.800000E+10  0.00800  9.886E-06    0   0.4990   age213_m52            0.0000     4.0573E-05    48.1227  -1.0000   123.0556
 35      0.0000     0.0000E+00    0.0000E+00    1.000000E+06  0.02000  1.544E-02    0   1.0000   age020_m62            0.0000     3.4065E-05    28.7322   1.9609   144.8837
 36      0.0000     0.0000E+00    0.0000E+00    3.160000E+06  0.02000  3.762E-02    0   0.9858   age045_m62            0.0000     3.4065E-05    28.8162   1.8855   146.7387
 37      0.0214     9.6859E-06    1.7939E-05    5.010000E+06  0.02000  3.296E-02    0   0.9342   age055_m62            0.0000     3.3332E-05    28.5689   1.6179   146.9096
 38      0.0000     0.0000E+00    0.0000E+00    8.710000E+06  0.02000  1.154E-02    0   0.8861   age067_m62            0.0000     3.4183E-05    29.9890   0.7436   152.5314
 39      0.0000     0.0000E+00    0.0000E+00    1.445000E+07  0.02000  7.663E-03    0   0.8472   age078_m62            0.0000     3.3941E-05    29.1201   0.9172   151.2882
 40      0.0000     0.0000E+00    0.0000E+00    2.512000E+07  0.02000  4.532E-03    0   0.8099   age090_m62            0.0000     3.4793E-05    29.3218   0.8980   151.5824
 41      0.0000     0.0000E+00    0.0000E+00    5.500000E+07  0.02000  2.733E-03    0   0.7595   age110_m62            0.0000     3.3611E-05    28.7112   0.9282   149.5514
 42      0.0000     0.0000E+00    0.0000E+00    1.609000E+08  0.02000  1.369E-03    0   0.6985   age120_m62            0.0000     3.1599E-05    28.4391   0.8686   147.4182
 43      0.0000     0.0000E+00    0.0000E+00    2.861200E+08  0.02000  9.013E-04    0   0.6714   age125_m62            0.0000     3.0834E-05    28.3838   0.6886   147.6048
 44      0.0000     0.0000E+00    0.0000E+00    5.088000E+08  0.02000  5.028E-04    0   0.6449   age130_m62            0.0000     3.0249E-05    27.8977   0.3422   148.9241
 45      0.0000     0.0000E+00    0.0000E+00    9.047900E+08  0.02000  2.428E-04    0   0.6179   age135_m62            0.0000     2.9987E-05    27.0772  -0.2701   148.9522
 46      0.0000     0.0000E+00    0.0000E+00    1.434000E+09  0.02000  1.263E-04    0   0.5908   age139_m62            0.0000     2.9976E-05    26.5162  -0.7546   148.6019
 47      0.0000     0.0000E+00    0.0000E+00    2.500000E+09  0.02000  5.985E-05    0   0.5673   age150_m62            0.0000     3.0024E-05    27.8388  -1.0000   144.9548
 48     10.8505     4.9376E+00    5.3527E+00    4.250000E+09  0.02000  3.271E-05    0   0.5468   age158_m62            0.0000     3.2014E-05    34.6896  -1.0000   137.6462
 49      4.1975     4.5941E+00    4.7061E+00    1.000000E+10  0.02000  1.360E-05    0   0.5167   age181_m62            0.0000     3.7653E-05    44.2271  -1.0000   128.9712
 50      7.5185     1.5709E+01    1.5613E+01    1.800000E+10  0.02000  7.124E-06    0   0.5013   age213_m62            0.0000     4.3139E-05    49.9290  -1.0000   122.6311
 51      0.0000     0.0000E+00    0.0000E+00    1.000000E+06  0.05000  2.592E-02    0   0.9998   age020_m72            0.0000     3.3792E-05    28.6503   1.9417   145.4384
 52      0.0000     0.0000E+00    0.0000E+00    3.160000E+06  0.05000  4.845E-02    0   0.9577   age045_m72            0.0000     3.4695E-05    28.9393   1.7799   147.9172
 53      0.0000     0.0000E+00    0.0000E+00    5.010000E+06  0.05000  3.072E-02    0   0.9147   age055_m72            0.0000     3.4303E-05    28.9488   1.4109   149.8285
 54      0.0000     0.0000E+00    0.0000E+00    6.610000E+06  0.05000  1.455E-02    0   0.8877   age061_m72            0.0000     3.5005E-05    31.6879   0.8149   153.3581
 55      0.0000     0.0000E+00    0.0000E+00    1.000000E+07  0.05000  9.074E-03    0   0.8524   age070_m72            0.0000     3.4904E-05    29.5343   1.5795   150.1133
 56      0.0000     0.0000E+00    0.0000E+00    2.512000E+07  0.05000  4.250E-03    0   0.7902   age090_m72            0.0000     3.5262E-05    29.3731   1.3228   150.4433
 57      0.0000     0.0000E+00    0.0000E+00    4.000000E+07  0.05000  3.087E-03    0   0.7618   age104_m72            0.0000     3.4376E-05    29.4059   1.1565   149.8456
 58      0.0000     0.0000E+00    0.0000E+00    1.015200E+08  0.05000  1.700E-03    0   0.7096   age116_m72            0.0000     3.2101E-05    28.7040   1.0007   147.6485
 59      0.0000     0.0000E+00    0.0000E+00    2.861200E+08  0.05000  7.384E-04    0   0.6633   age125_m72            0.0000     3.0379E-05    27.9807   0.5623   148.8752
 60      0.0000     0.0000E+00    0.0000E+00    5.088000E+08  0.05000  3.819E-04    0   0.6372   age130_m72            0.0000     2.9794E-05    26.7791  -0.0000   152.0086
 61      0.0000     0.0000E+00    0.0000E+00    9.047900E+08  0.05000  1.676E-04    0   0.6110   age135_m72            0.0000     2.9791E-05    26.3502  -0.6958   150.5897
 62      0.0000     0.0000E+00    0.0000E+00    1.434000E+09  0.05000  8.837E-05    0   0.5874   age139_m72            0.0000     3.0086E-05    27.7996  -1.0000   147.0120
 63      0.0000     0.0000E+00    0.0000E+00    2.500000E+09  0.05000  4.233E-05    0   0.5598   age150_m72            0.0000     3.2025E-05    34.7136  -1.0000   139.0215
 64      7.2034     7.4719E+00    7.7757E+00    6.250000E+09  0.05000  1.435E-05    0   0.5249   age166_m72            0.0000     3.9902E-05    46.9572  -1.0000   126.1638
 65      0.8724     1.9938E+00    1.9907E+00    1.300000E+10  0.05000  6.513E-06    0   0.5036   age193_m72            0.0000     4.8353E-05    54.2217  -1.0000   119.5743
 66      0.0000     0.0000E+00    0.0000E+00    1.800000E+10  0.05000  4.527E-06    0   0.4945   age213_m72            0.0000     5.4745E-05    58.2617  -1.0000   114.6199


## Synthesis Results - Average & Chains ##

# j      x_j: min, <> & last-chain-values for 1 ...  7 chains
  1      0.8643     58.4506     48.4451     56.2801     44.2493     47.2028     48.6661     46.6086     46.9675
  2      3.1739      0.1501      0.7251      0.2122      0.1443      0.0000      1.0471      0.0552      0.8833
  3      0.0000      0.1755      0.0000      0.0781      0.1107      0.4307      0.6374      0.3348      0.8617
  4      0.0000      0.1967      0.0000      0.0309      0.4548      0.0000      0.0000      0.4018      0.0000
  5      0.0000      0.2257      0.0000      0.0987      2.0003      0.6046      0.0777      1.7678      0.0185
  6      0.0000      0.1951      0.0000      0.9368      0.1495      0.7860      0.0155      0.0000      2.1958
  7      0.2759      0.1411      0.3668      0.0239      0.2743      0.0817      0.0000      0.3811      0.7271
  8      0.0000      0.1747      0.0000      0.3233      0.9914      0.0000      0.0236      0.0310      0.5749
  9      0.0000      0.1395      0.2697      0.0000      0.1636      0.0000      0.0000      0.2438      0.0000
 10      0.0000      0.1970      0.6701      0.0000      0.0456      0.0396      1.4822      0.0000      0.0862
 11     15.8376      0.2532      0.4785      0.3740      0.9070      0.0738      0.0000      0.2462      0.4302
 12      0.0000      0.1522      0.1065      0.0000      0.2244      0.0000      0.8407      0.7092      0.0970
 13     11.5698      0.2233      1.0936      0.4485      0.7218      0.0000      0.0000      0.3638      0.0000
 14      0.0125      0.1939      0.7275      0.2623      0.0000      0.5179      0.3552      1.0141      0.0000
 15      0.0000      0.2014      1.9584      0.7100      0.1392      1.7990      0.5077      0.0479      0.6350
 16      0.0000      0.3331      0.0000      0.0000      0.7163      2.5299      0.6307      0.0779      0.1904
 17     63.4572      0.2940      1.6386      0.3485      0.9548      0.5240      0.1195      0.5152      1.4134
 18      0.0000      1.8391      1.0058      0.2632      1.6355      1.3958      2.3127      1.4431      0.0000
 19      0.1360      0.1818      1.8602      0.5124      0.5696      0.9276      0.0000      0.1535      0.0000
 20      0.2682      0.1642      1.0507      0.0000      0.0000      0.1570      0.0000      0.3403      0.0000
 21      0.0000      0.2443      0.2754      0.2472      1.4240      0.5448      0.0000      0.6281      0.4963
 22      0.0000      0.2370      0.6040      0.1373      0.8746      1.3656      0.3411      0.0000      0.0000
 23      0.0000      0.2545      0.0000      0.1297      0.9575      0.3920      0.3054      0.0000      0.4482
 24      0.0000      0.2207      0.0000      0.9922      0.0000      0.4831      0.8011      0.5263      0.0000
 25      0.0000      0.1552      0.4851      0.8437      0.3358      0.6416      0.4113      0.3340      0.0000
 26      0.1765      0.2300      0.4252      0.4251      0.3821      0.2919      0.9155      0.1784      0.2219
 27      1.4597      0.2792      0.2815      0.0429      1.0516      1.0564      0.0000      0.2086      0.5804
 28      0.0000      0.1902      0.0000      0.4684      0.6346      0.0000      0.4559      0.2176      0.6866
 29      0.0000      0.1915      0.8220      0.8145      0.3993      1.1958      1.8046      0.8565      0.2725
 30      0.0000      0.2747      0.2014      0.4908      0.0000      0.0000      1.8177      0.6155      0.9169
 31      0.0000      0.1607      0.2311      0.1417      0.5995      0.4005      0.2284      1.1854      0.7274
 32      0.0000      0.1819      0.0000      0.4148      0.6195      1.1424      0.9575      1.2134      1.3327
 33      2.1046      0.3295      0.5694      0.4196      0.2809      1.0820      0.4627      0.4115      0.3248
 34      0.0000      4.6292      4.5262      4.3849      4.3582      4.8033      4.1947      4.3666      4.2712
 35      0.0000      1.2563      0.6278      0.7012      0.0000      0.2330      1.3562      3.3361      0.1165
 36      0.0000      0.2312      0.0432      0.4193      0.4935      1.5944      0.0486      1.4318      1.8068
 37      0.0214      0.1727      0.5734      0.0000      0.0000      0.0000      0.5221      0.5794      0.2008
 38      0.0000      0.1648      0.7522      0.5362      0.0000      0.0000      0.0000      0.0000      1.0126
 39      0.0000      0.1489      0.0711      0.3323      0.2282      0.1704      0.2219      0.2390      0.0000
 40      0.0000      0.2329      0.5140      0.2828      0.5585      0.0059      0.5843      0.0615      0.5357
 41      0.0000      0.1749      0.0000      0.0000      0.5692      0.7969      0.0100      0.0000      1.1623
 42      0.0000      0.1914      1.1481      0.0000      0.6335      0.5688      1.1293      0.2298      1.3729
 43      0.0000      0.1681      0.0000      0.0000      0.0000      0.7915      0.4335      0.7447      0.0000
 44      0.0000      0.2657      0.4526      0.0000      0.0000      0.2049      0.8415      0.4677      0.0000
 45      0.0000      0.1964      0.0000      0.5796      2.8035      0.8887      0.0000      0.5168      0.6062
 46      0.0000      0.1610      0.0000      0.0000      0.3916      0.0000      0.2298      0.0000      1.2829
