###################################################################
## OUTPUT of StarlightChains_v04.for    [Cid@UFSC - 01/Apr/2007] ##
###################################################################

## Some input info
KUG0210-078._27_33.txt                   [arq_obs]
Base.CB07.vall.4m                        [arq_base]
Masks.EmLines.NEW.gm                     [arq_masks]
StCv04.C11.config                        [arq_config]
   66                                    [N_base]
    0                                    [N_YAV_components = # of components with extra extinction!]
    0                                    [i_FitPowerLaw (1/0 = Yes/No)]
-9.99                                    [alpha_PowerLaw]
CCM                                      [red_law_option]
 1.458241                                [q_norm = A(l_norm)/A(V)]

## (Re)Sampling Parameters
 3741.00                                 [l_ini (A)]
 7218.00                                 [l_fin (A)]
    1.00                                 [dl    (A)]     (OBS: dl_cushion =    50.00 A)

## Normalization info
 4020.00                                 [l_norm (A) - for base]
 4010.00                                 [llow_norm (A) - window for f_obs]
 4060.00                                 [lupp_norm (A) - window for f_obs]
5.215761E-17                             [fobs_norm (in input units)]

## S/N
 3691.00                                 [llow_SN (A) - window for S/N]
 7268.00                                 [lupp_SN (A) - window for S/N]
   6.787                                 [S/N in S/N window]
   7.643                                 [S/N in norm. window]
   0.059                                 [S/N_err in S/N window]
   0.067                                 [S/N_err in norm. window]
  1.0000                                 [fscale_chi2]

## etc...
    -2007353                             [idum_orig]
  2432                                   [NOl_eff]
  2420                                   [Nl_eff]
    12    NSIGMA                         [Ntot_cliped & clip_method]
  1326920                                [Nglobal_steps]
   7                                     [N_chains]
  44                                     [NEX0s_base = N_base in EX0s-fits]
 0   0   1       12   2.0   7.450E+03    [Clip-Bug, RC-Crash & Burn-In warning-flags, n_censored_weights, wei_nsig_threshold & wei_limit]
    37     36.958     36.237      0.722  [idt_all, wdt_TotTime, wdt_UsrTime & wdt_SysTime (sec)]

## Synthesis Results - Best model ##

 6.72137E-05                             [chi2/Nl_eff]
     5.87970                             [adev (%)]

   114.12851                             [sum-of-x (%)]
 3.84359E-17                             [Flux_tot (units of input spectrum!)]
 1.07663E-12                             [Mini_tot (???)]
 5.57200E-13                             [Mcor_tot (???)]

 245.90                                  [v0_min  (km/s)]
 122.68                                  [vd_min  (km/s)]
-0.3257                                  [AV_min  (mag)]
 0.0000                                  [YAV_min (mag)]

# j     x_j(%)      Mini_j(%)     Mcor_j(%)     age_j(yr)     Z_j      (L/M)_j    YAV?  Mstars   component_j        a/Fe...       SSP_chi2r SSP_adev(%)   SSP_AV   SSP_x(%)
  1      4.1385     1.1833E-02    2.2864E-02    1.000000E+06  0.00400  1.094E-02    0   1.0000   age020_m42            0.0000     8.8950E-05     7.3522   2.6209    97.3111
  2      0.0000     0.0000E+00    0.0000E+00    3.160000E+06  0.00400  4.007E-02    0   0.9999   age045_m42            0.0000     8.1244E-05     6.5481   1.8618   104.8800
  3      2.0637     2.5425E-03    4.6612E-03    5.010000E+06  0.00400  2.539E-02    0   0.9488   age055_m42            0.0000     8.4052E-05     6.8580   2.2017   101.7684
  4      4.8744     5.8196E-03    1.0368E-02    6.610000E+06  0.00400  2.620E-02    0   0.9220   age061_m42            0.0000     8.6408E-05     6.5162   1.7974   104.7874
  5      5.3275     1.2606E-02    2.1585E-02    1.000000E+07  0.00400  1.322E-02    0   0.8862   age070_m42            0.0000     9.1275E-05     7.0518   1.5767   105.1469
  6      1.3001     5.1591E-03    8.5441E-03    1.445000E+07  0.00400  7.883E-03    0   0.8571   age078_m42            0.0000     8.9787E-05     7.1328   1.9038   102.5068
  7      0.0000     0.0000E+00    0.0000E+00    2.512000E+07  0.00400  5.251E-03    0   0.8174   age090_m42            0.0000     9.2319E-05     7.2478   1.4561   105.4560
  8      0.0000     0.0000E+00    0.0000E+00    4.000000E+07  0.00400  3.649E-03    0   0.7851   age104_m42            0.0000     9.0555E-05     6.9796   1.2167   106.7122
  9      0.0000     0.0000E+00    0.0000E+00    5.500000E+07  0.00400  3.098E-03    0   0.7629   age110_m42            0.0000     9.3967E-05     6.5007   1.3378   107.6885
 10      0.0000     0.0000E+00    0.0000E+00    1.015200E+08  0.00400  2.228E-03    0   0.7207   age116_m42            0.0000     1.0219E-04     6.3769   1.3384   108.4546
 11      0.0000     0.0000E+00    0.0000E+00    2.861200E+08  0.00400  1.093E-03    0   0.6648   age125_m42            0.0000     1.1146E-04     6.4328   0.7805   111.1501
 12      0.0000     0.0000E+00    0.0000E+00    5.088000E+08  0.00400  6.597E-04    0   0.6365   age130_m42            0.0000     1.2128E-04     6.1948   0.7368   113.1860
 13      0.0000     0.0000E+00    0.0000E+00    1.434000E+09  0.00400  2.132E-04    0   0.5798   age139_m42            0.0000     1.0261E-04     5.8948  -0.2574   116.1940
 14      2.4882     1.3203E+00    1.3717E+00    4.250000E+09  0.00400  5.895E-05    0   0.5377   age158_m42            0.0000     8.7516E-05     5.8190  -0.7290   112.6766
 15      0.0000     0.0000E+00    0.0000E+00    7.500000E+09  0.00400  3.510E-05    0   0.5212   age171_m42            0.0000     9.4457E-05     6.0324  -0.9366   112.4528
 16      0.0000     0.0000E+00    0.0000E+00    1.300000E+10  0.00400  2.005E-05    0   0.5034   age193_m42            0.0000     1.0639E-04     6.6630  -1.0000   110.0376
 17      3.3931     6.9598E+00    6.6795E+00    1.800000E+10  0.00400  1.525E-05    0   0.4967   age213_m42            0.0000     1.0482E-04     6.8070  -1.0000   109.0777
 18      0.0000     0.0000E+00    0.0000E+00    1.000000E+06  0.00800  1.238E-02    0   1.0000   age020_m52            0.0000     8.9475E-05     7.3622   2.6173    97.5138
 19      0.5516     5.6130E-04    1.0809E-03    3.160000E+06  0.00800  3.074E-02    0   0.9966   age045_m52            0.0000     8.8393E-05     7.3327   2.5374    98.4748
 20      0.0000     0.0000E+00    0.0000E+00    5.010000E+06  0.00800  2.668E-02    0   0.9443   age055_m52            0.0000     8.4902E-05     6.9784   2.2920   100.6433
 21      0.0000     0.0000E+00    0.0000E+00    6.610000E+06  0.00800  2.136E-02    0   0.9177   age061_m52            0.0000     7.8011E-05     6.7706   1.0738   106.5265
 22      0.0000     0.0000E+00    0.0000E+00    1.000000E+07  0.00800  1.215E-02    0   0.8827   age070_m52            0.0000     9.2525E-05     7.4576   1.7745   104.3267
 23      5.2406     1.8806E-02    3.1075E-02    1.445000E+07  0.00800  8.717E-03    0   0.8552   age078_m52            0.0000     8.9510E-05     7.0936   1.8700   103.9033
 24      0.0000     0.0000E+00    0.0000E+00    2.512000E+07  0.00800  5.592E-03    0   0.8162   age090_m52            0.0000     9.2761E-05     7.2669   1.5202   106.6613
 25      0.0000     0.0000E+00    0.0000E+00    4.000000E+07  0.00800  3.896E-03    0   0.7841   age104_m52            0.0000     9.1946E-05     6.8566   1.4137   108.0215
 26      0.0000     0.0000E+00    0.0000E+00    1.015200E+08  0.00800  2.148E-03    0   0.7226   age116_m52            0.0000     9.6888E-05     6.4287   1.3223   108.7329
 27      0.0000     0.0000E+00    0.0000E+00    2.861200E+08  0.00800  9.925E-04    0   0.6683   age125_m52            0.0000     1.2227E-04     6.3390   0.8053   114.0789
 28      0.0000     0.0000E+00    0.0000E+00    9.047900E+08  0.00800  3.141E-04    0   0.6138   age135_m52            0.0000     1.2083E-04     5.9964  -0.0570   120.8664
 29      0.0000     0.0000E+00    0.0000E+00    1.434000E+09  0.00800  1.719E-04    0   0.5853   age139_m52            0.0000     9.6218E-05     5.7136  -0.6312   118.1790
 30      0.0000     0.0000E+00    0.0000E+00    2.500000E+09  0.00800  7.872E-05    0   0.5600   age150_m52            0.0000     9.9298E-05     6.2634  -0.9419   116.3871
 31      2.1299     1.5365E+00    1.6109E+00    4.250000E+09  0.00800  4.336E-05    0   0.5426   age158_m52            0.0000     1.0070E-04     6.2609  -0.9574   115.2865
 32      0.0000     0.0000E+00    0.0000E+00    6.250000E+09  0.00800  3.159E-05    0   0.5319   age166_m52            0.0000     1.2440E-04     7.4574  -1.0000   112.3387
 33      1.5995     3.6763E+00    3.6035E+00    1.300000E+10  0.00800  1.361E-05    0   0.5073   age193_m52            0.0000     2.5515E-04    17.4522  -1.0000   100.9899
 34      0.2954     9.3475E-01    9.0126E-01    1.800000E+10  0.00800  9.886E-06    0   0.4990   age213_m52            0.0000     3.2471E-04    20.2160  -1.0000    97.8134
 35     21.4442     4.3445E-02    8.3945E-02    1.000000E+06  0.02000  1.544E-02    0   1.0000   age020_m62            0.0000     9.0808E-05     7.4006   2.6141    97.7230
 36      0.0000     0.0000E+00    0.0000E+00    3.160000E+06  0.02000  3.762E-02    0   0.9858   age045_m62            0.0000     9.1470E-05     7.3979   2.5506    98.6597
 37      0.0000     0.0000E+00    0.0000E+00    5.010000E+06  0.02000  3.296E-02    0   0.9342   age055_m62            0.0000     8.5875E-05     6.7896   2.1500   103.3468
 38      0.0000     0.0000E+00    0.0000E+00    8.710000E+06  0.02000  1.154E-02    0   0.8861   age067_m62            0.0000     1.2543E-04    10.7794   1.3347   103.8598
 39      0.0000     0.0000E+00    0.0000E+00    1.445000E+07  0.02000  7.663E-03    0   0.8472   age078_m62            0.0000     9.4971E-05     8.1676   1.4510   105.7421
 40      0.0000     0.0000E+00    0.0000E+00    2.512000E+07  0.02000  4.532E-03    0   0.8099   age090_m62            0.0000     9.9014E-05     8.3447   1.4485   105.2200
 41      0.0000     0.0000E+00    0.0000E+00    5.500000E+07  0.02000  2.733E-03    0   0.7595   age110_m62            0.0000     9.2713E-05     6.9396   1.4022   107.0580
 42      0.0000     0.0000E+00    0.0000E+00    1.609000E+08  0.02000  1.369E-03    0   0.6985   age120_m62            0.0000     1.1589E-04     6.4829   1.1944   111.4069
 43      0.0000     0.0000E+00    0.0000E+00    2.861200E+08  0.02000  9.013E-04    0   0.6714   age125_m62            0.0000     1.3891E-04     6.5245   0.9149   115.5619
 44      0.0000     0.0000E+00    0.0000E+00    5.088000E+08  0.02000  5.028E-04    0   0.6449   age130_m62            0.0000     1.4409E-04     6.5831   0.4728   120.7822
 45      1.8814     2.4238E-01    2.8938E-01    9.047900E+08  0.02000  2.428E-04    0   0.6179   age135_m62            0.0000     1.1207E-04     6.2165  -0.1399   120.8577
 46      0.0000     0.0000E+00    0.0000E+00    1.434000E+09  0.02000  1.263E-04    0   0.5908   age139_m62            0.0000     1.0340E-04     6.3002  -0.5898   119.2074
 47     12.0315     6.2883E+00    6.8929E+00    2.500000E+09  0.02000  5.985E-05    0   0.5673   age150_m62            0.0000     1.1279E-04     7.0011  -0.9938   118.7467
 48      0.0000     0.0000E+00    0.0000E+00    4.250000E+09  0.02000  3.271E-05    0   0.5468   age158_m62            0.0000     1.6378E-04     9.6595  -1.0000   111.8006
 49      0.0000     0.0000E+00    0.0000E+00    1.000000E+10  0.02000  1.360E-05    0   0.5167   age181_m62            0.0000     3.0472E-04    17.6669  -1.0000   103.0205
 50      6.6865     2.9360E+01    2.8438E+01    1.800000E+10  0.02000  7.124E-06    0   0.5013   age213_m62            0.0000     4.3560E-04    22.6979  -1.0000    96.6781
 51      0.0000     0.0000E+00    0.0000E+00    1.000000E+06  0.05000  2.592E-02    0   0.9998   age020_m72            0.0000     9.3974E-05     7.5109   2.6105    97.6374
 52      0.0000     0.0000E+00    0.0000E+00    3.160000E+06  0.05000  4.845E-02    0   0.9577   age045_m72            0.0000     8.7205E-05     7.1726   2.4213   100.2633
 53      0.0095     9.6327E-06    1.7025E-05    5.010000E+06  0.05000  3.072E-02    0   0.9147   age055_m72            0.0000     9.2219E-05     7.4347   2.0043   102.6118
 54      0.0000     0.0000E+00    0.0000E+00    6.610000E+06  0.05000  1.455E-02    0   0.8877   age061_m72            0.0000     1.5479E-04    11.8756   1.4041   103.4767
 55      0.0000     0.0000E+00    0.0000E+00    1.000000E+07  0.05000  9.074E-03    0   0.8524   age070_m72            0.0000     9.5915E-05     7.4062   2.1765   102.3344
 56      0.0000     0.0000E+00    0.0000E+00    2.512000E+07  0.05000  4.250E-03    0   0.7902   age090_m72            0.0000     9.5115E-05     7.2231   1.8759   104.4063
 57      0.0000     0.0000E+00    0.0000E+00    4.000000E+07  0.05000  3.087E-03    0   0.7618   age104_m72            0.0000     1.0063E-04     7.4066   1.6534   105.9809
 58      0.0000     0.0000E+00    0.0000E+00    1.015200E+08  0.05000  1.700E-03    0   0.7096   age116_m72            0.0000     1.1485E-04     6.7911   1.3570   110.2612
 59      0.0000     0.0000E+00    0.0000E+00    2.861200E+08  0.05000  7.384E-04    0   0.6633   age125_m72            0.0000     1.4277E-04     6.4257   0.7481   118.2865
 60      0.0000     0.0000E+00    0.0000E+00    5.088000E+08  0.05000  3.819E-04    0   0.6372   age130_m72            0.0000     1.2322E-04     6.5619   0.2009   122.0770
 61     17.2866     3.2264E+00    3.8090E+00    9.047900E+08  0.05000  1.676E-04    0   0.6110   age135_m72            0.0000     1.1179E-04     7.2039  -0.5460   121.4781
 62      0.0000     0.0000E+00    0.0000E+00    1.434000E+09  0.05000  8.837E-05    0   0.5874   age139_m72            0.0000     1.2035E-04     7.2731  -1.0000   120.7506
 63     13.8687     1.0249E+01    1.1085E+01    2.500000E+09  0.05000  4.233E-05    0   0.5598   age150_m72            0.0000     1.7400E-04     9.9815  -1.0000   112.9363
 64      0.0000     0.0000E+00    0.0000E+00    6.250000E+09  0.05000  1.435E-05    0   0.5249   age166_m72            0.0000     3.4750E-04    19.9989  -1.0000   100.1894
 65      7.5178     3.6106E+01    3.5134E+01    1.300000E+10  0.05000  6.513E-06    0   0.5036   age193_m72            0.0000     5.4224E-04    26.4447  -1.0000    93.2982
 66      0.0000     0.0000E+00    0.0000E+00    1.800000E+10  0.05000  4.527E-06    0   0.4945   age213_m72            0.0000     6.7273E-04    29.8444  -1.0000    88.4156


## Synthesis Results - Average & Chains ##

# j      x_j: min, <> & last-chain-values for 1 ...  7 chains
  1      4.1385     11.0823      5.4096      8.4419      3.6416      2.3837      4.1571      6.3586      2.6123
  2      0.0000      1.1910      0.0000      0.4322      5.2249      2.4080      0.0883      1.0474      1.1101
  3      2.0637      1.2668      1.7054      0.9205      2.2502      0.6697      3.5046      3.6797      1.3479
  4      4.8744      1.3878      1.4412      0.7478      0.1133      1.8270      3.8127      0.0000      0.4179
  5      5.3275      0.9992      0.0000      0.4542      3.5973      0.1219      1.5909      0.0000      1.0194
  6      1.3001      0.9349      0.8122      1.6221      1.6718      1.8852      1.1981      0.0000      1.9218
  7      0.0000      1.4166      1.2023      0.0000      5.5084      0.8556      0.0000      0.2096      0.0000
  8      0.0000      1.5480      2.3327      1.8118      3.8221      1.2367      2.3426      1.5096      2.8287
  9      0.0000      1.3609      0.4973      4.5564      0.0000      0.1933      0.9901      6.6392      0.3458
 10      0.0000      1.0123      1.2470      1.5746      2.5625      0.0000      0.0000      4.8618      0.0000
 11      0.0000      1.1382      2.3474      0.0000      0.0000      0.0000      0.0000      1.5396      0.0000
 12      0.0000      1.3745      0.8724      0.8276      0.2868      1.5150      0.2953      0.0000      2.7991
 13      0.0000      0.7413      0.0000      2.0964      2.6846      2.0499      0.0000      1.7096      0.0000
 14      2.4882      1.1301      0.2077      0.1527      0.0013      0.0000      1.8565      0.0911      1.5150
 15      0.0000      3.1705      1.4007      0.0000      1.7730      1.5134      1.0643      1.4773      3.6467
 16      0.0000      4.9217      4.1382      2.2077      3.4834      2.3164      1.4892      2.0152      0.0000
 17      3.3931      9.0715      5.2273      7.0260      8.5661      2.0548      2.6701      7.2066      3.9047
 18      0.0000      5.0649      0.3112      4.5130      0.6239      3.5110      4.1675      3.9740      0.0000
 19      0.5516      2.0986      8.9042      0.0000      0.0000      6.5995      5.1690      5.3423      8.1784
 20      0.0000      1.2840      3.5334      4.9884      0.0000      1.9310      1.3311      1.2580      2.1167
 21      0.0000      1.0434      0.3827      0.9201      0.0000      0.6474      0.0000      0.0000      4.2048
 22      0.0000      1.3021      1.7548      0.4916      0.5198      0.1764      0.0000      0.3720      0.9075
 23      5.2406      1.5762      2.5768      2.4180      1.1327      4.5335      1.6697      0.0000      0.0000
 24      0.0000      1.3349      0.0000      1.7344      0.0000      1.6383      1.7606      1.6350      3.0550
 25      0.0000      1.1597      1.2913      0.3295      2.0959      1.2168      0.0000      1.2660      2.1055
 26      0.0000      1.2574      1.6840      0.0000      2.0692      1.3858      0.1671      0.0000      2.0518
 27      0.0000      1.4676      0.0000      1.4883      3.9408      0.0000      0.0000      0.0000      0.0000
 28      0.0000      1.3549      0.2969      1.2992      0.0000      2.8187      4.1898      1.6925      0.0000
 29      0.0000      1.5554      0.6901      1.4941      0.0000      4.8648      2.4587      0.0000      4.5243
 30      0.0000      1.2511      3.0070      0.0000      2.5667      4.5835      0.3060      0.5923      3.2544
 31      2.1299      1.3068      0.0000      1.2344      2.6822      7.5554      1.2878      2.1075      2.6501
 32      0.0000      1.2755      3.3330      2.9114      0.0987      1.8930      0.0000      0.0000      1.8518
 33      1.5995      1.8736      3.0383      1.3055      1.1542      2.2003      2.2993      4.7875      2.0134
 34      0.2954      1.6525      0.0809      2.5974      0.0000      0.7980      3.6796      1.3369      1.9476
 35     21.4442      2.2354      3.0730      5.8235      4.6258      0.0000      2.8979      0.9955      0.0000
 36      0.0000      1.2082      1.2272      0.7220      0.0000      2.1010      1.2623      0.0000      0.0000
 37      0.0000      0.9498      0.5475      0.0000      1.1675      0.0000      0.9358      0.6678      0.0000
 38      0.0000      1.1193      0.2566      0.4130      2.9616      0.3989      0.0000      1.4229      2.0913
 39      0.0000      1.0081      0.0790      0.0254      0.2800      3.3295      0.0000      0.5381      1.9665
 40      0.0000      1.3636      5.5203      0.3373      1.0886      1.7570      0.4670      2.2421      1.0043
 41      0.0000      0.9206      0.9854      0.0000      0.0000      0.0000      1.2639      6.0765      0.3324
 42      0.0000      1.3566      0.0000      1.4227      1.1304      0.0000      1.6836      0.0000      1.3271
 43      0.0000      1.3363      4.0438      0.0000      0.9795      0.6756      0.4368      2.6121      2.5166
 44      0.0000      1.4057      0.0000      0.7314      3.0203      0.0000      2.4629      0.0000      4.1364
 45      1.8814      1.2521      3.0686      1.7650      0.1417      0.0000      1.0779      1.9925      1.5457
 46      0.0000      1.1531      6.4586      1.9874      0.2319      0.2717      1.3764      3.2394      5.0500
