###################################################################
## OUTPUT of StarlightChains_v04.for    [Cid@UFSC - 01/Apr/2007] ##
###################################################################

## Some input info
KUG0210-078._29_35.txt                   [arq_obs]
Base.CB07.vall.4m                        [arq_base]
Masks.EmLines.NEW.gm                     [arq_masks]
StCv04.C11.config                        [arq_config]
   66                                    [N_base]
    0                                    [N_YAV_components = # of components with extra extinction!]
    0                                    [i_FitPowerLaw (1/0 = Yes/No)]
-9.99                                    [alpha_PowerLaw]
CCM                                      [red_law_option]
 1.458241                                [q_norm = A(l_norm)/A(V)]

## (Re)Sampling Parameters
 3741.00                                 [l_ini (A)]
 7218.00                                 [l_fin (A)]
    1.00                                 [dl    (A)]     (OBS: dl_cushion =    50.00 A)

## Normalization info
 4020.00                                 [l_norm (A) - for base]
 4010.00                                 [llow_norm (A) - window for f_obs]
 4060.00                                 [lupp_norm (A) - window for f_obs]
1.935755E-16                             [fobs_norm (in input units)]

## S/N
 3691.00                                 [llow_SN (A) - window for S/N]
 7268.00                                 [lupp_SN (A) - window for S/N]
  10.162                                 [S/N in S/N window]
  10.375                                 [S/N in norm. window]
   0.442                                 [S/N_err in S/N window]
   0.451                                 [S/N_err in norm. window]
  1.0000                                 [fscale_chi2]

## etc...
    -2007411                             [idum_orig]
  2432                                   [NOl_eff]
  2328                                   [Nl_eff]
   104    NSIGMA                         [Ntot_cliped & clip_method]
 15340220                                [Nglobal_steps]
   7                                     [N_chains]
  13                                     [NEX0s_base = N_base in EX0s-fits]
 0   0   1      104   2.0   8.526E+04    [Clip-Bug, RC-Crash & Burn-In warning-flags, n_censored_weights, wei_nsig_threshold & wei_limit]
   121    121.291    120.824      0.467  [idt_all, wdt_TotTime, wdt_UsrTime & wdt_SysTime (sec)]

## Synthesis Results - Best model ##

 1.39568E-03                             [chi2/Nl_eff]
     4.58905                             [adev (%)]

    92.38203                             [sum-of-x (%)]
 5.40742E-15                             [Flux_tot (units of input spectrum!)]
 6.29006E-12                             [Mini_tot (???)]
 3.67845E-12                             [Mcor_tot (???)]

 329.94                                  [v0_min  (km/s)]
 141.02                                  [vd_min  (km/s)]
 2.5382                                  [AV_min  (mag)]
 0.0000                                  [YAV_min (mag)]

# j     x_j(%)      Mini_j(%)     Mcor_j(%)     age_j(yr)     Z_j      (L/M)_j    YAV?  Mstars   component_j        a/Fe...       SSP_chi2r SSP_adev(%)   SSP_AV   SSP_x(%)
  1     18.6511     1.5865E+00    2.7128E+00    1.000000E+06  0.00400  1.094E-02    0   1.0000   age020_m42            0.0000     1.5437E-03     5.3611   3.1007    89.3217
  2      0.0000     0.0000E+00    0.0000E+00    3.160000E+06  0.00400  4.007E-02    0   0.9999   age045_m42            0.0000     2.4071E-03     5.8088   2.3569    96.1083
  3      0.0000     0.0000E+00    0.0000E+00    5.010000E+06  0.00400  2.539E-02    0   0.9488   age055_m42            0.0000     1.9655E-03     5.4530   2.6858    93.4359
  4      0.0000     0.0000E+00    0.0000E+00    6.610000E+06  0.00400  2.620E-02    0   0.9220   age061_m42            0.0000     2.5919E-03     5.7132   2.2861    96.2045
  5      0.0000     0.0000E+00    0.0000E+00    1.000000E+07  0.00400  1.322E-02    0   0.8862   age070_m42            0.0000     2.2438E-03     5.0307   2.0303    97.2037
  6      0.0000     0.0000E+00    0.0000E+00    1.445000E+07  0.00400  7.883E-03    0   0.8571   age078_m42            0.0000     1.9579E-03     4.8653   2.3578    94.7036
  7      0.0000     0.0000E+00    0.0000E+00    2.512000E+07  0.00400  5.251E-03    0   0.8174   age090_m42            0.0000     2.3028E-03     5.1173   1.9033    97.6372
  8      0.0000     0.0000E+00    0.0000E+00    4.000000E+07  0.00400  3.649E-03    0   0.7851   age104_m42            0.0000     2.5149E-03     5.2723   1.6704    98.7145
  9      0.0000     0.0000E+00    0.0000E+00    5.500000E+07  0.00400  3.098E-03    0   0.7629   age110_m42            0.0000     3.0220E-03     5.6120   1.8110    99.1891
 10      0.0000     0.0000E+00    0.0000E+00    1.015200E+08  0.00400  2.228E-03    0   0.7207   age116_m42            0.0000     3.5834E-03     5.9589   1.8234    99.6754
 11      0.0000     0.0000E+00    0.0000E+00    2.861200E+08  0.00400  1.093E-03    0   0.6648   age125_m42            0.0000     4.1536E-03     6.5506   1.2551   102.5031
 12      0.0000     0.0000E+00    0.0000E+00    5.088000E+08  0.00400  6.597E-04    0   0.6365   age130_m42            0.0000     4.9660E-03     6.9868   1.2328   103.9207
 13      0.0000     0.0000E+00    0.0000E+00    1.434000E+09  0.00400  2.132E-04    0   0.5798   age139_m42            0.0000     5.0780E-03     7.3728   0.2474   106.9516
 14      0.0000     0.0000E+00    0.0000E+00    4.250000E+09  0.00400  5.895E-05    0   0.5377   age158_m42            0.0000     4.5676E-03     7.8360  -0.2213   104.2474
 15      0.0000     0.0000E+00    0.0000E+00    7.500000E+09  0.00400  3.510E-05    0   0.5212   age171_m42            0.0000     5.0011E-03     8.4751  -0.4226   104.0977
 16      0.0000     0.0000E+00    0.0000E+00    1.300000E+10  0.00400  2.005E-05    0   0.5034   age193_m42            0.0000     5.4693E-03     9.0332  -0.5948   103.7976
 17      0.0000     0.0000E+00    0.0000E+00    1.800000E+10  0.00400  1.525E-05    0   0.4967   age213_m42            0.0000     5.2984E-03     8.8734  -0.6154   103.2683
 18      2.7208     2.0451E-01    3.4971E-01    1.000000E+06  0.00800  1.238E-02    0   1.0000   age020_m52            0.0000     1.5470E-03     5.3644   3.0977    89.4821
 19      0.0000     0.0000E+00    0.0000E+00    3.160000E+06  0.00800  3.074E-02    0   0.9966   age045_m52            0.0000     1.6077E-03     5.3771   3.0193    90.3603
 20      0.0000     0.0000E+00    0.0000E+00    5.010000E+06  0.00800  2.668E-02    0   0.9443   age055_m52            0.0000     1.8382E-03     5.3287   2.7717    92.4971
 21      0.0000     0.0000E+00    0.0000E+00    6.610000E+06  0.00800  2.136E-02    0   0.9177   age061_m52            0.0000     1.8946E-03     4.9767   1.5256    98.7236
 22      0.0000     0.0000E+00    0.0000E+00    1.000000E+07  0.00800  1.215E-02    0   0.8827   age070_m52            0.0000     2.0400E-03     5.1303   2.2172    96.6279
 23      0.0000     0.0000E+00    0.0000E+00    1.445000E+07  0.00800  8.717E-03    0   0.8552   age078_m52            0.0000     2.0450E-03     4.9349   2.3231    96.0438
 24      0.0000     0.0000E+00    0.0000E+00    2.512000E+07  0.00800  5.592E-03    0   0.8162   age090_m52            0.0000     2.4089E-03     5.3504   1.9682    98.7402
 25      0.0000     0.0000E+00    0.0000E+00    4.000000E+07  0.00800  3.896E-03    0   0.7841   age104_m52            0.0000     2.7485E-03     5.6487   1.8700    99.8894
 26      0.0000     0.0000E+00    0.0000E+00    1.015200E+08  0.00800  2.148E-03    0   0.7226   age116_m52            0.0000     3.3430E-03     5.9258   1.7937   100.3718
 27      0.0000     0.0000E+00    0.0000E+00    2.861200E+08  0.00800  9.925E-04    0   0.6683   age125_m52            0.0000     5.0290E-03     7.0651   1.2972   104.9088
 28      0.0000     0.0000E+00    0.0000E+00    9.047900E+08  0.00800  3.141E-04    0   0.6138   age135_m52            0.0000     6.1675E-03     8.4434   0.4674   110.8434
 29      0.0000     0.0000E+00    0.0000E+00    1.434000E+09  0.00800  1.719E-04    0   0.5853   age139_m52            0.0000     5.1618E-03     8.3276  -0.1277   109.4891
 30      0.0000     0.0000E+00    0.0000E+00    2.500000E+09  0.00800  7.872E-05    0   0.5600   age150_m52            0.0000     5.5849E-03     9.1095  -0.4183   107.6490
 31      0.0000     0.0000E+00    0.0000E+00    4.250000E+09  0.00800  4.336E-05    0   0.5426   age158_m52            0.0000     5.5882E-03     9.1408  -0.4341   106.6716
 32      0.0000     0.0000E+00    0.0000E+00    6.250000E+09  0.00800  3.159E-05    0   0.5319   age166_m52            0.0000     6.5099E-03    10.0286  -0.6532   107.3831
 33      0.0000     0.0000E+00    0.0000E+00    1.300000E+10  0.00800  1.361E-05    0   0.5073   age193_m52            0.0000     8.0872E-03     9.9957  -1.0000   103.3151
 34      0.0000     0.0000E+00    0.0000E+00    1.800000E+10  0.00800  9.886E-06    0   0.4990   age213_m52            0.0000     9.7071E-03    10.4404  -1.0000    99.5804
 35      5.1694     3.1156E-01    5.3276E-01    1.000000E+06  0.02000  1.544E-02    0   1.0000   age020_m62            0.0000     1.5520E-03     5.3675   3.0941    89.6754
 36      0.0000     0.0000E+00    0.0000E+00    3.160000E+06  0.02000  3.762E-02    0   0.9858   age045_m62            0.0000     1.6032E-03     5.4092   3.0325    90.4905
 37      0.0000     0.0000E+00    0.0000E+00    5.010000E+06  0.02000  3.296E-02    0   0.9342   age055_m62            0.0000     2.2726E-03     5.6999   2.6393    94.8356
 38      0.0000     0.0000E+00    0.0000E+00    8.710000E+06  0.02000  1.154E-02    0   0.8861   age067_m62            0.0000     2.2266E-03     7.3976   1.7184    97.1497
 39      0.0000     0.0000E+00    0.0000E+00    1.445000E+07  0.02000  7.663E-03    0   0.8472   age078_m62            0.0000     2.0158E-03     5.7943   1.8750    98.3224
 40      0.0000     0.0000E+00    0.0000E+00    2.512000E+07  0.02000  4.532E-03    0   0.8099   age090_m62            0.0000     2.2121E-03     6.0796   1.8677    97.9717
 41      0.0000     0.0000E+00    0.0000E+00    5.500000E+07  0.02000  2.733E-03    0   0.7595   age110_m62            0.0000     2.6686E-03     5.5198   1.8544    99.1429
 42      0.0000     0.0000E+00    0.0000E+00    1.609000E+08  0.02000  1.369E-03    0   0.6985   age120_m62            0.0000     4.2396E-03     6.3597   1.6740   102.6240
 43      0.0000     0.0000E+00    0.0000E+00    2.861200E+08  0.02000  9.013E-04    0   0.6714   age125_m62            0.0000     5.5759E-03     7.0805   1.4141   106.0035
 44      0.0000     0.0000E+00    0.0000E+00    5.088000E+08  0.02000  5.028E-04    0   0.6449   age130_m62            0.0000     6.6917E-03     8.3116   1.0095   110.0528
 45      0.0000     0.0000E+00    0.0000E+00    9.047900E+08  0.02000  2.428E-04    0   0.6179   age135_m62            0.0000     6.0750E-03     8.8002   0.3932   110.9940
 46      0.0000     0.0000E+00    0.0000E+00    1.434000E+09  0.02000  1.263E-04    0   0.5908   age139_m62            0.0000     5.7674E-03     9.0265  -0.0665   110.2257
 47      0.0000     0.0000E+00    0.0000E+00    2.500000E+09  0.02000  5.985E-05    0   0.5673   age150_m62            0.0000     6.4023E-03     9.9832  -0.4540   109.7213
 48      2.3291     6.6260E+01    6.1954E+01    4.250000E+09  0.02000  3.271E-05    0   0.5468   age158_m62            0.0000     7.8093E-03    11.2555  -0.7838   109.8710
 49      0.0000     0.0000E+00    0.0000E+00    1.000000E+10  0.02000  1.360E-05    0   0.5167   age181_m62            0.0000     1.0273E-02    11.5253  -1.0000   105.6378
 50      0.0000     0.0000E+00    0.0000E+00    1.800000E+10  0.02000  7.124E-06    0   0.5013   age213_m62            0.0000     1.3140E-02    12.1480  -1.0000    98.1638
 51     58.1482     2.0876E+00    3.5690E+00    1.000000E+06  0.05000  2.592E-02    0   0.9998   age020_m72            0.0000     1.5206E-03     5.2966   3.0883    89.6190
 52      0.0000     0.0000E+00    0.0000E+00    3.160000E+06  0.05000  4.845E-02    0   0.9577   age045_m72            0.0000     1.8382E-03     5.5896   2.9069    92.0059
 53      0.0000     0.0000E+00    0.0000E+00    5.010000E+06  0.05000  3.072E-02    0   0.9147   age055_m72            0.0000     1.8806E-03     5.5224   2.4479    94.9964
 54      0.0000     0.0000E+00    0.0000E+00    6.610000E+06  0.05000  1.455E-02    0   0.8877   age061_m72            0.0000     3.3404E-03    10.0492   1.7677    97.1560
 55      0.0000     0.0000E+00    0.0000E+00    1.000000E+07  0.05000  9.074E-03    0   0.8524   age070_m72            0.0000     2.1980E-03     6.5603   2.6223    94.7398
 56      0.0000     0.0000E+00    0.0000E+00    2.512000E+07  0.05000  4.250E-03    0   0.7902   age090_m72            0.0000     2.5087E-03     6.2316   2.3208    96.7432
 57      0.0000     0.0000E+00    0.0000E+00    4.000000E+07  0.05000  3.087E-03    0   0.7618   age104_m72            0.0000     2.8573E-03     6.5136   2.0938    98.3228
 58      0.0000     0.0000E+00    0.0000E+00    1.015200E+08  0.05000  1.700E-03    0   0.7096   age116_m72            0.0000     3.9718E-03     6.3575   1.8234   101.8345
 59      0.0000     0.0000E+00    0.0000E+00    2.861200E+08  0.05000  7.384E-04    0   0.6633   age125_m72            0.0000     6.2208E-03     7.7730   1.2652   108.2101
 60      0.0739     1.8007E-01    1.9620E-01    5.088000E+08  0.05000  3.819E-04    0   0.6372   age130_m72            0.0000     6.3151E-03     8.6662   0.7404   111.6721
 61      5.2897     2.9370E+01    3.0686E+01    9.047900E+08  0.05000  1.676E-04    0   0.6110   age135_m72            0.0000     6.4680E-03     9.8963   0.0020   111.8521
 62      0.0000     0.0000E+00    0.0000E+00    1.434000E+09  0.05000  8.837E-05    0   0.5874   age139_m72            0.0000     6.8880E-03    10.3810  -0.4650   111.8029
 63      0.0000     0.0000E+00    0.0000E+00    2.500000E+09  0.05000  4.233E-05    0   0.5598   age150_m72            0.0000     8.2946E-03    11.7511  -0.7998   111.4950
 64      0.0000     0.0000E+00    0.0000E+00    6.250000E+09  0.05000  1.435E-05    0   0.5249   age166_m72            0.0000     1.0967E-02    11.6665  -1.0000   102.2760
 65      0.0000     0.0000E+00    0.0000E+00    1.300000E+10  0.05000  6.513E-06    0   0.5036   age193_m72            0.0000     1.5397E-02    13.4690  -1.0000    93.9979
 66      0.0000     0.0000E+00    0.0000E+00    1.800000E+10  0.05000  4.527E-06    0   0.4945   age213_m72            0.0000     1.8504E-02    15.1214  -1.0000    88.3975


## Synthesis Results - Average & Chains ##

# j      x_j: min, <> & last-chain-values for 1 ...  7 chains
  1     18.6511     10.3953      9.8713     18.2306      7.5934     54.7629     11.1330     10.2887      9.8666
  2      0.0000      0.8514      0.4956      0.0000      0.4469      0.0183      1.4664      0.0000      1.7144
  3      0.0000      1.0224      0.0000      0.0255      2.6318      0.0000      0.1614      0.0000      1.5853
  4      0.0000      0.9004      0.8789      0.0169      0.6616      0.0968      0.4989      0.0000      0.5651
  5      0.0000      1.0953      0.9959      0.2131      5.1243      0.0000      1.4142      0.4234      1.2428
  6      0.0000      0.9694      1.0270      0.1987      0.0000      0.0078      1.7545      0.6385      0.0000
  7      0.0000      0.8945      1.0102      0.0000      5.2352      0.0000      0.9424      0.8202      0.0000
  8      0.0000      1.0328      1.5628      0.0870      0.9141      0.0110      0.1288      2.0182      0.2993
  9      0.0000      0.7556      0.0668      0.0325      0.0000      0.0037      0.6735      0.0000      0.0000
 10      0.0000      0.8282      0.0000      0.0530      1.4045      0.0002      0.4431      0.0000      1.5685
 11      0.0000      0.7797      0.6713      0.0000      2.2891      0.0192      0.3625      0.0000      0.0000
 12      0.0000      0.9418      0.5967      0.0399      0.0000      0.0120      1.3109      0.0000      0.8499
 13      0.0000      1.2221      1.2692      0.0890      0.8252      0.0017      0.0603      0.0000      1.0683
 14      0.0000      3.6884      4.5186      6.6489      0.0000      0.0828      7.5664      5.1719      4.0471
 15      0.0000      1.5075      3.0608      2.1069      0.2349      0.3347      3.4654      1.7678      0.3451
 16      0.0000      1.1295      1.5643      1.4457      3.5192      0.0843      0.0000      0.0000      0.0000
 17      0.0000      1.2727      2.3317      1.3626      1.2505      0.0664      0.4118      0.0000      1.9105
 18      2.7208      2.1009      1.9665      3.1733      2.8391      2.5066      2.5057      2.6844      1.6672
 19      0.0000      2.1350      2.7091      1.9381      6.1162      2.5530      3.0141      2.1009      1.1723
 20      0.0000      0.7976      0.1418      0.1092      0.7545      0.6673      0.4595      2.2242      4.6092
 21      0.0000     13.0579     15.2144     33.0700     10.1272      0.4658     14.9179     14.4113     11.8695
 22      0.0000      1.3648      1.2925      1.0729      0.0000      0.0486      1.6056      1.2576      1.7368
 23      0.0000      0.9880      0.7250      0.0839      0.0000      0.0007      0.2767      1.3455      0.8445
 24      0.0000      0.9720      0.2382      0.0742      0.0000      0.0015      0.0000      0.0000      5.1212
 25      0.0000      1.3948      2.1978      0.0884      0.5316      0.0000      0.3001      2.8861      0.7138
 26      0.0000      0.8946      0.1502      0.0496      0.0000      0.0000      0.0000      0.0000      0.0000
 27      0.0000      1.0399      1.5073      0.0158      1.1247      0.0263      0.1936      2.1114      0.2585
 28      0.0000      0.8269      0.0000      0.0279      0.0000      0.0048      1.8687      2.1921      0.0000
 29      0.0000      0.8508      0.4239      0.1043      0.0000      0.0000      0.0000      1.1886      0.0000
 30      0.0000      0.6686      0.0000      0.2104      0.5778      0.0463      0.0000      0.6459      0.6962
 31      0.0000      1.3532      1.4189      2.4410      1.6479      0.1856      2.0666      1.9938      1.5725
 32      0.0000      1.8699      1.0380      1.3127      0.0000      4.8737      1.0168      3.1584      5.1204
 33      0.0000      0.8397      0.0000      0.2522      0.0000      0.0000      1.1675      0.5627      0.0000
 34      0.0000      0.7420      0.2652      0.1271      4.3868      0.0517      0.0000      0.0000      0.2318
 35      5.1694      1.7806      4.3145      1.7891      4.5228      1.3242      1.2622      2.6865      2.8540
 36      0.0000      0.9889      0.8940      0.2118      0.8362      0.0392      0.9156      0.0000      1.5211
 37      0.0000      0.8015      1.5982      0.0026      0.7149      0.0059      0.2930      0.0000      0.6285
 38      0.0000      0.9788      2.1650      0.0000      0.0000      0.0114      0.9280      2.9207      0.0000
 39      0.0000      1.0977      0.0414      0.4670      0.0000      0.0251      0.7009      1.6974      0.3840
 40      0.0000      0.7800      0.5007      0.1921      0.0000      0.0122      0.0000      0.0000      1.3404
 41      0.0000      0.7762      1.2268      0.0611      0.7350      0.0083      1.1362      0.0000      0.4024
 42      0.0000      0.9436      0.0000      0.0000      0.2118      0.0101      0.1069      0.0000      0.2447
 43      0.0000      0.9877      0.6186      0.0864      0.0690      0.0000      0.4539      0.7557      2.4438
 44      0.0000      0.8074      0.0000      0.0643      1.2728      0.0042      1.2260      0.0408      0.0438
 45      0.0000      0.8716      0.0000      0.0160      1.6746      0.0000      0.0097      2.1138      0.3209
 46      0.0000      2.6901      1.0494      3.3358      1.8047      5.2811      3.3397      0.9115      0.2372
