###################################################################
## OUTPUT of StarlightChains_v04.for    [Cid@UFSC - 01/Apr/2007] ##
###################################################################

## Some input info
KUG0210-078._34_39.txt                   [arq_obs]
Base.CB07.vall.4m                        [arq_base]
Masks.EmLines.NEW.gm                     [arq_masks]
StCv04.C11.config                        [arq_config]
   66                                    [N_base]
    0                                    [N_YAV_components = # of components with extra extinction!]
    0                                    [i_FitPowerLaw (1/0 = Yes/No)]
-9.99                                    [alpha_PowerLaw]
CCM                                      [red_law_option]
 1.458241                                [q_norm = A(l_norm)/A(V)]

## (Re)Sampling Parameters
 3741.00                                 [l_ini (A)]
 7218.00                                 [l_fin (A)]
    1.00                                 [dl    (A)]     (OBS: dl_cushion =    50.00 A)

## Normalization info
 4020.00                                 [l_norm (A) - for base]
 4010.00                                 [llow_norm (A) - window for f_obs]
 4060.00                                 [lupp_norm (A) - window for f_obs]
1.435388E-17                             [fobs_norm (in input units)]

## S/N
 3691.00                                 [llow_SN (A) - window for S/N]
 7268.00                                 [lupp_SN (A) - window for S/N]
   3.921                                 [S/N in S/N window]
   2.672                                 [S/N in norm. window]
   0.024                                 [S/N_err in S/N window]
   0.016                                 [S/N_err in norm. window]
  1.0000                                 [fscale_chi2]

## etc...
    -2007544                             [idum_orig]
  2429                                   [NOl_eff]
  2419                                   [Nl_eff]
    10    NSIGMA                         [Ntot_cliped & clip_method]
  2630740                                [Nglobal_steps]
   7                                     [N_chains]
  23                                     [NEX0s_base = N_base in EX0s-fits]
 0   0   1       10   2.0   1.868E+03    [Clip-Bug, RC-Crash & Burn-In warning-flags, n_censored_weights, wei_nsig_threshold & wei_limit]
    42     42.503     42.091      0.411  [idt_all, wdt_TotTime, wdt_UsrTime & wdt_SysTime (sec)]

## Synthesis Results - Best model ##

 7.07166E-06                             [chi2/Nl_eff]
    11.19419                             [adev (%)]

   111.61063                             [sum-of-x (%)]
 1.34617E-17                             [Flux_tot (units of input spectrum!)]
 1.56485E-12                             [Mini_tot (???)]
 7.85699E-13                             [Mcor_tot (???)]

 -90.16                                  [v0_min  (km/s)]
 330.21                                  [vd_min  (km/s)]
-0.1296                                  [AV_min  (mag)]
 0.0000                                  [YAV_min (mag)]

# j     x_j(%)      Mini_j(%)     Mcor_j(%)     age_j(yr)     Z_j      (L/M)_j    YAV?  Mstars   component_j        a/Fe...       SSP_chi2r SSP_adev(%)   SSP_AV   SSP_x(%)
  1      0.0000     0.0000E+00    0.0000E+00    1.000000E+06  0.00400  1.094E-02    0   1.0000   age020_m42            0.0000     2.1515E-05    21.6473   4.0000    95.1250
  2      0.0000     0.0000E+00    0.0000E+00    3.160000E+06  0.00400  4.007E-02    0   0.9999   age045_m42            0.0000     1.7853E-05    19.8501   3.3459    99.3703
  3      0.0000     0.0000E+00    0.0000E+00    5.010000E+06  0.00400  2.539E-02    0   0.9488   age055_m42            0.0000     1.9432E-05    20.7485   3.6737    96.6327
  4      0.0000     0.0000E+00    0.0000E+00    6.610000E+06  0.00400  2.620E-02    0   0.9220   age061_m42            0.0000     1.7899E-05    19.8994   3.2705    99.6467
  5      0.0000     0.0000E+00    0.0000E+00    1.000000E+07  0.00400  1.322E-02    0   0.8862   age070_m42            0.0000     2.0043E-05    21.4085   2.9941   101.4199
  6      0.0000     0.0000E+00    0.0000E+00    1.445000E+07  0.00400  7.883E-03    0   0.8571   age078_m42            0.0000     2.0800E-05    21.7594   3.3244    98.7089
  7      0.0000     0.0000E+00    0.0000E+00    2.512000E+07  0.00400  5.251E-03    0   0.8174   age090_m42            0.0000     2.0318E-05    21.5965   2.8640   101.9880
  8      0.0000     0.0000E+00    0.0000E+00    4.000000E+07  0.00400  3.649E-03    0   0.7851   age104_m42            0.0000     1.9351E-05    21.0386   2.6333   103.0193
  9      0.0000     0.0000E+00    0.0000E+00    5.500000E+07  0.00400  3.098E-03    0   0.7629   age110_m42            0.0000     1.7902E-05    20.0366   2.7813   103.3069
 10      0.0000     0.0000E+00    0.0000E+00    1.015200E+08  0.00400  2.228E-03    0   0.7207   age116_m42            0.0000     1.6926E-05    19.3244   2.7968   103.7351
 11      0.0000     0.0000E+00    0.0000E+00    2.861200E+08  0.00400  1.093E-03    0   0.6648   age125_m42            0.0000     1.6802E-05    19.2842   2.2158   107.1062
 12      0.0000     0.0000E+00    0.0000E+00    5.088000E+08  0.00400  6.597E-04    0   0.6365   age130_m42            0.0000     1.4981E-05    17.9469   2.2011   108.3387
 13      0.0000     0.0000E+00    0.0000E+00    1.434000E+09  0.00400  2.132E-04    0   0.5798   age139_m42            0.0000     1.2243E-05    16.3962   1.2319   110.6345
 14      0.0000     0.0000E+00    0.0000E+00    4.250000E+09  0.00400  5.895E-05    0   0.5377   age158_m42            0.0000     1.1017E-05    15.3425   0.7943   106.3828
 15      0.0000     0.0000E+00    0.0000E+00    7.500000E+09  0.00400  3.510E-05    0   0.5212   age171_m42            0.0000     1.0339E-05    14.6512   0.6026   105.8447
 16      0.0000     0.0000E+00    0.0000E+00    1.300000E+10  0.00400  2.005E-05    0   0.5034   age193_m42            0.0000     9.8898E-06    14.1408   0.4347   105.3790
 17      0.0000     0.0000E+00    0.0000E+00    1.800000E+10  0.00400  1.525E-05    0   0.4967   age213_m42            0.0000     1.0116E-05    14.3510   0.4125   104.8690
 18      0.0000     0.0000E+00    0.0000E+00    1.000000E+06  0.00800  1.238E-02    0   1.0000   age020_m52            0.0000     2.1485E-05    21.6343   4.0000    95.1999
 19      0.0000     0.0000E+00    0.0000E+00    3.160000E+06  0.00800  3.074E-02    0   0.9966   age045_m52            0.0000     2.0944E-05    21.4526   4.0000    93.6438
 20      0.0000     0.0000E+00    0.0000E+00    5.010000E+06  0.00800  2.668E-02    0   0.9443   age055_m52            0.0000     1.9937E-05    21.0117   3.7583    95.6853
 21      0.0000     0.0000E+00    0.0000E+00    6.610000E+06  0.00800  2.136E-02    0   0.9177   age061_m52            0.0000     1.8974E-05    20.9375   2.4990   102.5014
 22      0.0000     0.0000E+00    0.0000E+00    1.000000E+07  0.00800  1.215E-02    0   0.8827   age070_m52            0.0000     2.1399E-05    22.1607   3.1745   101.0365
 23      0.0000     0.0000E+00    0.0000E+00    1.445000E+07  0.00800  8.717E-03    0   0.8552   age078_m52            0.0000     2.0504E-05    21.6165   3.2883   100.1533
 24      0.0000     0.0000E+00    0.0000E+00    2.512000E+07  0.00800  5.592E-03    0   0.8162   age090_m52            0.0000     2.0301E-05    21.5690   2.9252   103.2598
 25      0.0000     0.0000E+00    0.0000E+00    4.000000E+07  0.00800  3.896E-03    0   0.7841   age104_m52            0.0000     1.9109E-05    20.8320   2.8315   104.3207
 26      0.0000     0.0000E+00    0.0000E+00    1.015200E+08  0.00800  2.148E-03    0   0.7226   age116_m52            0.0000     1.7303E-05    19.6334   2.7649   104.4759
 27      0.0000     0.0000E+00    0.0000E+00    2.861200E+08  0.00800  9.925E-04    0   0.6683   age125_m52            0.0000     1.4888E-05    17.8602   2.2660   109.3666
 28      0.0000     0.0000E+00    0.0000E+00    9.047900E+08  0.00800  3.141E-04    0   0.6138   age135_m52            0.0000     1.1129E-05    15.1356   1.4552   114.5993
 29      0.0000     0.0000E+00    0.0000E+00    1.434000E+09  0.00800  1.719E-04    0   0.5853   age139_m52            0.0000     1.0899E-05    15.3186   0.8791   112.0644
 30      0.0000     0.0000E+00    0.0000E+00    2.500000E+09  0.00800  7.872E-05    0   0.5600   age150_m52            0.0000     9.4757E-06    13.9952   0.6143   109.1795
 31      0.0000     0.0000E+00    0.0000E+00    4.250000E+09  0.00800  4.336E-05    0   0.5426   age158_m52            0.0000     9.5299E-06    13.9434   0.6001   108.1188
 32      0.0000     0.0000E+00    0.0000E+00    6.250000E+09  0.00800  3.159E-05    0   0.5319   age166_m52            0.0000     8.6495E-06    13.0646   0.3918   108.4370
 33      0.0000     0.0000E+00    0.0000E+00    1.300000E+10  0.00800  1.361E-05    0   0.5073   age193_m52            0.0000     7.8502E-06    12.1337  -0.0831   108.1024
 34      4.2057     3.2790E+00    3.2588E+00    1.800000E+10  0.00800  9.886E-06    0   0.4990   age213_m52            0.0000     7.4197E-06    11.5760  -0.1974   107.8864
 35      0.0000     0.0000E+00    0.0000E+00    1.000000E+06  0.02000  1.544E-02    0   1.0000   age020_m62            0.0000     2.1556E-05    21.6682   4.0000    95.2954
 36      0.0000     0.0000E+00    0.0000E+00    3.160000E+06  0.02000  3.762E-02    0   0.9858   age045_m62            0.0000     2.1280E-05    21.5845   4.0000    94.1998
 37      0.0000     0.0000E+00    0.0000E+00    5.010000E+06  0.02000  3.296E-02    0   0.9342   age055_m62            0.0000     1.8594E-05    20.2387   3.6282    98.0697
 38      0.0000     0.0000E+00    0.0000E+00    8.710000E+06  0.02000  1.154E-02    0   0.8861   age067_m62            0.0000     2.9248E-05    26.3741   2.6305   103.1653
 39      0.0000     0.0000E+00    0.0000E+00    1.445000E+07  0.02000  7.663E-03    0   0.8472   age078_m62            0.0000     2.3045E-05    23.1337   2.8174   103.2649
 40      0.0000     0.0000E+00    0.0000E+00    2.512000E+07  0.02000  4.532E-03    0   0.8099   age090_m62            0.0000     2.3404E-05    23.3276   2.8064   103.0520
 41      0.0000     0.0000E+00    0.0000E+00    5.500000E+07  0.02000  2.733E-03    0   0.7595   age110_m62            0.0000     1.9226E-05    20.9505   2.8151   103.5426
 42      0.0000     0.0000E+00    0.0000E+00    1.609000E+08  0.02000  1.369E-03    0   0.6985   age120_m62            0.0000     1.6430E-05    18.9727   2.6401   107.1072
 43      0.0000     0.0000E+00    0.0000E+00    2.861200E+08  0.02000  9.013E-04    0   0.6714   age125_m62            0.0000     1.4688E-05    17.5805   2.3807   110.6966
 44      3.6657     5.6193E-02    7.2175E-02    5.088000E+08  0.02000  5.028E-04    0   0.6449   age130_m62            0.0000     1.1925E-05    15.4036   1.9942   114.1624
 45     10.9606     3.4794E-01    4.2820E-01    9.047900E+08  0.02000  2.428E-04    0   0.6179   age135_m62            0.0000     1.0072E-05    14.3751   1.4050   113.6881
 46      0.0000     0.0000E+00    0.0000E+00    1.434000E+09  0.02000  1.263E-04    0   0.5908   age139_m62            0.0000     9.5593E-06    14.0314   0.9637   111.9695
 47      1.6486     2.1232E-01    2.3989E-01    2.500000E+09  0.02000  5.985E-05    0   0.5673   age150_m62            0.0000     8.6784E-06    13.1271   0.5945   110.6778
 48      0.0000     0.0000E+00    0.0000E+00    4.250000E+09  0.02000  3.271E-05    0   0.5468   age158_m62            0.0000     7.7512E-06    12.1291   0.2822   110.1502
 49     17.9670     1.0183E+01    1.0479E+01    1.000000E+10  0.02000  1.360E-05    0   0.5167   age181_m62            0.0000     7.1535E-06    11.2521  -0.0788   110.3166
 50     16.3310     1.7669E+01    1.7641E+01    1.800000E+10  0.02000  7.124E-06    0   0.5013   age213_m62            0.0000     7.1417E-06    10.9676  -0.2992   109.9117
 51      0.0000     0.0000E+00    0.0000E+00    1.000000E+06  0.05000  2.592E-02    0   0.9998   age020_m72            0.0000     2.1888E-05    21.8374   4.0000    95.0476
 52      0.0000     0.0000E+00    0.0000E+00    3.160000E+06  0.05000  4.845E-02    0   0.9577   age045_m72            0.0000     2.0144E-05    21.0256   3.8972    95.0516
 53      0.0000     0.0000E+00    0.0000E+00    5.010000E+06  0.05000  3.072E-02    0   0.9147   age055_m72            0.0000     2.2498E-05    22.5960   3.3998    99.4028
 54      0.1058     5.6056E-05    9.9108E-05    6.610000E+06  0.05000  1.455E-02    0   0.8877   age061_m72            0.0000     3.6230E-05    29.5661   2.6438   104.2671
 55      0.0000     0.0000E+00    0.0000E+00    1.000000E+07  0.05000  9.074E-03    0   0.8524   age070_m72            0.0000     2.4058E-05    23.2047   3.5587    99.4929
 56      0.0000     0.0000E+00    0.0000E+00    2.512000E+07  0.05000  4.250E-03    0   0.7902   age090_m72            0.0000     2.1904E-05    22.2498   3.2668   101.4601
 57      0.0000     0.0000E+00    0.0000E+00    4.000000E+07  0.05000  3.087E-03    0   0.7618   age104_m72            0.0000     2.1760E-05    22.2362   3.0356   103.2931
 58      0.0000     0.0000E+00    0.0000E+00    1.015200E+08  0.05000  1.700E-03    0   0.7096   age116_m72            0.0000     1.7741E-05    19.7782   2.7813   106.5664
 59      0.0000     0.0000E+00    0.0000E+00    2.861200E+08  0.05000  7.384E-04    0   0.6633   age125_m72            0.0000     1.3155E-05    16.4160   2.2423   112.5799
 60      0.0000     0.0000E+00    0.0000E+00    5.088000E+08  0.05000  3.819E-04    0   0.6372   age130_m72            0.0000     1.0643E-05    14.7535   1.7472   114.7427
 61      6.0986     2.8047E-01    3.4130E-01    9.047900E+08  0.05000  1.676E-04    0   0.6110   age135_m72            0.0000     8.7973E-06    13.2523   1.0513   112.9230
 62      2.6872     2.3438E-01    2.7420E-01    1.434000E+09  0.05000  8.837E-05    0   0.5874   age139_m72            0.0000     8.4412E-06    12.8870   0.5874   112.5980
 63      0.0000     0.0000E+00    0.0000E+00    2.500000E+09  0.05000  4.233E-05    0   0.5598   age150_m72            0.0000     7.5502E-06    11.8547   0.2761   111.3768
 64      1.4258     7.6579E-01    8.0058E-01    6.250000E+09  0.05000  1.435E-05    0   0.5249   age166_m72            0.0000     7.1850E-06    11.3162  -0.1796   110.0519
 65     23.5428     2.7861E+01    2.7945E+01    1.300000E+10  0.05000  6.513E-06    0   0.5036   age193_m72            0.0000     7.4123E-06    11.0904  -0.4709   111.5736
 66     22.9718     3.9111E+01    3.8520E+01    1.800000E+10  0.05000  4.527E-06    0   0.4945   age213_m72            0.0000     7.8644E-06    11.1721  -0.6386   111.5954


## Synthesis Results - Average & Chains ##

# j      x_j: min, <> & last-chain-values for 1 ...  7 chains
  1      0.0000      1.5073      0.0000      0.0000      0.0000      0.0000      0.0153      0.0000      0.0000
  2      0.0000      1.1969      0.0000      0.0000      0.0014      0.0000      0.0000      0.0000      0.0000
  3      0.0000      1.0794      0.0000      0.0270      0.0000      0.0000      0.0000      0.0000      0.0000
  4      0.0000      3.0384      0.0000      0.0817      0.0000      0.0000      0.0000      0.0000      0.0000
  5      0.0000      1.3383      0.0000      0.0000      0.0000      0.0297      0.0148      0.0868      0.0000
  6      0.0000      1.2536      0.0000      0.0000      0.0000      0.0000      0.0000      0.0157      0.0541
  7      0.0000      1.0666      0.0000      0.0000      0.0000      0.0000      0.0000      0.0058      0.0000
  8      0.0000      1.6213      0.0000      0.0616      0.0000      0.0000      0.0194      0.0000      0.0000
  9      0.0000      1.7323      0.4874      0.3609      0.3801      0.3664      0.3464      0.4395      0.3666
 10      0.0000      1.9939      0.2055      0.2019      0.0894      0.0764      0.2274      0.0778      0.1542
 11      0.0000      1.4698      0.3207      0.1451      0.2541      0.2192      0.1971      0.2901      0.1953
 12      0.0000      1.2603      0.0000      0.0000      0.0000      0.0758      0.0000      0.0000      0.0000
 13      0.0000      1.7915      0.0049      0.0000      0.0000      0.0000      0.0737      0.0000      0.2935
 14      0.0000      1.7844      0.0000      0.0360      0.0110      0.0000      0.0000      0.0000      0.0000
 15      0.0000      1.4584      0.0019      0.0000      0.1139      0.0000      0.0414      0.2550      0.0000
 16      0.0000      1.1114      0.6797      0.4560      0.5990      0.2887      0.0092      0.3590      0.6677
 17      0.0000      1.7549      0.2991      0.1043      0.5237      0.3802      0.3469      0.0000      0.3025
 18      0.0000      1.1197      0.0000      0.0410      0.0000      0.0000      0.0000      0.0000      0.0000
 19      0.0000      1.4552      0.0157      0.0249      0.0000      0.0102      0.0772      0.0000      0.0176
 20      0.0000      1.2780      0.0000      0.0000      0.0000      0.0000      0.0000      0.0000      0.0000
 21      0.0000      1.2694      0.0705      0.1239      0.0000      0.0844      0.1210      0.0000      0.0996
 22      0.0000      1.3152      0.1904      0.2028      0.0000      0.2721      0.1855      0.1900      0.2502
 23      0.0000      1.3067      0.0000      0.0000      0.0000      0.0000      0.0000      0.0000      0.0000
 24      0.0000      1.3855      0.0000      0.0224      0.0000      0.0000      0.0402      0.0000      0.0000
 25      0.0000      1.3759      0.0590      0.0000      0.0527      0.0000      0.0266      0.0000      0.0000
 26      0.0000      1.4890      0.0000      0.0000      0.0000      0.0000      0.0464      0.0000      0.0000
 27      0.0000      1.6647      0.0000      0.0864      0.0000      0.0445      0.0000      0.0000      0.1198
 28      0.0000      1.4109      0.6344      0.6040      0.6297      0.7079      0.6633      0.5787      0.5952
 29      0.0000      1.0914      0.0054      0.0000      0.0000      0.1455      0.1689      0.0506      0.0000
 30      0.0000      1.5712      0.0041      0.0406      0.0111      0.0479      0.0749      0.0000      0.0000
 31      0.0000      1.5979      2.4131      2.4474      2.4189      2.4333      2.2352      2.5240      2.8177
 32      0.0000      1.7953      4.1095      3.5213      3.8796      4.5106      2.7255      4.1644      3.8398
 33      0.0000      3.1273     23.0551     21.3810     23.8509     19.5340     21.5199     19.8869     21.4041
 34      4.2057      2.6680     16.2603     16.2785     13.5752     16.2411     15.0828     16.6899     13.8029
 35      0.0000      1.6939      1.4958      1.4644      1.4384      1.4568      1.5866      1.4624      1.4168
 36      0.0000      1.4266      0.3736      0.3494      0.3054      0.4168      0.4070      0.4389      0.3557
 37      0.0000      1.8497      2.0889      1.9168      1.6878      1.9840      2.4017      1.8337      1.7758
 38      0.0000      1.4673      0.0571      0.0000      0.0466      0.0349      0.0000      0.0000      0.0000
 39      0.0000      1.9029      0.0000      0.1863      0.1102      0.1606      0.2190      0.1952      0.2648
 40      0.0000      1.0098      0.1500      0.1696      0.1252      0.1392      0.0000      0.0991      0.2122
 41      0.0000      1.3586      0.0659      0.0500      0.0175      0.0000      0.0000      0.0000      0.0000
 42      0.0000      1.7285      0.1974      0.1863      0.2422      0.1344      0.1841      0.2016      0.1050
 43      0.0000      1.2436      0.0227      0.0000      0.0000      0.0799      0.0000      0.0000      0.0137
 44      3.6657      1.3376      2.3821      2.4071      2.3625      2.4394      2.4360      2.3362      2.3328
 45     10.9606      1.8052      0.2006      0.3795      0.4034      0.4219      0.6139      0.3221      0.4592
 46      0.0000      1.7317      4.4672      4.5034      4.3828      4.3978      4.4531      4.7651      4.2483
