###################################################################
## OUTPUT of StarlightChains_v04.for    [Cid@UFSC - 01/Apr/2007] ##
###################################################################

## Some input info
KUG0210-078._31_31.txt                   [arq_obs]
Base.CB07.vall.4m                        [arq_base]
Masks.EmLines.NEW.gm                     [arq_masks]
StCv04.C11.config                        [arq_config]
   66                                    [N_base]
    0                                    [N_YAV_components = # of components with extra extinction!]
    0                                    [i_FitPowerLaw (1/0 = Yes/No)]
-9.99                                    [alpha_PowerLaw]
CCM                                      [red_law_option]
 1.458241                                [q_norm = A(l_norm)/A(V)]

## (Re)Sampling Parameters
 3741.00                                 [l_ini (A)]
 7218.00                                 [l_fin (A)]
    1.00                                 [dl    (A)]     (OBS: dl_cushion =    50.00 A)

## Normalization info
 4020.00                                 [l_norm (A) - for base]
 4010.00                                 [llow_norm (A) - window for f_obs]
 4060.00                                 [lupp_norm (A) - window for f_obs]
9.002706E-17                             [fobs_norm (in input units)]

## S/N
 3691.00                                 [llow_SN (A) - window for S/N]
 7268.00                                 [lupp_SN (A) - window for S/N]
   4.587                                 [S/N in S/N window]
   3.536                                 [S/N in norm. window]
   0.207                                 [S/N_err in S/N window]
   0.160                                 [S/N_err in norm. window]
  1.0000                                 [fscale_chi2]

## etc...
    -2007456                             [idum_orig]
  2432                                   [NOl_eff]
  2403                                   [Nl_eff]
    29    NSIGMA                         [Ntot_cliped & clip_method]
 11485320                                [Nglobal_steps]
   7                                     [N_chains]
  37                                     [NEX0s_base = N_base in EX0s-fits]
 0   0   1       29   2.0   2.030E+04    [Clip-Bug, RC-Crash & Burn-In warning-flags, n_censored_weights, wei_nsig_threshold & wei_limit]
    80     79.182     78.326      0.856  [idt_all, wdt_TotTime, wdt_UsrTime & wdt_SysTime (sec)]

## Synthesis Results - Best model ##

 3.64736E-05                             [chi2/Nl_eff]
     2.11800                             [adev (%)]

   102.82275                             [sum-of-x (%)]
 9.65989E-17                             [Flux_tot (units of input spectrum!)]
 7.99654E-12                             [Mini_tot (???)]
 4.04512E-12                             [Mcor_tot (???)]

  16.61                                  [v0_min  (km/s)]
 206.29                                  [vd_min  (km/s)]
 0.0317                                  [AV_min  (mag)]
 0.0000                                  [YAV_min (mag)]

# j     x_j(%)      Mini_j(%)     Mcor_j(%)     age_j(yr)     Z_j      (L/M)_j    YAV?  Mstars   component_j        a/Fe...       SSP_chi2r SSP_adev(%)   SSP_AV   SSP_x(%)
  1      0.0000     0.0000E+00    0.0000E+00    1.000000E+06  0.00400  1.094E-02    0   1.0000   age020_m42            0.0000     5.2290E-04     8.4162   3.9091    87.2288
  2      0.0000     0.0000E+00    0.0000E+00    3.160000E+06  0.00400  4.007E-02    0   0.9999   age045_m42            0.0000     4.2344E-04     7.6414   3.1752    93.5496
  3      0.0000     0.0000E+00    0.0000E+00    5.010000E+06  0.00400  2.539E-02    0   0.9488   age055_m42            0.0000     4.6492E-04     7.9644   3.4989    91.1222
  4      2.3834     1.0687E-03    1.9479E-03    6.610000E+06  0.00400  2.620E-02    0   0.9220   age061_m42            0.0000     4.2764E-04     7.6924   3.1007    93.7798
  5      0.9155     8.1360E-04    1.4253E-03    1.000000E+07  0.00400  1.322E-02    0   0.8862   age070_m42            0.0000     5.1552E-04     8.9062   2.8137    95.8685
  6      0.8315     1.2393E-03    2.0998E-03    1.445000E+07  0.00400  7.883E-03    0   0.8571   age078_m42            0.0000     5.3389E-04     8.9759   3.1420    93.3853
  7      0.0000     0.0000E+00    0.0000E+00    2.512000E+07  0.00400  5.251E-03    0   0.8174   age090_m42            0.0000     5.3415E-04     9.1603   2.6836    96.4093
  8      0.0000     0.0000E+00    0.0000E+00    4.000000E+07  0.00400  3.649E-03    0   0.7851   age104_m42            0.0000     4.9754E-04     8.8486   2.4552    97.2930
  9      0.0000     0.0000E+00    0.0000E+00    5.500000E+07  0.00400  3.098E-03    0   0.7629   age110_m42            0.0000     4.5069E-04     8.1906   2.6091    97.3262
 10      0.0000     0.0000E+00    0.0000E+00    1.015200E+08  0.00400  2.228E-03    0   0.7207   age116_m42            0.0000     4.2515E-04     7.8400   2.6297    97.5108
 11      0.3401     3.6559E-03    4.8045E-03    2.861200E+08  0.00400  1.093E-03    0   0.6648   age125_m42            0.0000     4.4839E-04     8.3694   2.0495   100.6753
 12      0.0000     0.0000E+00    0.0000E+00    5.088000E+08  0.00400  6.597E-04    0   0.6365   age130_m42            0.0000     3.8304E-04     7.6408   2.0422   101.5187
 13      0.0000     0.0000E+00    0.0000E+00    1.434000E+09  0.00400  2.132E-04    0   0.5798   age139_m42            0.0000     2.3644E-04     6.0553   1.0792   103.4034
 14      0.0000     0.0000E+00    0.0000E+00    4.250000E+09  0.00400  5.895E-05    0   0.5377   age158_m42            0.0000     1.2927E-04     4.2882   0.6476    99.1970
 15      3.5463     1.1870E+00    1.2230E+00    7.500000E+09  0.00400  3.510E-05    0   0.5212   age171_m42            0.0000     1.0045E-04     3.6581   0.4604    98.5341
 16      0.0000     0.0000E+00    0.0000E+00    1.300000E+10  0.00400  2.005E-05    0   0.5034   age193_m42            0.0000     8.3616E-05     3.2383   0.2952    98.0031
 17      0.0000     0.0000E+00    0.0000E+00    1.800000E+10  0.00400  1.525E-05    0   0.4967   age213_m42            0.0000     8.8029E-05     3.3438   0.2718    97.5809
 18      0.0000     0.0000E+00    0.0000E+00    1.000000E+06  0.00800  1.238E-02    0   1.0000   age020_m52            0.0000     5.2198E-04     8.4065   3.9054    87.4037
 19      0.0000     0.0000E+00    0.0000E+00    3.160000E+06  0.00800  3.074E-02    0   0.9966   age045_m52            0.0000     5.0949E-04     8.2738   3.8278    88.2482
 20      0.0000     0.0000E+00    0.0000E+00    5.010000E+06  0.00800  2.668E-02    0   0.9443   age055_m52            0.0000     4.7608E-04     8.0499   3.5802    90.3542
 21      0.0000     0.0000E+00    0.0000E+00    6.610000E+06  0.00800  2.136E-02    0   0.9177   age061_m52            0.0000     4.3495E-04     8.3279   2.3200    96.8496
 22      0.2610     2.5239E-04    4.4041E-04    1.000000E+07  0.00800  1.215E-02    0   0.8827   age070_m52            0.0000     5.6803E-04     9.4577   2.9896    95.7024
 23      0.0000     0.0000E+00    0.0000E+00    1.445000E+07  0.00800  8.717E-03    0   0.8552   age078_m52            0.0000     5.2268E-04     8.9073   3.1065    94.7358
 24      0.0000     0.0000E+00    0.0000E+00    2.512000E+07  0.00800  5.592E-03    0   0.8162   age090_m52            0.0000     5.3607E-04     9.1991   2.7443    97.6478
 25      0.0000     0.0000E+00    0.0000E+00    4.000000E+07  0.00800  3.896E-03    0   0.7841   age104_m52            0.0000     4.9676E-04     8.8085   2.6534    98.5361
 26      0.0000     0.0000E+00    0.0000E+00    1.015200E+08  0.00800  2.148E-03    0   0.7226   age116_m52            0.0000     4.3205E-04     8.0587   2.5949    98.3250
 27      0.0000     0.0000E+00    0.0000E+00    2.861200E+08  0.00800  9.925E-04    0   0.6683   age125_m52            0.0000     3.7687E-04     7.5650   2.1057   102.5026
 28      0.0000     0.0000E+00    0.0000E+00    9.047900E+08  0.00800  3.141E-04    0   0.6138   age135_m52            0.0000     2.2134E-04     5.7802   1.3073   106.9409
 29      0.0000     0.0000E+00    0.0000E+00    1.434000E+09  0.00800  1.719E-04    0   0.5853   age139_m52            0.0000     1.5507E-04     4.8356   0.7300   104.6593
 30      0.0000     0.0000E+00    0.0000E+00    2.500000E+09  0.00800  7.872E-05    0   0.5600   age150_m52            0.0000     7.9761E-05     3.2791   0.4745   101.5778
 31      2.0890     5.6602E-01    6.0713E-01    4.250000E+09  0.00800  4.336E-05    0   0.5426   age158_m52            0.0000     7.8165E-05     3.2268   0.4604   100.5834
 32      0.0000     0.0000E+00    0.0000E+00    6.250000E+09  0.00800  3.159E-05    0   0.5319   age166_m52            0.0000     5.6869E-05     2.6306   0.2598   100.5703
 33      0.0000     0.0000E+00    0.0000E+00    1.300000E+10  0.00800  1.361E-05    0   0.5073   age193_m52            0.0000     4.7765E-05     2.3718  -0.2059    99.9023
 34      4.2822     5.0889E+00    5.0199E+00    1.800000E+10  0.00800  9.886E-06    0   0.4990   age213_m52            0.0000     5.8500E-05     2.6687  -0.3134    99.4430
 35      0.0000     0.0000E+00    0.0000E+00    1.000000E+06  0.02000  1.544E-02    0   1.0000   age020_m62            0.0000     5.2513E-04     8.4230   3.9009    87.6295
 36      0.0000     0.0000E+00    0.0000E+00    3.160000E+06  0.02000  3.762E-02    0   0.9858   age045_m62            0.0000     5.2119E-04     8.3560   3.8374    88.5085
 37      0.0000     0.0000E+00    0.0000E+00    5.010000E+06  0.02000  3.296E-02    0   0.9342   age055_m62            0.0000     4.3781E-04     7.6368   3.4560    92.3788
 38      0.0000     0.0000E+00    0.0000E+00    8.710000E+06  0.02000  1.154E-02    0   0.8861   age067_m62            0.0000     9.6114E-04    12.9405   2.4273    98.5436
 39      0.0000     0.0000E+00    0.0000E+00    1.445000E+07  0.02000  7.663E-03    0   0.8472   age078_m62            0.0000     6.5154E-04    10.4439   2.6269    98.0970
 40      0.0000     0.0000E+00    0.0000E+00    2.512000E+07  0.02000  4.532E-03    0   0.8099   age090_m62            0.0000     6.8120E-04    10.6724   2.6164    97.8742
 41      0.0000     0.0000E+00    0.0000E+00    5.500000E+07  0.02000  2.733E-03    0   0.7595   age110_m62            0.0000     4.9201E-04     8.7542   2.6393    97.7207
 42      0.0000     0.0000E+00    0.0000E+00    1.609000E+08  0.02000  1.369E-03    0   0.6985   age120_m62            0.0000     4.2115E-04     7.9638   2.4752   100.5864
 43      0.0000     0.0000E+00    0.0000E+00    2.861200E+08  0.02000  9.013E-04    0   0.6714   age125_m62            0.0000     3.8322E-04     7.5833   2.2240   103.6053
 44      0.0000     0.0000E+00    0.0000E+00    5.088000E+08  0.02000  5.028E-04    0   0.6449   age130_m62            0.0000     2.8530E-04     6.4508   1.8449   106.5701
 45      0.0000     0.0000E+00    0.0000E+00    9.047900E+08  0.02000  2.428E-04    0   0.6179   age135_m62            0.0000     1.5257E-04     4.7368   1.2616   105.9032
 46      0.0000     0.0000E+00    0.0000E+00    1.434000E+09  0.02000  1.263E-04    0   0.5908   age139_m62            0.0000     9.5896E-05     3.7035   0.8217   104.2408
 47      9.2310     1.8120E+00    2.0321E+00    2.500000E+09  0.02000  5.985E-05    0   0.5673   age150_m62            0.0000     5.5608E-05     2.7071   0.4609   102.7318
 48      0.0000     0.0000E+00    0.0000E+00    4.250000E+09  0.02000  3.271E-05    0   0.5468   age158_m62            0.0000     4.4527E-05     2.3415   0.1595   101.7920
 49     19.7714     1.7080E+01    1.7446E+01    1.000000E+10  0.02000  1.360E-05    0   0.5167   age181_m62            0.0000     7.2550E-05     3.0882  -0.1883   101.4521
 50     13.4810     2.2232E+01    2.2032E+01    1.800000E+10  0.02000  7.124E-06    0   0.5013   age213_m62            0.0000     1.1863E-04     4.0338  -0.3994   100.7455
 51      1.4005     6.3478E-04    1.2546E-03    1.000000E+06  0.05000  2.592E-02    0   0.9998   age020_m72            0.0000     5.3886E-04     8.5352   3.8922    87.6643
 52      3.9454     9.5670E-04    1.8112E-03    3.160000E+06  0.05000  4.845E-02    0   0.9577   age045_m72            0.0000     4.8288E-04     8.0042   3.7200    89.7304
 53      0.4851     1.8552E-04    3.3546E-04    5.010000E+06  0.05000  3.072E-02    0   0.9147   age055_m72            0.0000     6.0994E-04     9.7205   3.2107    94.3677
 54      1.5108     1.2199E-03    2.1407E-03    6.610000E+06  0.05000  1.455E-02    0   0.8877   age061_m72            0.0000     1.4306E-03    15.9340   2.4323   100.0690
 55      0.0000     0.0000E+00    0.0000E+00    1.000000E+07  0.05000  9.074E-03    0   0.8524   age070_m72            0.0000     7.2999E-04    10.4687   3.3651    94.6430
 56      1.0354     2.8621E-03    4.4709E-03    2.512000E+07  0.05000  4.250E-03    0   0.7902   age090_m72            0.0000     6.3083E-04     9.8775   3.0817    96.1598
 57      0.0000     0.0000E+00    0.0000E+00    4.000000E+07  0.05000  3.087E-03    0   0.7618   age104_m72            0.0000     6.4297E-04    10.0479   2.8521    97.8333
 58      0.0000     0.0000E+00    0.0000E+00    1.015200E+08  0.05000  1.700E-03    0   0.7096   age116_m72            0.0000     4.7930E-04     8.5471   2.6127   100.2330
 59      0.0000     0.0000E+00    0.0000E+00    2.861200E+08  0.05000  7.384E-04    0   0.6633   age125_m72            0.0000     3.2936E-04     6.9760   2.0910   105.1419
 60      1.4448     4.4446E-02    5.5986E-02    5.088000E+08  0.05000  3.819E-04    0   0.6372   age130_m72            0.0000     1.9722E-04     5.3343   1.6023   106.9228
 61      3.9397     2.7616E-01    3.3356E-01    9.047900E+08  0.05000  1.676E-04    0   0.6110   age135_m72            0.0000     8.1361E-05     3.3417   0.9158   104.8648
 62      7.6757     1.0204E+00    1.1849E+00    1.434000E+09  0.05000  8.837E-05    0   0.5874   age139_m72            0.0000     5.4137E-05     2.6526   0.4556   104.4355
 63      0.0000     0.0000E+00    0.0000E+00    2.500000E+09  0.05000  4.233E-05    0   0.5598   age150_m72            0.0000     4.6153E-05     2.4308   0.1561   102.8456
 64      0.0000     0.0000E+00    0.0000E+00    6.250000E+09  0.05000  1.435E-05    0   0.5249   age166_m72            0.0000     8.3263E-05     3.2893  -0.2869   101.1403
 65     15.4942     2.7949E+01    2.7824E+01    1.300000E+10  0.05000  6.513E-06    0   0.5036   age193_m72            0.0000     1.5167E-04     4.6412  -0.5675   102.1652
 66      8.7590     2.2731E+01    2.2221E+01    1.800000E+10  0.05000  4.527E-06    0   0.4945   age213_m72            0.0000     2.0887E-04     5.5448  -0.7290   101.9778


## Synthesis Results - Average & Chains ##

# j      x_j: min, <> & last-chain-values for 1 ...  7 chains
  1      0.0000      0.3158      0.0731      0.0000      0.1574      0.0396      0.2187      0.1442      0.0514
  2      0.0000      0.2648      0.1669      0.0820      0.1925      0.0145      0.0362      0.0248      0.0755
  3      0.0000      0.3468      0.2986      0.0010      0.0475      0.5581      0.2759      0.0403      0.0498
  4      2.3834      0.4000      0.3007      0.0663      0.0000      0.0114      0.0924      0.1742      0.3187
  5      0.9155      0.2673      0.1758      0.0729      0.1493      0.0011      0.1045      0.0260      0.4073
  6      0.8315      0.2291      0.3205      0.0000      0.0768      0.2213      0.3661      0.0000      0.0969
  7      0.0000      0.3872      0.1752      0.0000      0.0000      0.1385      0.1820      0.0547      0.1727
  8      0.0000      0.3176      0.0178      0.0238      0.1161      0.1581      0.3922      0.0000      0.1305
  9      0.0000      0.2627      0.0286      0.0000      0.0568      0.3296      0.0797      0.1236      0.2673
 10      0.0000      0.2734      0.0000      0.1111      0.2724      0.0582      0.0000      0.2159      0.1450
 11      0.3401      0.3090      0.1750      0.0000      0.1851      0.0784      0.0000      0.0346      0.0332
 12      0.0000      0.2517      0.0000      0.0000      0.1673      0.0608      0.1674      0.3679      0.0000
 13      0.0000      0.2258      0.1748      0.0223      0.0842      0.0471      0.1612      0.1167      0.2338
 14      0.0000      0.2359      0.1652      0.0099      0.0000      0.0529      0.0000      0.2136      0.2112
 15      3.5463      0.1766      0.1764      0.0047      0.0365      0.0000      0.0439      0.1844      0.1371
 16      0.0000      0.2536      0.1301      0.1530      0.0551      0.2143      0.2295      0.0494      0.2238
 17      0.0000      0.2708      0.4957      0.1725      0.2991      0.2599      0.0370      0.2683      0.0251
 18      0.0000      0.2117      0.0938      0.0000      0.0000      0.3751      0.0147      0.0711      0.0369
 19      0.0000      0.2735      0.3156      0.0774      0.0212      0.0775      0.0336      0.0722      0.0363
 20      0.0000      0.3048      0.4286      0.1823      0.0000      0.1275      0.3506      0.0000      0.1601
 21      0.0000      0.2728      0.0000      0.2052      0.1216      0.1109      0.0996      0.0000      0.1571
 22      0.2610      0.3199      0.2252      0.0000      0.1062      0.0000      0.1137      0.2124      0.0312
 23      0.0000      0.3366      0.0928      0.0748      0.0136      0.1530      0.0000      0.0846      0.2415
 24      0.0000      0.2702      0.6416      0.2050      0.1515      0.0100      0.0000      0.1823      0.1099
 25      0.0000      0.2478      0.0833      0.0928      0.0063      0.0710      0.2251      0.2791      0.2284
 26      0.0000      0.2828      0.2803      0.1736      0.1987      0.0000      0.0064      0.0255      0.0529
 27      0.0000      0.3124      0.0661      0.0696      0.1162      0.0000      0.0173      0.2885      0.1940
 28      0.0000      0.3153      0.1796      0.6996      0.2284      0.2750      0.0000      0.2179      0.0574
 29      0.0000      0.3331      0.4955      0.1881      0.1438      0.2970      0.0635      0.0763      0.0219
 30      0.0000      0.3725      0.1283      0.2748      0.1072      0.1849      0.0041      0.0494      0.0582
 31      2.0890      0.2690      0.3421      0.0000      0.1849      0.0343      0.0000      0.0867      0.0000
 32      0.0000      0.2256      0.0237      0.0000      0.0248      0.0460      0.0000      0.5605      0.0497
 33      0.0000      0.3073      0.0000      0.1380      0.0966      0.0294      0.1021      0.0544      0.0000
 34      4.2822      0.2954      0.2769      0.1429      0.1373      0.1636      0.0000      0.2666      0.1571
 35      0.0000      0.3119      0.0674      0.3539      0.0640      0.0578      0.2439      0.0119      0.1644
 36      0.0000      0.4140      0.1054      0.0401      0.0621      0.1002      0.4280      0.0000      0.0539
 37      0.0000      0.3302      0.1878      0.1595      0.0000      0.2774      0.0357      0.0000      0.4763
 38      0.0000      0.2619      0.1769      0.0103      0.0000      0.1134      0.1152      0.0000      0.2892
 39      0.0000      0.3018      0.2039      0.3628      0.2368      0.0262      0.0593      0.1742      0.1896
 40      0.0000      0.2554      0.1900      0.0000      0.0000      0.1425      0.0932      0.0591      0.1352
 41      0.0000      0.3131      0.0608      0.0000      0.0000      0.0000      0.2363      0.2216      0.2875
 42      0.0000      0.2616      0.0747      0.0000      0.1702      0.1726      0.0958      0.0015      0.0439
 43      0.0000      0.2647      0.0534      0.1168      0.0831      0.0000      0.0517      0.0000      0.0686
 44      0.0000      1.3068      1.1684      1.0176      1.3985      1.2598      1.6418      1.4015      1.4213
 45      0.0000      0.2243      0.1185      0.1626      0.0483      0.2076      0.0454      0.1088      0.0414
 46      0.0000      0.2316      0.1713      0.0112      0.0718      0.0517      0.0630      0.1891      0.1777
