###################################################################
## OUTPUT of StarlightChains_v04.for    [Cid@UFSC - 01/Apr/2007] ##
###################################################################

## Some input info
KUG0210-078._23_37.txt                   [arq_obs]
Base.CB07.vall.4m                        [arq_base]
Masks.EmLines.NEW.gm                     [arq_masks]
StCv04.C11.config                        [arq_config]
   66                                    [N_base]
    0                                    [N_YAV_components = # of components with extra extinction!]
    0                                    [i_FitPowerLaw (1/0 = Yes/No)]
-9.99                                    [alpha_PowerLaw]
CCM                                      [red_law_option]
 1.458241                                [q_norm = A(l_norm)/A(V)]

## (Re)Sampling Parameters
 3741.00                                 [l_ini (A)]
 7218.00                                 [l_fin (A)]
    1.00                                 [dl    (A)]     (OBS: dl_cushion =    50.00 A)

## Normalization info
 4020.00                                 [l_norm (A) - for base]
 4010.00                                 [llow_norm (A) - window for f_obs]
 4060.00                                 [lupp_norm (A) - window for f_obs]
9.505259E-18                             [fobs_norm (in input units)]

## S/N
 3691.00                                 [llow_SN (A) - window for S/N]
 7268.00                                 [lupp_SN (A) - window for S/N]
   3.815                                 [S/N in S/N window]
   4.532                                 [S/N in norm. window]
   0.011                                 [S/N_err in S/N window]
   0.013                                 [S/N_err in norm. window]
  1.0000                                 [fscale_chi2]

## etc...
    -2007268                             [idum_orig]
  2411                                   [NOl_eff]
  1939                                   [Nl_eff]
   472    NSIGMA                         [Ntot_cliped & clip_method]
  1823640                                [Nglobal_steps]
   7                                     [N_chains]
  30                                     [NEX0s_base = N_base in EX0s-fits]
 0   0   1      472   2.0   9.258E+03    [Clip-Bug, RC-Crash & Burn-In warning-flags, n_censored_weights, wei_nsig_threshold & wei_limit]
    26     25.395     24.874      0.521  [idt_all, wdt_TotTime, wdt_UsrTime & wdt_SysTime (sec)]

## Synthesis Results - Best model ##

 1.77553E-05                             [chi2/Nl_eff]
    29.18572                             [adev (%)]

   111.57277                             [sum-of-x (%)]
 1.71758E-17                             [Flux_tot (units of input spectrum!)]
 1.91267E-13                             [Mini_tot (???)]
 1.03216E-13                             [Mcor_tot (???)]

 209.17                                  [v0_min  (km/s)]
   0.01                                  [vd_min  (km/s)]
 0.3590                                  [AV_min  (mag)]
 0.0000                                  [YAV_min (mag)]

# j     x_j(%)      Mini_j(%)     Mcor_j(%)     age_j(yr)     Z_j      (L/M)_j    YAV?  Mstars   component_j        a/Fe...       SSP_chi2r SSP_adev(%)   SSP_AV   SSP_x(%)
  1      0.0000     0.0000E+00    0.0000E+00    1.000000E+06  0.00400  1.094E-02    0   1.0000   age020_m42            0.0000     1.8373E-05    29.3383   2.8530   100.7445
  2      0.6707     1.3472E-03    2.4962E-03    3.160000E+06  0.00400  4.007E-02    0   0.9999   age045_m42            0.0000     1.8393E-05    29.5103   2.2048   104.4775
  3      0.0000     0.0000E+00    0.0000E+00    5.010000E+06  0.00400  2.539E-02    0   0.9488   age055_m42            0.0000     1.8318E-05    29.3824   2.4885   103.3554
  4      0.0000     0.0000E+00    0.0000E+00    6.610000E+06  0.00400  2.620E-02    0   0.9220   age061_m42            0.0000     1.8272E-05    29.4302   2.1294   104.8379
  5      0.0000     0.0000E+00    0.0000E+00    1.000000E+07  0.00400  1.322E-02    0   0.8862   age070_m42            0.0000     1.8293E-05    29.5285   1.8271   108.8633
  6      0.0000     0.0000E+00    0.0000E+00    1.445000E+07  0.00400  7.883E-03    0   0.8571   age078_m42            0.0000     1.8378E-05    29.5436   2.1427   106.4633
  7     10.7981     1.6551E-01    2.5070E-01    2.512000E+07  0.00400  5.251E-03    0   0.8174   age090_m42            0.0000     1.8336E-05    29.6072   1.7028   109.4332
  8      0.0000     0.0000E+00    0.0000E+00    4.000000E+07  0.00400  3.649E-03    0   0.7851   age104_m42            0.0000     1.8342E-05    29.6410   1.4886   109.7361
  9      5.9151     1.5368E-01    2.1725E-01    5.500000E+07  0.00400  3.098E-03    0   0.7629   age110_m42            0.0000     1.8296E-05    29.5463   1.6616   108.4076
 10      0.0000     0.0000E+00    0.0000E+00    1.015200E+08  0.00400  2.228E-03    0   0.7207   age116_m42            0.0000     1.8237E-05    29.5066   1.6969   107.7158
 11      0.0000     0.0000E+00    0.0000E+00    2.861200E+08  0.00400  1.093E-03    0   0.6648   age125_m42            0.0000     1.8285E-05    29.4430   1.1346   111.0487
 12      0.0000     0.0000E+00    0.0000E+00    5.088000E+08  0.00400  6.597E-04    0   0.6365   age130_m42            0.0000     1.8299E-05    29.4499   1.1442   110.7581
 13      0.0000     0.0000E+00    0.0000E+00    1.434000E+09  0.00400  2.132E-04    0   0.5798   age139_m42            0.0000     1.7742E-05    29.2144   0.1931   111.8656
 14      0.0000     0.0000E+00    0.0000E+00    4.250000E+09  0.00400  5.895E-05    0   0.5377   age158_m42            0.0000     1.7721E-05    29.0468  -0.2592   107.5286
 15      0.0000     0.0000E+00    0.0000E+00    7.500000E+09  0.00400  3.510E-05    0   0.5212   age171_m42            0.0000     1.7898E-05    28.9986  -0.4392   106.2955
 16     12.0445     4.8350E+01    4.5103E+01    1.300000E+10  0.00400  2.005E-05    0   0.5034   age193_m42            0.0000     1.8220E-05    28.9944  -0.5999   105.4286
 17      0.0000     0.0000E+00    0.0000E+00    1.800000E+10  0.00400  1.525E-05    0   0.4967   age213_m42            0.0000     1.8089E-05    28.9842  -0.6262   105.1496
 18      0.0000     0.0000E+00    0.0000E+00    1.000000E+06  0.00800  1.238E-02    0   1.0000   age020_m52            0.0000     1.8348E-05    29.3202   2.8493   100.9161
 19     15.0604     3.9432E-02    7.2822E-02    3.160000E+06  0.00800  3.074E-02    0   0.9966   age045_m52            0.0000     1.8309E-05    29.3018   2.7776   101.5738
 20      0.0000     0.0000E+00    0.0000E+00    5.010000E+06  0.00800  2.668E-02    0   0.9443   age055_m52            0.0000     1.8292E-05    29.3638   2.5611   102.8624
 21      0.0000     0.0000E+00    0.0000E+00    6.610000E+06  0.00800  2.136E-02    0   0.9177   age061_m52            0.0000     1.8025E-05    29.3967   1.3150   110.5123
 22      0.0000     0.0000E+00    0.0000E+00    1.000000E+07  0.00800  1.215E-02    0   0.8827   age070_m52            0.0000     1.8292E-05    29.5118   1.9970   109.2299
 23      0.0000     0.0000E+00    0.0000E+00    1.445000E+07  0.00800  8.717E-03    0   0.8552   age078_m52            0.0000     1.8296E-05    29.5182   2.1139   107.7010
 24      0.0000     0.0000E+00    0.0000E+00    2.512000E+07  0.00800  5.592E-03    0   0.8162   age090_m52            0.0000     1.8145E-05    29.4876   1.7745   110.3400
 25      0.0000     0.0000E+00    0.0000E+00    4.000000E+07  0.00800  3.896E-03    0   0.7841   age104_m52            0.0000     1.8167E-05    29.4442   1.7042   110.2254
 26      0.0000     0.0000E+00    0.0000E+00    1.015200E+08  0.00800  2.148E-03    0   0.7226   age116_m52            0.0000     1.8198E-05    29.4826   1.6608   108.9159
 27      0.0000     0.0000E+00    0.0000E+00    2.861200E+08  0.00800  9.925E-04    0   0.6683   age125_m52            0.0000     1.8114E-05    29.3394   1.2122   111.5644
 28      0.0000     0.0000E+00    0.0000E+00    9.047900E+08  0.00800  3.141E-04    0   0.6138   age135_m52            0.0000     1.7794E-05    29.1298   0.4722   112.9212
 29      3.4565     1.6184E+00    1.7553E+00    1.434000E+09  0.00800  1.719E-04    0   0.5853   age139_m52            0.0000     1.7715E-05    28.9857  -0.1288   111.6285
 30      0.0000     0.0000E+00    0.0000E+00    2.500000E+09  0.00800  7.872E-05    0   0.5600   age150_m52            0.0000     1.8071E-05    29.0626  -0.3854   107.6959
 31      0.0000     0.0000E+00    0.0000E+00    4.250000E+09  0.00800  4.336E-05    0   0.5426   age158_m52            0.0000     1.8112E-05    29.0714  -0.4028   106.7413
 32      0.0000     0.0000E+00    0.0000E+00    6.250000E+09  0.00800  3.159E-05    0   0.5319   age166_m52            0.0000     1.8354E-05    29.0122  -0.5925   105.9606
 33      0.0000     0.0000E+00    0.0000E+00    1.300000E+10  0.00800  1.361E-05    0   0.5073   age193_m52            0.0000     1.8569E-05    29.2722  -1.0000   102.5800
 34      0.0000     0.0000E+00    0.0000E+00    1.800000E+10  0.00800  9.886E-06    0   0.4990   age213_m52            0.0000     1.8955E-05    30.1931  -1.0000    97.9259
 35      0.0000     0.0000E+00    0.0000E+00    1.000000E+06  0.02000  1.544E-02    0   1.0000   age020_m62            0.0000     1.8379E-05    29.3254   2.8425   101.2716
 36      0.0000     0.0000E+00    0.0000E+00    3.160000E+06  0.02000  3.762E-02    0   0.9858   age045_m62            0.0000     1.8442E-05    29.3432   2.7849   102.0133
 37      0.0000     0.0000E+00    0.0000E+00    5.010000E+06  0.02000  3.296E-02    0   0.9342   age055_m62            0.0000     1.8292E-05    29.3481   2.4597   104.0614
 38      5.7969     4.0430E-02    6.6387E-02    8.710000E+06  0.02000  1.154E-02    0   0.8861   age067_m62            0.0000     1.8601E-05    29.6864   1.3945   117.0243
 39      0.0000     0.0000E+00    0.0000E+00    1.445000E+07  0.02000  7.663E-03    0   0.8472   age078_m62            0.0000     1.8367E-05    29.5613   1.6385   112.6263
 40      0.0000     0.0000E+00    0.0000E+00    2.512000E+07  0.02000  4.532E-03    0   0.8099   age090_m62            0.0000     1.8429E-05    29.5816   1.6357   112.2545
 41      0.0000     0.0000E+00    0.0000E+00    5.500000E+07  0.02000  2.733E-03    0   0.7595   age110_m62            0.0000     1.8239E-05    29.5524   1.6800   109.8698
 42      0.0000     0.0000E+00    0.0000E+00    1.609000E+08  0.02000  1.369E-03    0   0.6985   age120_m62            0.0000     1.8243E-05    29.4849   1.5557   110.7556
 43      0.0000     0.0000E+00    0.0000E+00    2.861200E+08  0.02000  9.013E-04    0   0.6714   age125_m62            0.0000     1.8297E-05    29.5200   1.3333   112.5055
 44      0.0000     0.0000E+00    0.0000E+00    5.088000E+08  0.02000  5.028E-04    0   0.6449   age130_m62            0.0000     1.8294E-05    29.4935   1.0067   112.5965
 45      0.0000     0.0000E+00    0.0000E+00    9.047900E+08  0.02000  2.428E-04    0   0.6179   age135_m62            0.0000     1.7837E-05    29.1541   0.4288   111.1850
 46      0.0000     0.0000E+00    0.0000E+00    1.434000E+09  0.02000  1.263E-04    0   0.5908   age139_m62            0.0000     1.8050E-05    29.2617  -0.0133   109.5354
 47      0.0000     0.0000E+00    0.0000E+00    2.500000E+09  0.02000  5.985E-05    0   0.5673   age150_m62            0.0000     1.8299E-05    29.0996  -0.3738   107.3868
 48      0.0000     0.0000E+00    0.0000E+00    4.250000E+09  0.02000  3.271E-05    0   0.5468   age158_m62            0.0000     1.8763E-05    29.0468  -0.6602   105.3388
 49      0.0000     0.0000E+00    0.0000E+00    1.000000E+10  0.02000  1.360E-05    0   0.5167   age181_m62            0.0000     1.9259E-05    29.0288  -0.9625   102.6354
 50      0.0000     0.0000E+00    0.0000E+00    1.800000E+10  0.02000  7.124E-06    0   0.5013   age213_m62            0.0000     1.9863E-05    30.4958  -1.0000    95.4239
 51      1.4212     4.4131E-03    8.1762E-03    1.000000E+06  0.05000  2.592E-02    0   0.9998   age020_m72            0.0000     1.8331E-05    29.3203   2.8293   101.5181
 52     12.0444     2.0008E-02    3.5509E-02    3.160000E+06  0.05000  4.845E-02    0   0.9577   age045_m72            0.0000     1.8392E-05    29.3304   2.6895   102.3993
 53      0.0000     0.0000E+00    0.0000E+00    5.010000E+06  0.05000  3.072E-02    0   0.9147   age055_m72            0.0000     1.8584E-05    29.5099   2.2240   107.7197
 54      0.0000     0.0000E+00    0.0000E+00    6.610000E+06  0.05000  1.455E-02    0   0.8877   age061_m72            0.0000     1.9494E-05    29.5006   1.4434   119.2707
 55      0.0000     0.0000E+00    0.0000E+00    1.000000E+07  0.05000  9.074E-03    0   0.8524   age070_m72            0.0000     1.9035E-05    29.4826   2.4241   106.9280
 56      0.2779     5.2621E-03    7.7052E-03    2.512000E+07  0.05000  4.250E-03    0   0.7902   age090_m72            0.0000     1.8682E-05    29.5166   2.1413   108.0771
 57      1.2287     3.2035E-02    4.5222E-02    4.000000E+07  0.05000  3.087E-03    0   0.7618   age104_m72            0.0000     1.8540E-05    29.4737   1.9216   109.6679
 58      0.0000     0.0000E+00    0.0000E+00    1.015200E+08  0.05000  1.700E-03    0   0.7096   age116_m72            0.0000     1.8259E-05    29.4861   1.6904   110.8900
 59      0.0000     0.0000E+00    0.0000E+00    2.861200E+08  0.05000  7.384E-04    0   0.6633   age125_m72            0.0000     1.8116E-05    29.3672   1.2305   112.3078
 60      0.0000     0.0000E+00    0.0000E+00    5.088000E+08  0.05000  3.819E-04    0   0.6372   age130_m72            0.0000     1.7743E-05    29.0980   0.7678   112.1304
 61      1.6592     7.9678E-01    9.0213E-01    9.047900E+08  0.05000  1.676E-04    0   0.6110   age135_m72            0.0000     1.7937E-05    28.9410   0.0872   108.9637
 62     38.8047     3.5343E+01    3.8470E+01    1.434000E+09  0.05000  8.837E-05    0   0.5874   age139_m72            0.0000     1.8015E-05    28.7725  -0.3688   108.3784
 63      0.0000     0.0000E+00    0.0000E+00    2.500000E+09  0.05000  4.233E-05    0   0.5598   age150_m72            0.0000     1.8750E-05    28.9561  -0.6443   105.3207
 64      2.3945     1.3430E+01    1.3063E+01    6.250000E+09  0.05000  1.435E-05    0   0.5249   age166_m72            0.0000     1.9383E-05    29.4981  -1.0000    99.9463
 65      0.0000     0.0000E+00    0.0000E+00    1.300000E+10  0.05000  6.513E-06    0   0.5036   age193_m72            0.0000     2.0616E-05    31.9263  -1.0000    90.7435
 66      0.0000     0.0000E+00    0.0000E+00    1.800000E+10  0.05000  4.527E-06    0   0.4945   age213_m72            0.0000     2.1441E-05    33.1309  -1.0000    84.9667


## Synthesis Results - Average & Chains ##

# j      x_j: min, <> & last-chain-values for 1 ...  7 chains
  1      0.0000      1.5653      0.5297      0.0000      0.1407      0.4204      0.3489      0.0000      0.0952
  2      0.6707      1.2882      0.0000      0.4917      0.8118      0.0952      0.7767      0.9023      0.0000
  3      0.0000      1.1071      0.1351      0.0077      0.0260      0.0903      0.6716      0.0000      0.1193
  4      0.0000      1.1841      0.4193      1.2389      0.0000      0.1875      0.0000      0.0000      0.5790
  5      0.0000      1.1496      0.7260      0.0000      0.0000      0.0000      0.0479      0.0000      0.0000
  6      0.0000      1.0535      0.0638      0.3942      0.0476      0.6503      0.0000      0.0000      0.0720
  7     10.7981      0.8912      1.0994      0.3861      0.0351      1.4112      0.0206      0.0000      0.2018
  8      0.0000      1.1312      0.0000      0.0919      0.0349      0.2018      0.1185      0.0000      0.1723
  9      5.9151      1.2950      0.1303      0.5069      0.0497      0.0193      0.5015      0.0000      0.0350
 10      0.0000      1.0968      0.6124      0.0000      0.0780      0.1002      0.0487      0.0000      0.0000
 11      0.0000      1.0921      0.8017      0.9447      0.1571      0.8125      0.3531      0.0000      0.0000
 12      0.0000      1.0518      0.0000      0.0000      0.0009      0.1829      0.5627      0.0000      0.0329
 13      0.0000      0.8552      0.0000      0.0000      0.0514      0.1160      0.0000      0.0000      0.0000
 14      0.0000      0.8843      0.6777      0.0686      0.3366      0.0270      0.0000      0.0000      0.0412
 15      0.0000      1.4698      0.0000      0.0000      0.1514      0.0000      0.2970      0.0000      0.0000
 16     12.0445      1.2070      1.8515      0.3735      0.0000      0.2632      1.2416      0.2687      0.1351
 17      0.0000      1.2948      0.0000      0.1510      0.1596      0.1036      0.0000      0.0000      0.0000
 18      0.0000      1.2290      0.0821      0.2532      0.0000      0.0464      0.0664      0.0000      0.0557
 19     15.0604      1.6702      0.0000      0.5429      0.2214      0.5439      0.0892      0.3632      0.0000
 20      0.0000      1.0553      0.5066      0.0037      0.5133      0.2689      0.0000      0.4385      0.3267
 21      0.0000      1.2305      1.3501      0.0000      0.1753      0.3208      0.2286      0.0000      0.0643
 22      0.0000      1.2389      0.0000      0.1154      0.0199      0.0000      0.6951      0.0000      0.0000
 23      0.0000      1.3866      0.9926      0.0000      0.0000      0.0000      0.0000      0.0000      0.1928
 24      0.0000      1.2813      1.8874      0.3076      0.0000      0.0599      0.0000      0.0000      0.0000
 25      0.0000      1.1614      0.0000      0.0000      0.0000      0.6830      0.1819      0.0000      0.0634
 26      0.0000      1.0151      1.1232      0.0328      0.0124      0.4097      0.3799      0.2249      0.0190
 27      0.0000      0.8909      0.4323      0.0000      0.1201      0.2663      0.3828      0.0000      0.0000
 28      0.0000      0.9115      0.0000      0.0000      0.1593      0.2311      0.1269      0.0000      0.0114
 29      3.4565      1.3476      0.0000      0.3747      0.2175      0.1039      0.0000      0.0000      0.0669
 30      0.0000      0.9369      0.5442      0.1365      0.0000      0.2974      0.0000      0.0000      0.0000
 31      0.0000      1.1415      0.4951      0.3334      0.0920      0.6588      0.0000      0.0000      0.0000
 32      0.0000      1.1966      1.6468      0.1365      0.1680      1.0671      0.0000      0.0000      0.0127
 33      0.0000      1.2484      0.9581      0.3789      0.1489      0.0680      0.2984      0.9824      0.1256
 34      0.0000      1.1068      1.1059      0.0577      0.1269      0.2238      0.0000      0.0000      0.0180
 35      0.0000      1.1592      0.0000      0.0000      0.1237      0.2565      0.5096      0.0000      0.0000
 36      0.0000      1.1230      0.9638      0.0000      0.5246      0.5220      0.8391      0.6398      0.0401
 37      0.0000      1.8997      1.2671      2.5057      2.4441      2.5756      2.2490      2.4130      2.5022
 38      5.7969      0.9742      0.2313      0.5626      0.1090      0.0000      0.0000      0.0000      0.0000
 39      0.0000      0.9139      0.6892      0.0000      0.0000      0.0000      0.0000      0.0000      0.0934
 40      0.0000      0.8860      0.0000      0.8202      0.3060      0.7321      0.3964      0.8133      0.4283
 41      0.0000      1.4654      0.0604      0.7174      0.8495      0.6980      1.3534      0.6750      0.1850
 42      0.0000      1.1086      1.5605      0.0000      0.0089      0.0004      0.2350      0.0000      0.0594
 43      0.0000      1.2641      0.2319      0.0000      0.0637      0.0147      0.0000      0.3513      0.6035
 44      0.0000      6.9359     12.3491     15.4679     16.9148     14.2537     15.5233     18.4621     17.2407
 45      0.0000      2.0224      0.0000      0.0000      0.0601      1.1868      0.1426      0.0000      0.0428
 46      0.0000      1.3927      0.0609      0.0000      0.0013      0.0734      0.2736      0.0000      0.2036
