###################################################################
## OUTPUT of StarlightChains_v04.for    [Cid@UFSC - 01/Apr/2007] ##
###################################################################

## Some input info
KUG0210-078._42_41.txt                   [arq_obs]
Base.CB07.vall.4m                        [arq_base]
Masks.EmLines.NEW.gm                     [arq_masks]
StCv04.C11.config                        [arq_config]
   66                                    [N_base]
    0                                    [N_YAV_components = # of components with extra extinction!]
    0                                    [i_FitPowerLaw (1/0 = Yes/No)]
-9.99                                    [alpha_PowerLaw]
CCM                                      [red_law_option]
 1.458241                                [q_norm = A(l_norm)/A(V)]

## (Re)Sampling Parameters
 3741.00                                 [l_ini (A)]
 7218.00                                 [l_fin (A)]
    1.00                                 [dl    (A)]     (OBS: dl_cushion =    50.00 A)

## Normalization info
 4020.00                                 [l_norm (A) - for base]
 4010.00                                 [llow_norm (A) - window for f_obs]
 4060.00                                 [lupp_norm (A) - window for f_obs]
1.695928E-17                             [fobs_norm (in input units)]

## S/N
 3691.00                                 [llow_SN (A) - window for S/N]
 7268.00                                 [lupp_SN (A) - window for S/N]
   4.694                                 [S/N in S/N window]
   5.243                                 [S/N in norm. window]
   0.019                                 [S/N_err in S/N window]
   0.021                                 [S/N_err in norm. window]
  1.0000                                 [fscale_chi2]

## etc...
    -2007782                             [idum_orig]
  2430                                   [NOl_eff]
  2095                                   [Nl_eff]
   335    NSIGMA                         [Ntot_cliped & clip_method]
 10429580                                [Nglobal_steps]
   7                                     [N_chains]
  34                                     [NEX0s_base = N_base in EX0s-fits]
 0   0   1      335   2.0   1.381E+04    [Clip-Bug, RC-Crash & Burn-In warning-flags, n_censored_weights, wei_nsig_threshold & wei_limit]
    66     65.814     65.101      0.712  [idt_all, wdt_TotTime, wdt_UsrTime & wdt_SysTime (sec)]

## Synthesis Results - Best model ##

 9.95926E-06                             [chi2/Nl_eff]
     6.30970                             [adev (%)]

   116.54290                             [sum-of-x (%)]
 8.54473E-18                             [Flux_tot (units of input spectrum!)]
 3.02740E-13                             [Mini_tot (???)]
 1.57624E-13                             [Mcor_tot (???)]

-179.72                                  [v0_min  (km/s)]
 397.69                                  [vd_min  (km/s)]
-0.6244                                  [AV_min  (mag)]
 0.0000                                  [YAV_min (mag)]

# j     x_j(%)      Mini_j(%)     Mcor_j(%)     age_j(yr)     Z_j      (L/M)_j    YAV?  Mstars   component_j        a/Fe...       SSP_chi2r SSP_adev(%)   SSP_AV   SSP_x(%)
  1      0.0000     0.0000E+00    0.0000E+00    1.000000E+06  0.00400  1.094E-02    0   1.0000   age020_m42            0.0000     1.1588E-05     7.5122   2.5054   105.8481
  2      0.0000     0.0000E+00    0.0000E+00    3.160000E+06  0.00400  4.007E-02    0   0.9999   age045_m42            0.0000     1.1374E-05     6.9666   1.8736   108.8239
  3      0.0000     0.0000E+00    0.0000E+00    5.010000E+06  0.00400  2.539E-02    0   0.9488   age055_m42            0.0000     1.1325E-05     7.1206   2.1509   108.0912
  4      0.0000     0.0000E+00    0.0000E+00    6.610000E+06  0.00400  2.620E-02    0   0.9220   age061_m42            0.0000     1.1220E-05     6.8535   1.8019   109.0605
  5      0.0000     0.0000E+00    0.0000E+00    1.000000E+07  0.00400  1.322E-02    0   0.8862   age070_m42            0.0000     1.1127E-05     6.6418   1.5182   112.0984
  6      0.0000     0.0000E+00    0.0000E+00    1.445000E+07  0.00400  7.883E-03    0   0.8571   age078_m42            0.0000     1.1156E-05     6.6781   1.8234   110.1631
  7      4.7602     2.1955E-02    3.4467E-02    2.512000E+07  0.00400  5.251E-03    0   0.8174   age090_m42            0.0000     1.1163E-05     6.6968   1.3963   112.4605
  8      0.0000     0.0000E+00    0.0000E+00    4.000000E+07  0.00400  3.649E-03    0   0.7851   age104_m42            0.0000     1.1127E-05     6.6739   1.1834   112.6564
  9      0.0000     0.0000E+00    0.0000E+00    5.500000E+07  0.00400  3.098E-03    0   0.7629   age110_m42            0.0000     1.1160E-05     6.6393   1.3519   111.6786
 10      0.0000     0.0000E+00    0.0000E+00    1.015200E+08  0.00400  2.228E-03    0   0.7207   age116_m42            0.0000     1.1141E-05     6.6390   1.3827   111.2503
 11      0.0000     0.0000E+00    0.0000E+00    2.861200E+08  0.00400  1.093E-03    0   0.6648   age125_m42            0.0000     1.1168E-05     6.8665   0.8322   113.7297
 12      0.0000     0.0000E+00    0.0000E+00    5.088000E+08  0.00400  6.597E-04    0   0.6365   age130_m42            0.0000     1.1051E-05     6.7036   0.8395   113.6339
 13      0.0000     0.0000E+00    0.0000E+00    1.434000E+09  0.00400  2.132E-04    0   0.5798   age139_m42            0.0000     1.0379E-05     6.3836  -0.1067   114.6037
 14      0.0000     0.0000E+00    0.0000E+00    4.250000E+09  0.00400  5.895E-05    0   0.5377   age158_m42            0.0000     1.0127E-05     6.4056  -0.5843   111.3616
 15      3.3428     2.3065E+00    2.3089E+00    7.500000E+09  0.00400  3.510E-05    0   0.5212   age171_m42            0.0000     1.0158E-05     6.5151  -0.7747   110.5139
 16      6.2769     7.5818E+00    7.3305E+00    1.300000E+10  0.00400  2.005E-05    0   0.5034   age193_m42            0.0000     1.0265E-05     6.6847  -0.9462   109.9971
 17      0.0000     0.0000E+00    0.0000E+00    1.800000E+10  0.00400  1.525E-05    0   0.4967   age213_m42            0.0000     1.0234E-05     6.6754  -0.9713   109.6448
 18      0.0000     0.0000E+00    0.0000E+00    1.000000E+06  0.00800  1.238E-02    0   1.0000   age020_m52            0.0000     1.1588E-05     7.5175   2.5012   106.0629
 19      4.9472     3.8976E-03    7.4604E-03    3.160000E+06  0.00800  3.074E-02    0   0.9966   age045_m52            0.0000     1.1509E-05     7.4852   2.4323   106.6776
 20      0.0000     0.0000E+00    0.0000E+00    5.010000E+06  0.00800  2.668E-02    0   0.9443   age055_m52            0.0000     1.1302E-05     7.1413   2.2203   107.7063
 21      0.0000     0.0000E+00    0.0000E+00    6.610000E+06  0.00800  2.136E-02    0   0.9177   age061_m52            0.0000     1.0724E-05     6.4342   1.0061   113.8796
 22      3.4190     6.8150E-03    1.1554E-02    1.000000E+07  0.00800  1.215E-02    0   0.8827   age070_m52            0.0000     1.1165E-05     6.7279   1.6859   112.4840
 23      0.0000     0.0000E+00    0.0000E+00    1.445000E+07  0.00800  8.717E-03    0   0.8552   age078_m52            0.0000     1.1116E-05     6.6362   1.7974   111.3321
 24      0.0000     0.0000E+00    0.0000E+00    2.512000E+07  0.00800  5.592E-03    0   0.8162   age090_m52            0.0000     1.1150E-05     6.7637   1.4699   113.3721
 25      0.0000     0.0000E+00    0.0000E+00    4.000000E+07  0.00800  3.896E-03    0   0.7841   age104_m52            0.0000     1.1131E-05     6.7421   1.3991   113.2653
 26      0.0000     0.0000E+00    0.0000E+00    1.015200E+08  0.00800  2.148E-03    0   0.7226   age116_m52            0.0000     1.1058E-05     6.6226   1.3511   112.1940
 27      0.9869     2.4082E-02    3.0911E-02    2.861200E+08  0.00800  9.925E-04    0   0.6683   age125_m52            0.0000     1.0934E-05     6.6316   0.9039   114.7407
 28      0.0000     0.0000E+00    0.0000E+00    9.047900E+08  0.00800  3.141E-04    0   0.6138   age135_m52            0.0000     1.0417E-05     6.4261   0.1534   116.6709
 29      0.0000     0.0000E+00    0.0000E+00    1.434000E+09  0.00800  1.719E-04    0   0.5853   age139_m52            0.0000     1.0004E-05     6.4284  -0.4609   115.7329
 30      0.0000     0.0000E+00    0.0000E+00    2.500000E+09  0.00800  7.872E-05    0   0.5600   age150_m52            0.0000     1.0026E-05     6.4710  -0.7431   112.9285
 31      0.0000     0.0000E+00    0.0000E+00    4.250000E+09  0.00800  4.336E-05    0   0.5426   age158_m52            0.0000     1.0084E-05     6.5032  -0.7613   111.9483
 32      0.0000     0.0000E+00    0.0000E+00    6.250000E+09  0.00800  3.159E-05    0   0.5319   age166_m52            0.0000     1.0229E-05     6.7453  -0.9636   111.7047
 33      3.1816     5.6616E+00    5.5163E+00    1.300000E+10  0.00800  1.361E-05    0   0.5073   age193_m52            0.0000     1.3581E-05    10.9258  -1.0000    98.6929
 34      0.0000     0.0000E+00    0.0000E+00    1.800000E+10  0.00800  9.886E-06    0   0.4990   age213_m52            0.0000     1.5552E-05    12.5299  -1.0000    94.9521
 35      0.0000     0.0000E+00    0.0000E+00    1.000000E+06  0.02000  1.544E-02    0   1.0000   age020_m62            0.0000     1.1588E-05     7.5315   2.4953   106.4089
 36      0.0000     0.0000E+00    0.0000E+00    3.160000E+06  0.02000  3.762E-02    0   0.9858   age045_m62            0.0000     1.1474E-05     7.5436   2.4332   107.3438
 37      0.0000     0.0000E+00    0.0000E+00    5.010000E+06  0.02000  3.296E-02    0   0.9342   age055_m62            0.0000     1.1262E-05     7.0849   2.1226   108.8362
 38      0.0000     0.0000E+00    0.0000E+00    8.710000E+06  0.02000  1.154E-02    0   0.8861   age067_m62            0.0000     1.1751E-05     8.1280   1.1066   118.4064
 39      0.0000     0.0000E+00    0.0000E+00    1.445000E+07  0.02000  7.663E-03    0   0.8472   age078_m62            0.0000     1.1221E-05     7.1199   1.3324   115.3251
 40      0.0000     0.0000E+00    0.0000E+00    2.512000E+07  0.02000  4.532E-03    0   0.8099   age090_m62            0.0000     1.1324E-05     7.3148   1.3291   114.8322
 41      0.9197     8.1497E-03    1.1888E-02    5.500000E+07  0.02000  2.733E-03    0   0.7595   age110_m62            0.0000     1.0975E-05     6.6651   1.3680   113.1081
 42      2.8910     5.1144E-02    6.8613E-02    1.609000E+08  0.02000  1.369E-03    0   0.6985   age120_m62            0.0000     1.0962E-05     6.5905   1.2424   114.1883
 43      0.0000     0.0000E+00    0.0000E+00    2.861200E+08  0.02000  9.013E-04    0   0.6714   age125_m62            0.0000     1.0975E-05     6.5546   1.0213   115.9327
 44     34.9700     1.6844E+00    2.0863E+00    5.088000E+08  0.02000  5.028E-04    0   0.6449   age130_m62            0.0000     1.0838E-05     6.4544   0.6809   116.7451
 45      0.0000     0.0000E+00    0.0000E+00    9.047900E+08  0.02000  2.428E-04    0   0.6179   age135_m62            0.0000     1.0160E-05     6.2459   0.0912   115.8709
 46      1.5921     3.0529E-01    3.4642E-01    1.434000E+09  0.02000  1.263E-04    0   0.5908   age139_m62            0.0000     9.9994E-06     6.3049  -0.3704   114.8241
 47      0.0000     0.0000E+00    0.0000E+00    2.500000E+09  0.02000  5.985E-05    0   0.5673   age150_m62            0.0000     1.0207E-05     6.7022  -0.7573   113.7919
 48      0.0000     0.0000E+00    0.0000E+00    4.250000E+09  0.02000  3.271E-05    0   0.5468   age158_m62            0.0000     1.0605E-05     6.9975  -1.0000   110.8494
 49      0.0000     0.0000E+00    0.0000E+00    1.000000E+10  0.02000  1.360E-05    0   0.5167   age181_m62            0.0000     1.3940E-05    10.1477  -1.0000   100.1335
 50      0.0000     0.0000E+00    0.0000E+00    1.800000E+10  0.02000  7.124E-06    0   0.5013   age213_m62            0.0000     1.8141E-05    13.3318  -1.0000    93.1159
 51      0.7820     7.3070E-04    1.4031E-03    1.000000E+06  0.05000  2.592E-02    0   0.9998   age020_m72            0.0000     1.1624E-05     7.5624   2.4789   106.7765
 52      0.0000     0.0000E+00    0.0000E+00    3.160000E+06  0.05000  4.845E-02    0   0.9577   age045_m72            0.0000     1.1405E-05     7.4385   2.3414   107.6195
 53      0.0000     0.0000E+00    0.0000E+00    5.010000E+06  0.05000  3.072E-02    0   0.9147   age055_m72            0.0000     1.1199E-05     7.0672   1.8869   111.7754
 54      0.0000     0.0000E+00    0.0000E+00    6.610000E+06  0.05000  1.455E-02    0   0.8877   age061_m72            0.0000     1.3380E-05    10.3219   1.1272   120.4860
 55      0.0000     0.0000E+00    0.0000E+00    1.000000E+07  0.05000  9.074E-03    0   0.8524   age070_m72            0.0000     1.1627E-05     7.9924   2.0577   111.5372
 56      0.0000     0.0000E+00    0.0000E+00    2.512000E+07  0.05000  4.250E-03    0   0.7902   age090_m72            0.0000     1.1446E-05     7.4662   1.8033   111.8750
 57      0.0000     0.0000E+00    0.0000E+00    4.000000E+07  0.05000  3.087E-03    0   0.7618   age104_m72            0.0000     1.1515E-05     7.6107   1.5941   113.0208
 58      0.0000     0.0000E+00    0.0000E+00    1.015200E+08  0.05000  1.700E-03    0   0.7096   age116_m72            0.0000     1.1181E-05     6.8341   1.3799   114.0571
 59      0.0000     0.0000E+00    0.0000E+00    2.861200E+08  0.05000  7.384E-04    0   0.6633   age125_m72            0.0000     1.0756E-05     6.4742   0.9121   116.1882
 60      0.0000     0.0000E+00    0.0000E+00    5.088000E+08  0.05000  3.819E-04    0   0.6372   age130_m72            0.0000     1.0238E-05     6.3208   0.4367   116.8671
 61      0.0000     0.0000E+00    0.0000E+00    9.047900E+08  0.05000  1.676E-04    0   0.6110   age135_m72            0.0000     1.0205E-05     6.6650  -0.2782   115.1064
 62      5.9603     1.6335E+00    1.8429E+00    1.434000E+09  0.05000  8.837E-05    0   0.5874   age139_m72            0.0000     1.0251E-05     6.7043  -0.7415   114.6563
 63      6.5020     3.7200E+00    3.9997E+00    2.500000E+09  0.05000  4.233E-05    0   0.5598   age150_m72            0.0000     1.0822E-05     7.1615  -1.0000   111.6299
 64     28.0261     4.7299E+01    4.7684E+01    6.250000E+09  0.05000  1.435E-05    0   0.5249   age166_m72            0.0000     1.5632E-05    11.6590  -1.0000    96.8773
 65      7.9848     2.9691E+01    2.8718E+01    1.300000E+10  0.05000  6.513E-06    0   0.5036   age193_m72            0.0000     2.2672E-05    15.9929  -1.0000    89.4352
 66      0.0000     0.0000E+00    0.0000E+00    1.800000E+10  0.05000  4.527E-06    0   0.4945   age213_m72            0.0000     2.7876E-05    18.3448  -1.0000    84.4308


## Synthesis Results - Average & Chains ##

# j      x_j: min, <> & last-chain-values for 1 ...  7 chains
  1      0.0000      0.2017      0.1973      0.1147      0.0519      0.0000      0.1701      0.2268      0.0384
  2      0.0000      0.1350      0.1490      0.0534      0.0758      0.0000      0.0000      0.1666      0.0000
  3      0.0000      0.1868      0.0562      0.0460      0.0723      0.0000      0.1263      0.2049      0.0484
  4      0.0000      0.2164      0.1110      0.2992      0.0525      0.2505      0.0000      0.1369      0.1451
  5      0.0000      0.2384      0.0852      0.1382      0.1060      0.1285      0.1785      0.0547      0.0839
  6      0.0000      0.1895      0.1248      0.0759      0.0000      0.0582      0.0000      0.0180      0.0498
  7      4.7602      0.2368      0.4989      0.1459      0.0316      0.3171      0.0000      0.0613      0.0841
  8      0.0000      0.2598      0.0261      0.0485      0.0414      0.1294      0.3154      0.0996      0.1984
  9      0.0000      0.1792      0.0544      0.0421      0.0261      0.0189      0.2739      0.2132      0.0386
 10      0.0000      0.2405      0.3929      0.2874      0.1011      0.0000      0.2770      0.5530      0.1099
 11      0.0000      0.2262      0.1664      0.1189      0.1581      0.0914      0.3967      0.0649      0.1110
 12      0.0000      0.2250      0.4798      0.0331      0.5080      0.0282      0.0529      0.0208      0.0180
 13      0.0000      0.1560      0.0000      0.1109      0.0199      0.0922      0.1826      0.1511      0.1089
 14      0.0000      0.1954      0.0427      0.0627      0.0779      0.1718      0.2158      0.1114      0.0000
 15      3.3428      0.1980      0.6378      0.0051      0.0520      0.1540      0.4864      0.2105      0.0184
 16      6.2769      0.1925      0.2623      0.0143      0.0505      0.0000      0.5476      0.2571      0.0327
 17      0.0000      0.2222      0.6853      0.0841      0.0730      0.3621      0.0000      0.0863      0.0535
 18      0.0000      0.1290      0.0000      0.0081      0.1609      0.0039      0.0412      0.0236      0.1308
 19      4.9472      0.2343      0.2883      0.2080      0.1862      0.0387      0.1799      0.3066      0.0439
 20      0.0000      0.2027      0.7033      0.0000      0.1940      0.1081      0.0000      0.0345      0.0186
 21      0.0000      0.1992      0.0702      0.0719      0.0000      0.1010      0.0000      0.1818      0.0090
 22      3.4190      0.1462      0.2699      0.0286      0.0000      0.2184      0.0000      0.0000      0.0417
 23      0.0000      0.2326      0.0000      0.0731      0.1415      0.0000      0.0172      0.0000      0.1113
 24      0.0000      0.2249      0.1249      0.0619      0.0835      0.4998      0.1017      0.4234      0.0512
 25      0.0000      0.2120      0.2009      0.0000      0.2751      0.2234      0.0000      0.0000      0.0139
 26      0.0000      0.1927      0.4861      0.1242      0.0491      0.1421      0.1771      0.0286      0.0000
 27      0.9869      0.1568      0.2085      0.0080      0.0879      0.0874      0.0000      0.0000      0.0374
 28      0.0000      0.1572      0.1050      0.0557      0.0185      0.1709      0.0503      0.0551      0.0000
 29      0.0000      0.1700      0.0323      0.1808      0.0543      0.0000      0.0734      0.1108      0.2142
 30      0.0000      0.1790      0.1282      0.1616      0.2273      0.0049      0.2142      0.0591      0.0448
 31      0.0000      0.1865      0.0000      0.0367      0.0000      0.0754      0.0726      0.1242      0.1376
 32      0.0000      0.1612      0.1471      0.1692      0.1759      0.2021      0.0025      0.0000      0.0227
 33      3.1816      0.2269      0.6939      0.0857      0.2312      0.2670      0.0896      0.2442      0.1448
 34      0.0000      0.2296      0.0000      0.1801      0.0722      0.1572      0.3207      0.2397      0.0412
 35      0.0000      0.1809      0.7627      0.0087      0.0000      0.0645      0.5491      0.0000      0.0375
 36      0.0000      0.1472      0.2600      0.0836      0.0040      0.0721      0.1703      0.0000      0.0209
 37      0.0000      0.1848      0.0000      0.0271      0.0000      0.1211      0.0000      0.0581      0.0753
 38      0.0000      0.2321      0.5623      0.0391      0.1525      0.3431      0.0780      0.1648      0.0076
 39      0.0000      0.1399      0.2655      0.0967      0.0000      0.0489      0.1626      0.0552      0.0630
 40      0.0000      0.1452      0.0188      0.0804      0.0000      0.1719      0.2362      0.0000      0.0723
 41      0.9197      0.1960      0.3455      0.1472      0.2290      0.1025      0.1250      0.0000      0.0052
 42      2.8910      0.2471      0.4082      0.1743      0.0636      0.1755      0.0000      0.0992      0.0141
 43      0.0000      0.1892      0.0000      0.1323      0.0518      0.1519      0.3451      0.1526      0.0000
 44     34.9700     42.6443     40.5486     48.8191     46.5117     44.4801     43.2249     44.4855     47.9821
 45      0.0000      0.1705      0.1208      0.1327      0.0294      0.1566      0.2470      0.0000      0.0000
 46      1.5921      0.1455      1.1099      0.1497      0.0050      0.2369      0.1525      0.0566      0.0250
