###################################################################
## OUTPUT of StarlightChains_v04.for    [Cid@UFSC - 01/Apr/2007] ##
###################################################################

## Some input info
KUG0210-078._29_22.txt                   [arq_obs]
Base.CB07.vall.4m                        [arq_base]
Masks.EmLines.NEW.gm                     [arq_masks]
StCv04.C11.config                        [arq_config]
   66                                    [N_base]
    0                                    [N_YAV_components = # of components with extra extinction!]
    0                                    [i_FitPowerLaw (1/0 = Yes/No)]
-9.99                                    [alpha_PowerLaw]
CCM                                      [red_law_option]
 1.458241                                [q_norm = A(l_norm)/A(V)]

## (Re)Sampling Parameters
 3741.00                                 [l_ini (A)]
 7218.00                                 [l_fin (A)]
    1.00                                 [dl    (A)]     (OBS: dl_cushion =    50.00 A)

## Normalization info
 4020.00                                 [l_norm (A) - for base]
 4010.00                                 [llow_norm (A) - window for f_obs]
 4060.00                                 [lupp_norm (A) - window for f_obs]
8.540112E-18                             [fobs_norm (in input units)]

## S/N
 3691.00                                 [llow_SN (A) - window for S/N]
 7268.00                                 [lupp_SN (A) - window for S/N]
   4.054                                 [S/N in S/N window]
   3.600                                 [S/N in norm. window]
   0.012                                 [S/N_err in S/N window]
   0.011                                 [S/N_err in norm. window]
  1.0000                                 [fscale_chi2]

## etc...
    -2007398                             [idum_orig]
  2414                                   [NOl_eff]
  2134                                   [Nl_eff]
   280    NSIGMA                         [Ntot_cliped & clip_method]
 10617180                                [Nglobal_steps]
   7                                     [N_chains]
  39                                     [NEX0s_base = N_base in EX0s-fits]
 0   0   1      280   2.0   6.360E+03    [Clip-Bug, RC-Crash & Burn-In warning-flags, n_censored_weights, wei_nsig_threshold & wei_limit]
    84     83.226     82.511      0.715  [idt_all, wdt_TotTime, wdt_UsrTime & wdt_SysTime (sec)]

## Synthesis Results - Best model ##

 1.59357E-05                             [chi2/Nl_eff]
    12.01927                             [adev (%)]

   129.99998                             [sum-of-x (%)]
 1.49954E-16                             [Flux_tot (units of input spectrum!)]
 5.98127E-14                             [Mini_tot (???)]
 3.99583E-14                             [Mcor_tot (???)]

-143.83                                  [v0_min  (km/s)]
  76.79                                  [vd_min  (km/s)]
 1.9382                                  [AV_min  (mag)]
 0.0000                                  [YAV_min (mag)]

# j     x_j(%)      Mini_j(%)     Mcor_j(%)     age_j(yr)     Z_j      (L/M)_j    YAV?  Mstars   component_j        a/Fe...       SSP_chi2r SSP_adev(%)   SSP_AV   SSP_x(%)
  1      0.0000     0.0000E+00    0.0000E+00    1.000000E+06  0.00400  1.094E-02    0   1.0000   age020_m42            0.0000     1.4464E-05    16.4800   2.1322   147.5785
  2      0.0000     0.0000E+00    0.0000E+00    3.160000E+06  0.00400  4.007E-02    0   0.9999   age045_m42            0.0000     1.4217E-05    15.4050   1.5128   151.3516
  3      6.7653     5.1386E-01    7.2980E-01    5.010000E+06  0.00400  2.539E-02    0   0.9488   age055_m42            0.0000     1.4248E-05    15.7925   1.7864   150.4603
  4      0.0000     0.0000E+00    0.0000E+00    6.610000E+06  0.00400  2.620E-02    0   0.9220   age061_m42            0.0000     1.4126E-05    15.1523   1.4451   151.5250
  5      0.0000     0.0000E+00    0.0000E+00    1.000000E+07  0.00400  1.322E-02    0   0.8862   age070_m42            0.0000     1.3666E-05    13.7394   1.1789   155.1745
  6      0.5341     1.3066E-01    1.6763E-01    1.445000E+07  0.00400  7.883E-03    0   0.8571   age078_m42            0.0000     1.3809E-05    14.2024   1.4781   152.7163
  7      0.0000     0.0000E+00    0.0000E+00    2.512000E+07  0.00400  5.251E-03    0   0.8174   age090_m42            0.0000     1.3574E-05    13.3720   1.0628   155.4879
  8      0.0000     0.0000E+00    0.0000E+00    4.000000E+07  0.00400  3.649E-03    0   0.7851   age104_m42            0.0000     1.3568E-05    13.3373   0.8497   155.7758
  9      3.0182     1.8789E+00    2.1456E+00    5.500000E+07  0.00400  3.098E-03    0   0.7629   age110_m42            0.0000     1.3786E-05    13.8087   1.0117   154.6255
 10      0.0000     0.0000E+00    0.0000E+00    1.015200E+08  0.00400  2.228E-03    0   0.7207   age116_m42            0.0000     1.3896E-05    14.0561   1.0400   154.0740
 11      4.6529     8.2097E+00    8.1696E+00    2.861200E+08  0.00400  1.093E-03    0   0.6648   age125_m42            0.0000     1.3585E-05    13.1616   0.5010   157.0808
 12     12.3982     3.6244E+01    3.4532E+01    5.088000E+08  0.00400  6.597E-04    0   0.6365   age130_m42            0.0000     1.3683E-05    13.5358   0.5036   157.1063
 13      0.0000     0.0000E+00    0.0000E+00    1.434000E+09  0.00400  2.132E-04    0   0.5798   age139_m42            0.0000     1.3558E-05    13.4753  -0.4489   158.6474
 14      0.0000     0.0000E+00    0.0000E+00    4.250000E+09  0.00400  5.895E-05    0   0.5377   age158_m42            0.0000     1.3832E-05    14.7959  -0.9447   154.7388
 15      0.0000     0.0000E+00    0.0000E+00    7.500000E+09  0.00400  3.510E-05    0   0.5212   age171_m42            0.0000     1.4164E-05    14.1664  -1.0000   149.0115
 16      0.1922     1.8483E+01    1.3928E+01    1.300000E+10  0.00400  2.005E-05    0   0.5034   age193_m42            0.0000     1.4936E-05    13.8792  -1.0000   142.4033
 17      0.0000     0.0000E+00    0.0000E+00    1.800000E+10  0.00400  1.525E-05    0   0.4967   age213_m42            0.0000     1.4975E-05    13.8464  -1.0000   141.0993
 18     15.1772     2.3643E+00    3.5390E+00    1.000000E+06  0.00800  1.238E-02    0   1.0000   age020_m52            0.0000     1.4469E-05    16.4830   2.1286   147.8712
 19      0.0000     0.0000E+00    0.0000E+00    3.160000E+06  0.00800  3.074E-02    0   0.9966   age045_m52            0.0000     1.4445E-05    16.4578   2.0568   148.8690
 20      0.0000     0.0000E+00    0.0000E+00    5.010000E+06  0.00800  2.668E-02    0   0.9443   age055_m52            0.0000     1.4287E-05    15.8691   1.8536   150.0168
 21      0.0000     0.0000E+00    0.0000E+00    6.610000E+06  0.00800  2.136E-02    0   0.9177   age061_m52            0.0000     1.3582E-05    13.9393   0.6636   157.7352
 22      0.0000     0.0000E+00    0.0000E+00    1.000000E+07  0.00800  1.215E-02    0   0.8827   age070_m52            0.0000     1.3614E-05    13.4156   1.3516   155.5817
 23      0.0000     0.0000E+00    0.0000E+00    1.445000E+07  0.00800  8.717E-03    0   0.8552   age078_m52            0.0000     1.3779E-05    14.0011   1.4530   154.3245
 24     14.3964     4.9649E+00    6.0658E+00    2.512000E+07  0.00800  5.592E-03    0   0.8162   age090_m52            0.0000     1.3580E-05    13.1127   1.1374   156.7514
 25      0.0000     0.0000E+00    0.0000E+00    4.000000E+07  0.00800  3.896E-03    0   0.7841   age104_m52            0.0000     1.3632E-05    13.1781   1.0651   156.6599
 26      0.0000     0.0000E+00    0.0000E+00    1.015200E+08  0.00800  2.148E-03    0   0.7226   age116_m52            0.0000     1.3746E-05    13.6431   1.0117   155.3156
 27      5.2263     1.0155E+01    1.0159E+01    2.861200E+08  0.00800  9.925E-04    0   0.6683   age125_m52            0.0000     1.3781E-05    13.4610   0.5673   158.6334
 28      0.0000     0.0000E+00    0.0000E+00    9.047900E+08  0.00800  3.141E-04    0   0.6138   age135_m52            0.0000     1.3835E-05    13.6363  -0.1954   161.8246
 29      0.2243     2.5168E+00    2.2050E+00    1.434000E+09  0.00800  1.719E-04    0   0.5853   age139_m52            0.0000     1.3717E-05    14.0794  -0.8163   160.7403
 30      0.0000     0.0000E+00    0.0000E+00    2.500000E+09  0.00800  7.872E-05    0   0.5600   age150_m52            0.0000     1.4271E-05    14.3516  -1.0000   153.4398
 31      0.0000     0.0000E+00    0.0000E+00    4.250000E+09  0.00800  4.336E-05    0   0.5426   age158_m52            0.0000     1.4363E-05    14.3260  -1.0000   151.5053
 32      0.0000     0.0000E+00    0.0000E+00    6.250000E+09  0.00800  3.159E-05    0   0.5319   age166_m52            0.0000     1.5352E-05    14.0419  -1.0000   144.0418
 33      0.0000     0.0000E+00    0.0000E+00    1.300000E+10  0.00800  1.361E-05    0   0.5073   age193_m52            0.0000     1.9672E-05    18.3316  -1.0000   125.7687
 34      0.0000     0.0000E+00    0.0000E+00    1.800000E+10  0.00800  9.886E-06    0   0.4990   age213_m52            0.0000     2.1422E-05    19.7935  -1.0000   120.8596
 35     45.6616     5.7033E+00    8.5371E+00    1.000000E+06  0.02000  1.544E-02    0   1.0000   age020_m62            0.0000     1.4464E-05    16.5214   2.1204   148.4379
 36     11.0970     5.6887E-01    8.3943E-01    3.160000E+06  0.02000  3.762E-02    0   0.9858   age045_m62            0.0000     1.4473E-05    16.5780   2.0577   149.8096
 37      0.0000     0.0000E+00    0.0000E+00    5.010000E+06  0.02000  3.296E-02    0   0.9342   age055_m62            0.0000     1.4321E-05    15.7907   1.7567   151.5088
 38      0.0000     0.0000E+00    0.0000E+00    8.710000E+06  0.02000  1.154E-02    0   0.8861   age067_m62            0.0000     1.2983E-05    11.4551   0.8025   162.7495
 39      0.0000     0.0000E+00    0.0000E+00    1.445000E+07  0.02000  7.663E-03    0   0.8472   age078_m62            0.0000     1.3328E-05    12.5712   1.0072   159.2456
 40      0.0000     0.0000E+00    0.0000E+00    2.512000E+07  0.02000  4.532E-03    0   0.8099   age090_m62            0.0000     1.3317E-05    12.3625   1.0095   158.3633
 41      0.0000     0.0000E+00    0.0000E+00    5.500000E+07  0.02000  2.733E-03    0   0.7595   age110_m62            0.0000     1.3619E-05    13.2786   1.0323   156.4865
 42      0.0000     0.0000E+00    0.0000E+00    1.609000E+08  0.02000  1.369E-03    0   0.6985   age120_m62            0.0000     1.3812E-05    13.5634   0.9048   157.9479
 43      0.0000     0.0000E+00    0.0000E+00    2.861200E+08  0.02000  9.013E-04    0   0.6714   age125_m62            0.0000     1.3867E-05    13.5542   0.6818   160.4004
 44      0.5928     2.2739E+00    2.1951E+00    5.088000E+08  0.02000  5.028E-04    0   0.6449   age130_m62            0.0000     1.4075E-05    14.0567   0.3278   162.1069
 45      0.0000     0.0000E+00    0.0000E+00    9.047900E+08  0.02000  2.428E-04    0   0.6179   age135_m62            0.0000     1.3991E-05    14.4259  -0.2712   161.2406
 46      0.0000     0.0000E+00    0.0000E+00    1.434000E+09  0.02000  1.263E-04    0   0.5908   age139_m62            0.0000     1.4085E-05    14.8868  -0.7426   160.1387
 47      0.0000     0.0000E+00    0.0000E+00    2.500000E+09  0.02000  5.985E-05    0   0.5673   age150_m62            0.0000     1.4796E-05    14.7730  -1.0000   154.2022
 48      0.0000     0.0000E+00    0.0000E+00    4.250000E+09  0.02000  3.271E-05    0   0.5468   age158_m62            0.0000     1.6672E-05    14.7802  -1.0000   141.5494
 49      0.0000     0.0000E+00    0.0000E+00    1.000000E+10  0.02000  1.360E-05    0   0.5167   age181_m62            0.0000     2.0596E-05    17.7544  -1.0000   127.5313
 50      0.0000     0.0000E+00    0.0000E+00    1.800000E+10  0.02000  7.124E-06    0   0.5013   age213_m62            0.0000     2.4135E-05    20.5929  -1.0000   118.3534
 51      0.0000     0.0000E+00    0.0000E+00    1.000000E+06  0.05000  2.592E-02    0   0.9998   age020_m72            0.0000     1.4452E-05    16.5610   2.1034   149.0159
 52      0.1591     6.3340E-03    9.0801E-03    3.160000E+06  0.05000  4.845E-02    0   0.9577   age045_m72            0.0000     1.4477E-05    16.4098   1.9659   150.2051
 53      0.0000     0.0000E+00    0.0000E+00    5.010000E+06  0.05000  3.072E-02    0   0.9147   age055_m72            0.0000     1.3737E-05    13.9341   1.5448   154.9404
 54      0.0000     0.0000E+00    0.0000E+00    6.610000E+06  0.05000  1.455E-02    0   0.8877   age061_m72            0.0000     1.3196E-05    12.5108   0.8395   165.0510
 55      0.0000     0.0000E+00    0.0000E+00    1.000000E+07  0.05000  9.074E-03    0   0.8524   age070_m72            0.0000     1.3862E-05    14.3915   1.7192   154.4711
 56      6.2645     2.8426E+00    3.3623E+00    2.512000E+07  0.05000  4.250E-03    0   0.7902   age090_m72            0.0000     1.3747E-05    13.5074   1.4694   154.7564
 57      3.2018     2.0002E+00    2.2809E+00    4.000000E+07  0.05000  3.087E-03    0   0.7618   age104_m72            0.0000     1.3692E-05    13.0642   1.2675   156.0680
 58      0.0000     0.0000E+00    0.0000E+00    1.015200E+08  0.05000  1.700E-03    0   0.7096   age116_m72            0.0000     1.3763E-05    13.1791   1.0496   157.5318
 59      0.4379     1.1436E+00    1.1354E+00    2.861200E+08  0.05000  7.384E-04    0   0.6633   age125_m72            0.0000     1.3970E-05    13.7361   0.5643   161.1131
 60      0.0000     0.0000E+00    0.0000E+00    5.088000E+08  0.05000  3.819E-04    0   0.6372   age130_m72            0.0000     1.4069E-05    14.3798   0.0716   162.7888
 61      0.0000     0.0000E+00    0.0000E+00    9.047900E+08  0.05000  1.676E-04    0   0.6110   age135_m72            0.0000     1.4651E-05    15.7188  -0.6683   161.2853
 62      0.0000     0.0000E+00    0.0000E+00    1.434000E+09  0.05000  8.837E-05    0   0.5874   age139_m72            0.0000     1.4885E-05    14.8214  -1.0000   155.9851
 63      0.0000     0.0000E+00    0.0000E+00    2.500000E+09  0.05000  4.233E-05    0   0.5598   age150_m72            0.0000     1.7033E-05    14.9594  -1.0000   142.6012
 64      0.0000     0.0000E+00    0.0000E+00    6.250000E+09  0.05000  1.435E-05    0   0.5249   age166_m72            0.0000     2.2108E-05    19.1046  -1.0000   123.2968
 65      0.0000     0.0000E+00    0.0000E+00    1.300000E+10  0.05000  6.513E-06    0   0.5036   age193_m72            0.0000     2.7535E-05    23.0168  -1.0000   113.4421
 66      0.0000     0.0000E+00    0.0000E+00    1.800000E+10  0.05000  4.527E-06    0   0.4945   age213_m72            0.0000     3.1156E-05    25.1088  -1.0000   106.8723


## Synthesis Results - Average & Chains ##

# j      x_j: min, <> & last-chain-values for 1 ...  7 chains
  1      0.0000      0.2799      0.0481      0.1002      0.6470      0.5443      0.5774      0.0192      1.1607
  2      0.0000      0.2761      0.1932      0.4850      1.6293      0.3043      0.2779      0.0754      0.0927
  3      6.7653      0.2961      0.2298      0.4992      0.9156      0.2462      0.3222      0.2713      0.0000
  4      0.0000      0.2670      0.2476      1.0136      0.0000      0.0000      0.6453      0.0000      0.8283
  5      0.0000      0.2349      0.7033      1.1408      0.0929      0.1945      0.6967      1.0194      0.5402
  6      0.5341      0.2467      0.1644      0.5576      0.6334      0.4836      0.7590      0.0000      1.0048
  7      0.0000      0.1945      0.3601      0.9195      0.0347      0.1992      0.1562      0.6792      3.1972
  8      0.0000      0.2096      0.0000      0.3557      0.0000      0.1645      0.0000      0.3287      0.5037
  9      3.0182      0.4241      0.5011      0.0000      0.5576      0.5676      0.1956      0.3712      1.0968
 10      0.0000      0.2573      0.2761      1.2294      1.7612      0.3120      0.6060      0.0906      0.0000
 11      4.6529      0.2857      0.1689      0.9853      1.6001      0.2433      0.2135      0.7591      0.0000
 12     12.3982      0.3576      0.0006      2.3608      2.2814      0.0000      0.4439      2.0811      0.0000
 13      0.0000      0.2614      0.0519      2.0128      0.6221      0.0000      0.8052      0.0000      1.4319
 14      0.0000      0.3110      0.0327      0.8408      0.0000      0.0000      1.5707      0.4904      0.5599
 15      0.0000      0.3903      0.6110      0.5309      0.9468      0.3285      0.0000      1.6284      0.0628
 16      0.1922      0.2662      0.2447      0.2115      0.5003      0.1938      0.7555      0.3206      0.4169
 17      0.0000      0.2953      0.1819      0.0000      0.0000      0.3485      0.7888      0.4135      1.3775
 18     15.1772      0.3483      0.0000      0.2624      1.0087      0.5673      0.6229      0.9595      2.1512
 19      0.0000      0.4062      0.7639      0.4730      0.3206      0.0846      0.6821      0.0000      0.0000
 20      0.0000      0.2606      0.1149      0.0000      0.0642      0.2471      0.0000      0.4234      0.2003
 21      0.0000      0.2428      0.0499      0.5355      0.1736      0.6316      0.4072      0.0000      0.6084
 22      0.0000      0.3597      0.1052      0.2752      0.0000      0.3665      0.0000      0.0000      0.0000
 23      0.0000      0.3017      0.0735      0.0000      0.0000      0.0000      0.0000      0.6728      0.0000
 24     14.3964      0.2821      0.3377      0.4197      0.4825      0.4803      0.1077      0.6810      0.8835
 25      0.0000      0.2484      0.2361      0.3314      0.2093      0.4021      0.0778      0.0000      2.7763
 26      0.0000      0.3082      0.1588      0.3865      0.0574      0.0329      0.9036      0.7250      2.1160
 27      5.2263      0.2539      0.0345      0.7676      1.7950      0.0000      0.2668      1.2144      0.2259
 28      0.0000      0.2964      0.0255      0.6761      1.0913      0.5146      0.0000      0.5910      0.9599
 29      0.2243      0.2594      0.1380      0.3894      1.6589      0.0134      0.1338      0.0000      2.0036
 30      0.0000      0.3529      0.1438      0.8799      0.6090      0.0000      0.2110      1.4962      1.3391
 31      0.0000      0.3410      0.3003      0.0000      0.0000      0.3167      0.0000      0.0000      2.2462
 32      0.0000      0.2878      0.1470      1.1642      0.8262      0.0000      0.2140      0.0600      1.3229
 33      0.0000      1.4562      3.4345      0.0000      2.5124      1.3527      1.9464      1.2800      2.2140
 34      0.0000     12.0740     10.0847     11.7169     11.3462     17.3990     10.9892     11.9952     10.1852
 35     45.6616      0.2604      0.1531      0.0000      0.7798      0.0807      0.0967      1.7213      0.0647
 36     11.0970      0.2453      0.0000      0.0228      2.1908      0.0818      0.1053      1.0003      1.7810
 37      0.0000      0.2444      0.0554      0.2839      0.2501      0.5254      0.0000      0.6530      0.0000
 38      0.0000      0.3066      0.1108      0.0000      0.0000      0.0000      0.5719      2.3913      0.5564
 39      0.0000      0.2913      0.3515      0.9220      0.0000      0.8460      0.8021      0.1288      0.3027
 40      0.0000      0.2900      0.1402      1.4890      1.1111      0.0000      0.0000      0.3191      1.1478
 41      0.0000      0.3029      0.0854      2.1387      0.1315      0.0000      0.4906      0.6996      0.0435
 42      0.0000      0.2803      0.0722      0.6579      0.0000      0.2091      0.6972      0.1431      1.1404
 43      0.0000      0.3411      0.0562      1.1341      1.3815      0.0308      0.5742      0.5418      0.1750
 44      0.5928      0.2353      0.1542      0.5846      1.0973      0.6633      0.0000      1.0621      0.0000
 45      0.0000      0.2660      0.0066      0.4328      1.3309      0.0000      0.1568      0.8384      2.0515
 46      0.0000      0.4079      0.5536      0.5815      0.0000      0.0707      0.0000      1.4628      0.7541
