###################################################################
## OUTPUT of StarlightChains_v04.for    [Cid@UFSC - 01/Apr/2007] ##
###################################################################

## Some input info
KUG0210-078._59_49.txt                   [arq_obs]
Base.CB07.vall.4m                        [arq_base]
Masks.EmLines.NEW.gm                     [arq_masks]
StCv04.C11.config                        [arq_config]
   66                                    [N_base]
    0                                    [N_YAV_components = # of components with extra extinction!]
    0                                    [i_FitPowerLaw (1/0 = Yes/No)]
-9.99                                    [alpha_PowerLaw]
CCM                                      [red_law_option]
 1.458241                                [q_norm = A(l_norm)/A(V)]

## (Re)Sampling Parameters
 3741.00                                 [l_ini (A)]
 7218.00                                 [l_fin (A)]
    1.00                                 [dl    (A)]     (OBS: dl_cushion =    50.00 A)

## Normalization info
 4020.00                                 [l_norm (A) - for base]
 4010.00                                 [llow_norm (A) - window for f_obs]
 4060.00                                 [lupp_norm (A) - window for f_obs]
3.860481E-20                             [fobs_norm (in input units)]

## S/N
 3691.00                                 [llow_SN (A) - window for S/N]
 7268.00                                 [lupp_SN (A) - window for S/N]
   2.010                                 [S/N in S/N window]
   0.016                                 [S/N in norm. window]
   0.007                                 [S/N_err in S/N window]
   0.000                                 [S/N_err in norm. window]
  1.0000                                 [fscale_chi2]

## etc...
    -2008030                             [idum_orig]
  2311                                   [NOl_eff]
  2207                                   [Nl_eff]
   104    NSIGMA                         [Ntot_cliped & clip_method]
   393050                                [Nglobal_steps]
   7                                     [N_chains]
   7                                     [NEX0s_base = N_base in EX0s-fits]
 0   1   1      105   2.0   1.756E+01    [Clip-Bug, RC-Crash & Burn-In warning-flags, n_censored_weights, wei_nsig_threshold & wei_limit]
    31     30.334     29.583      0.751  [idt_all, wdt_TotTime, wdt_UsrTime & wdt_SysTime (sec)]

## Synthesis Results - Best model ##

 7.67289E-05                             [chi2/Nl_eff]
    85.22266                             [adev (%)]

   123.75207                             [sum-of-x (%)]
 1.01440E-17                             [Flux_tot (units of input spectrum!)]
 1.88168E-12                             [Mini_tot (???)]
 9.31776E-13                             [Mcor_tot (???)]

 223.87                                  [v0_min  (km/s)]
 105.15                                  [vd_min  (km/s)]
 3.9894                                  [AV_min  (mag)]
 0.0000                                  [YAV_min (mag)]

# j     x_j(%)      Mini_j(%)     Mcor_j(%)     age_j(yr)     Z_j      (L/M)_j    YAV?  Mstars   component_j        a/Fe...       SSP_chi2r SSP_adev(%)   SSP_AV   SSP_x(%)
  1      0.0000     0.0000E+00    0.0000E+00    1.000000E+06  0.00400  1.094E-02    0   1.0000   age020_m42            0.0000     8.0487E-05    98.0031   4.0000    98.2798
  2      0.0000     0.0000E+00    0.0000E+00    3.160000E+06  0.00400  4.007E-02    0   0.9999   age045_m42            0.0000     8.0267E-05    97.4934   4.0000    98.6927
  3      0.0000     0.0000E+00    0.0000E+00    5.010000E+06  0.00400  2.539E-02    0   0.9488   age055_m42            0.0000     8.0373E-05    97.7298   4.0000    98.8758
  4      0.0000     0.0000E+00    0.0000E+00    6.610000E+06  0.00400  2.620E-02    0   0.9220   age061_m42            0.0000     8.0236E-05    97.4211   4.0000    98.7541
  5      0.0000     0.0000E+00    0.0000E+00    1.000000E+07  0.00400  1.322E-02    0   0.8862   age070_m42            0.0000     8.0132E-05    97.1259   4.0000    98.9377
  6      0.5966     3.2966E-04    5.7060E-04    1.445000E+07  0.00400  7.883E-03    0   0.8571   age078_m42            0.0000     8.0258E-05    97.4341   4.0000    98.7257
  7      0.0000     0.0000E+00    0.0000E+00    2.512000E+07  0.00400  5.251E-03    0   0.8174   age090_m42            0.0000     8.0073E-05    96.9769   4.0000    98.8424
  8      0.0000     0.0000E+00    0.0000E+00    4.000000E+07  0.00400  3.649E-03    0   0.7851   age104_m42            0.0000     7.9953E-05    96.6920   4.0000    98.9247
  9      0.0000     0.0000E+00    0.0000E+00    5.500000E+07  0.00400  3.098E-03    0   0.7629   age110_m42            0.0000     8.0040E-05    96.9229   4.0000    98.8432
 10      0.0000     0.0000E+00    0.0000E+00    1.015200E+08  0.00400  2.228E-03    0   0.7207   age116_m42            0.0000     8.0053E-05    96.9652   4.0000    98.8393
 11      0.0000     0.0000E+00    0.0000E+00    2.861200E+08  0.00400  1.093E-03    0   0.6648   age125_m42            0.0000     7.9739E-05    96.1561   4.0000    99.3143
 12      0.0000     0.0000E+00    0.0000E+00    5.088000E+08  0.00400  6.597E-04    0   0.6365   age130_m42            0.0000     7.9736E-05    96.1765   4.0000    99.7235
 13      0.0000     0.0000E+00    0.0000E+00    1.434000E+09  0.00400  2.132E-04    0   0.5798   age139_m42            0.0000     7.8862E-05    93.9200   4.0000   102.3807
 14      0.0000     0.0000E+00    0.0000E+00    4.250000E+09  0.00400  5.895E-05    0   0.5377   age158_m42            0.0000     7.8131E-05    92.1357   4.0000   104.2546
 15      0.0000     0.0000E+00    0.0000E+00    7.500000E+09  0.00400  3.510E-05    0   0.5212   age171_m42            0.0000     7.7804E-05    91.2882   4.0000   105.0796
 16      0.0000     0.0000E+00    0.0000E+00    1.300000E+10  0.00400  2.005E-05    0   0.5034   age193_m42            0.0000     7.7509E-05    90.4971   4.0000   105.4837
 17      9.0919     2.5971E+00    2.6051E+00    1.800000E+10  0.00400  1.525E-05    0   0.4967   age213_m42            0.0000     7.7477E-05    90.3936   4.0000   104.8881
 18      0.0000     0.0000E+00    0.0000E+00    1.000000E+06  0.00800  1.238E-02    0   1.0000   age020_m52            0.0000     8.0488E-05    98.0029   4.0000    98.3275
 19      0.0000     0.0000E+00    0.0000E+00    3.160000E+06  0.00800  3.074E-02    0   0.9966   age045_m52            0.0000     8.0462E-05    97.9468   4.0000    98.9988
 20      0.0000     0.0000E+00    0.0000E+00    5.010000E+06  0.00800  2.668E-02    0   0.9443   age055_m52            0.0000     8.0391E-05    97.7753   4.0000    99.2396
 21      6.9054     1.4083E-03    2.6099E-03    6.610000E+06  0.00800  2.136E-02    0   0.9177   age061_m52            0.0000     7.9816E-05    96.4056   4.0000   101.0557
 22      0.0000     0.0000E+00    0.0000E+00    1.000000E+07  0.00800  1.215E-02    0   0.8827   age070_m52            0.0000     8.0213E-05    97.3014   4.0000    99.5980
 23      0.0000     0.0000E+00    0.0000E+00    1.445000E+07  0.00800  8.717E-03    0   0.8552   age078_m52            0.0000     8.0251E-05    97.4108   4.0000    99.5755
 24      0.0000     0.0000E+00    0.0000E+00    2.512000E+07  0.00800  5.592E-03    0   0.8162   age090_m52            0.0000     8.0110E-05    97.0576   4.0000    99.9604
 25      0.0000     0.0000E+00    0.0000E+00    4.000000E+07  0.00800  3.896E-03    0   0.7841   age104_m52            0.0000     8.0072E-05    96.9734   4.0000    99.9434
 26      0.0000     0.0000E+00    0.0000E+00    1.015200E+08  0.00800  2.148E-03    0   0.7226   age116_m52            0.0000     8.0024E-05    96.8977   4.0000   100.2115
 27      0.0000     0.0000E+00    0.0000E+00    2.861200E+08  0.00800  9.925E-04    0   0.6683   age125_m52            0.0000     7.9771E-05    96.2712   4.0000   101.2185
 28      0.0000     0.0000E+00    0.0000E+00    9.047900E+08  0.00800  3.141E-04    0   0.6138   age135_m52            0.0000     7.9104E-05    94.6031   4.0000   105.3097
 29      0.0000     0.0000E+00    0.0000E+00    1.434000E+09  0.00800  1.719E-04    0   0.5853   age139_m52            0.0000     7.8334E-05    92.6032   4.0000   107.2267
 30      0.0000     0.0000E+00    0.0000E+00    2.500000E+09  0.00800  7.872E-05    0   0.5600   age150_m52            0.0000     7.7834E-05    91.3931   4.0000   107.9272
 31      0.0000     0.0000E+00    0.0000E+00    4.250000E+09  0.00800  4.336E-05    0   0.5426   age158_m52            0.0000     7.7780E-05    91.2706   4.0000   107.7478
 32      0.0000     0.0000E+00    0.0000E+00    6.250000E+09  0.00800  3.159E-05    0   0.5319   age166_m52            0.0000     7.7412E-05    90.3052   4.0000   109.0325
 33      0.0000     0.0000E+00    0.0000E+00    1.300000E+10  0.00800  1.361E-05    0   0.5073   age193_m52            0.0000     7.6480E-05    87.8941   4.0000   110.2770
 34      0.3567     1.5719E-01    1.5840E-01    1.800000E+10  0.00800  9.886E-06    0   0.4990   age213_m52            0.0000     7.6182E-05    87.2025   4.0000   111.3928
 35      0.0000     0.0000E+00    0.0000E+00    1.000000E+06  0.02000  1.544E-02    0   1.0000   age020_m62            0.0000     8.0488E-05    98.0014   4.0000    98.4691
 36      0.0000     0.0000E+00    0.0000E+00    3.160000E+06  0.02000  3.762E-02    0   0.9858   age045_m62            0.0000     8.0464E-05    97.9493   4.0000    99.5714
 37      0.0000     0.0000E+00    0.0000E+00    5.010000E+06  0.02000  3.296E-02    0   0.9342   age055_m62            0.0000     8.0362E-05    97.7091   4.0000    99.7280
 38      0.0000     0.0000E+00    0.0000E+00    8.710000E+06  0.02000  1.154E-02    0   0.8861   age067_m62            0.0000     7.9953E-05    96.5604   4.0000   101.2682
 39      0.0000     0.0000E+00    0.0000E+00    1.445000E+07  0.02000  7.663E-03    0   0.8472   age078_m62            0.0000     8.0046E-05    96.8761   4.0000   100.8780
 40      0.0000     0.0000E+00    0.0000E+00    2.512000E+07  0.02000  4.532E-03    0   0.8099   age090_m62            0.0000     8.0047E-05    96.8711   4.0000   100.2955
 41      0.0000     0.0000E+00    0.0000E+00    5.500000E+07  0.02000  2.733E-03    0   0.7595   age110_m62            0.0000     8.0041E-05    96.9189   4.0000   100.4101
 42      0.0000     0.0000E+00    0.0000E+00    1.609000E+08  0.02000  1.369E-03    0   0.6985   age120_m62            0.0000     7.9979E-05    96.7817   4.0000   101.0410
 43      0.0000     0.0000E+00    0.0000E+00    2.861200E+08  0.02000  9.013E-04    0   0.6714   age125_m62            0.0000     7.9858E-05    96.4810   4.0000   101.9322
 44      0.0000     0.0000E+00    0.0000E+00    5.088000E+08  0.02000  5.028E-04    0   0.6449   age130_m62            0.0000     7.9597E-05    95.8737   4.0000   103.8918
 45      0.0000     0.0000E+00    0.0000E+00    9.047900E+08  0.02000  2.428E-04    0   0.6179   age135_m62            0.0000     7.8963E-05    94.3423   4.0000   107.6205
 46      0.0000     0.0000E+00    0.0000E+00    1.434000E+09  0.02000  1.263E-04    0   0.5908   age139_m62            0.0000     7.8345E-05    92.7863   4.0000   109.7575
 47      0.0000     0.0000E+00    0.0000E+00    2.500000E+09  0.02000  5.985E-05    0   0.5673   age150_m62            0.0000     7.7753E-05    91.2688   4.0000   110.6358
 48      0.0000     0.0000E+00    0.0000E+00    4.250000E+09  0.02000  3.271E-05    0   0.5468   age158_m62            0.0000     7.7124E-05    89.6713   4.0000   113.2182
 49      8.6116     2.7584E+00    2.8783E+00    1.000000E+10  0.02000  1.360E-05    0   0.5167   age181_m62            0.0000     7.6281E-05    87.6106   4.0000   117.0876
 50      0.0000     0.0000E+00    0.0000E+00    1.800000E+10  0.02000  7.124E-06    0   0.5013   age213_m62            0.0000     7.5661E-05    86.1545   4.0000   119.8297
 51      0.0000     0.0000E+00    0.0000E+00    1.000000E+06  0.05000  2.592E-02    0   0.9998   age020_m72            0.0000     8.0476E-05    97.9796   4.0000    99.1895
 52      0.0000     0.0000E+00    0.0000E+00    3.160000E+06  0.05000  4.845E-02    0   0.9577   age045_m72            0.0000     8.0429E-05    97.8731   4.0000    99.9428
 53      0.0000     0.0000E+00    0.0000E+00    5.010000E+06  0.05000  3.072E-02    0   0.9147   age055_m72            0.0000     8.0284E-05    97.4817   4.0000   100.5441
 54      0.0000     0.0000E+00    0.0000E+00    6.610000E+06  0.05000  1.455E-02    0   0.8877   age061_m72            0.0000     8.0012E-05    96.6286   4.0000   101.0189
 55      0.0000     0.0000E+00    0.0000E+00    1.000000E+07  0.05000  9.074E-03    0   0.8524   age070_m72            0.0000     8.0360E-05    97.6452   4.0000   100.5747
 56      0.0000     0.0000E+00    0.0000E+00    2.512000E+07  0.05000  4.250E-03    0   0.7902   age090_m72            0.0000     8.0259E-05    97.4126   4.0000    99.9277
 57      0.0000     0.0000E+00    0.0000E+00    4.000000E+07  0.05000  3.087E-03    0   0.7618   age104_m72            0.0000     8.0170E-05    97.1933   4.0000   100.1333
 58      0.0000     0.0000E+00    0.0000E+00    1.015200E+08  0.05000  1.700E-03    0   0.7096   age116_m72            0.0000     8.0062E-05    96.9575   4.0000   100.7717
 59      0.0000     0.0000E+00    0.0000E+00    2.861200E+08  0.05000  7.384E-04    0   0.6633   age125_m72            0.0000     7.9759E-05    96.2680   4.0000   103.5827
 60      0.0000     0.0000E+00    0.0000E+00    5.088000E+08  0.05000  3.819E-04    0   0.6372   age130_m72            0.0000     7.9319E-05    95.2506   4.0000   107.4228
 61      0.0000     0.0000E+00    0.0000E+00    9.047900E+08  0.05000  1.676E-04    0   0.6110   age135_m72            0.0000     7.8383E-05    93.0030   4.0000   112.8422
 62      0.0000     0.0000E+00    0.0000E+00    1.434000E+09  0.05000  8.837E-05    0   0.5874   age139_m72            0.0000     7.7661E-05    91.0836   4.0000   114.8977
 63      0.0000     0.0000E+00    0.0000E+00    2.500000E+09  0.05000  4.233E-05    0   0.5598   age150_m72            0.0000     7.7036E-05    89.5147   4.0000   116.4102
 64      0.0000     0.0000E+00    0.0000E+00    6.250000E+09  0.05000  1.435E-05    0   0.5249   age166_m72            0.0000     7.5964E-05    86.8698   4.0000   119.1732
 65      0.0000     0.0000E+00    0.0000E+00    1.300000E+10  0.05000  6.513E-06    0   0.5036   age193_m72            0.0000     7.5047E-05    84.7509   4.0000   126.2198
 66     98.1898     9.4486E+01    9.4355E+01    1.800000E+10  0.05000  4.527E-06    0   0.4945   age213_m72            0.0000     7.4504E-05    83.6149   4.0000   128.8014


## Synthesis Results - Average & Chains ##

# j      x_j: min, <> & last-chain-values for 1 ...  7 chains
  1      0.0000      0.9370      0.0000      0.0000      0.0000      0.0000      0.0000      0.0000      0.0000
  2      0.0000      0.9301      0.0000      0.0000      0.0000      0.0000      0.0000      0.0000      0.0000
  3      0.0000      0.7817      0.0000      0.0000      0.0000      0.0000      0.0000      0.0000      0.0000
  4      0.0000      0.9800      0.0000      0.0000      0.0000      0.0000      0.0000      0.0000      0.0000
  5      0.0000      1.0234      0.0000      0.0000      0.0000      0.0000      0.0000      0.0000      0.0000
  6      0.5966      0.8429      0.0014      0.0000      0.0000      0.0000      0.0000      0.0000      0.0000
  7      0.0000      0.9212      0.0000      0.0000      0.0000      0.0000      0.0000      0.0000      0.0000
  8      0.0000      0.7126      0.0000      0.0000      0.0000      0.0000      0.0000      0.0000      0.0000
  9      0.0000      0.8462      0.0000      0.0000      0.0000      0.0000      0.0000      0.0000      0.0000
 10      0.0000      0.9637      0.0000      0.0000      0.0000      0.0000      0.0000      0.0000      0.0000
 11      0.0000      1.0551      0.0000      0.0000      0.0000      0.0000      0.0000      0.0000      0.0000
 12      0.0000      0.8415      0.0000      0.0000      0.0000      0.0000      0.0000      0.0000      0.0000
 13      0.0000      0.9451      0.0000      0.0000      0.0000      0.0000      0.0000      0.0000      0.0000
 14      0.0000      1.0901      0.0000      0.0000      0.0000      0.0000      0.0000      0.0000      0.0000
 15      0.0000      0.5834      0.0062      0.0000      0.0000      0.0000      0.0000      0.0011      0.0000
 16      0.0000      0.9340      0.0000      0.0000      0.0000      0.0000      0.0000      0.0000      0.0000
 17      9.0919      0.9875      0.0000      0.0006      0.0000      0.0000      0.0001      0.0000      0.0000
 18      0.0000      0.7770      0.0000      0.0000      0.0000      0.0000      0.0000      0.0000      0.0000
 19      0.0000      0.9652      0.0000      0.0000      0.0000      0.0000      0.0000      0.0000      0.0000
 20      0.0000      0.9543      0.0000      0.0000      0.0000      0.0000      0.0000      0.0000      0.0000
 21      6.9054      1.0331      0.0000      0.0000      0.0000      0.0000      0.0000      0.0000      0.0000
 22      0.0000      0.7666      0.0000      0.0000      0.0000      0.0000      0.0000      0.0000      0.0000
 23      0.0000      1.0827      0.0000      0.0000      0.0000      0.0000      0.0000      0.0000      0.0000
 24      0.0000      0.8295      0.0000      0.0000      0.0000      0.0000      0.0000      0.0000      0.0000
 25      0.0000      0.6873      0.0000      0.0000      0.0000      0.0000      0.0000      0.0000      0.0000
 26      0.0000      1.0171      0.0000      0.0000      0.0000      0.0000      0.0000      0.0000      0.0000
 27      0.0000      0.8538      0.0000      0.0000      0.0000      0.0000      0.0000      0.0000      0.0000
 28      0.0000      1.2430      0.0000      0.0000      0.0000      0.0000      0.0000      0.0000      0.0000
 29      0.0000      1.1475      0.0000      0.0000      0.0000      0.0000      0.0000      0.0000      0.0000
 30      0.0000      1.3142      0.0000      0.0000      0.0018      0.0000      0.0000      0.0000      0.0000
 31      0.0000      0.8277      0.0000      0.0000      0.0000      0.0000      0.0000      0.0017      0.0000
 32      0.0000      1.0970      0.0000      0.0000      0.0000      0.0000      0.0000      0.0013      0.0000
 33      0.0000      1.1553      0.0060      0.0000      0.0087      0.0000      0.0000      0.0000      0.0000
 34      0.3567      2.6932      4.2760      6.0520      0.0000      6.7433      0.0040      0.0000      6.3896
 35      0.0000      0.7548      0.0000      0.0000      0.0000      0.0000      0.0000      0.0002      0.0000
 36      0.0000      1.0259      0.0000      0.0000      0.0000      0.0000      0.0000      0.0000      0.0000
 37      0.0000      1.0274      0.0000      0.0000      0.0000      0.0000      0.0000      0.0000      0.0000
 38      0.0000      0.9098      0.0000      0.0000      0.0000      0.0000      0.0000      0.0000      0.0003
 39      0.0000      0.8756      0.0000      0.0000      0.0000      0.0012      0.0000      0.0000      0.0000
 40      0.0000      0.8277      0.0000      0.0000      0.0000      0.0000      0.0000      0.0000      0.0000
 41      0.0000      1.1048      0.0000      0.0000      0.0000      0.0000      0.0000      0.0000      0.0000
 42      0.0000      0.8166      0.0000      0.0000      0.0000      0.0000      0.0000      0.0000      0.0000
 43      0.0000      1.6173      0.0000      0.0000      0.0000      0.0000      0.0000      0.0000      0.0000
 44      0.0000      0.7720      0.0000      0.0000      0.0000      0.0000      0.0000      0.0000      0.0000
 45      0.0000      1.0065      0.0000      0.0000      0.0000      0.0000      0.0000      0.0000      0.0027
 46      0.0000      1.2772      0.0000      0.0000      0.0000      0.0000      0.0000      0.0000      0.0000
