###################################################################
## OUTPUT of StarlightChains_v04.for    [Cid@UFSC - 01/Apr/2007] ##
###################################################################

## Some input info
KUG0210-078._25_24.txt                   [arq_obs]
Base.CB07.vall.4m                        [arq_base]
Masks.EmLines.NEW.gm                     [arq_masks]
StCv04.C11.config                        [arq_config]
   66                                    [N_base]
    0                                    [N_YAV_components = # of components with extra extinction!]
    0                                    [i_FitPowerLaw (1/0 = Yes/No)]
-9.99                                    [alpha_PowerLaw]
CCM                                      [red_law_option]
 1.458241                                [q_norm = A(l_norm)/A(V)]

## (Re)Sampling Parameters
 3741.00                                 [l_ini (A)]
 7218.00                                 [l_fin (A)]
    1.00                                 [dl    (A)]     (OBS: dl_cushion =    50.00 A)

## Normalization info
 4020.00                                 [l_norm (A) - for base]
 4010.00                                 [llow_norm (A) - window for f_obs]
 4060.00                                 [lupp_norm (A) - window for f_obs]
1.472310E-17                             [fobs_norm (in input units)]

## S/N
 3691.00                                 [llow_SN (A) - window for S/N]
 7268.00                                 [lupp_SN (A) - window for S/N]
   5.578                                 [S/N in S/N window]
   5.564                                 [S/N in norm. window]
   0.023                                 [S/N_err in S/N window]
   0.023                                 [S/N_err in norm. window]
  1.0000                                 [fscale_chi2]

## etc...
    -2007297                             [idum_orig]
  2429                                   [NOl_eff]
  2041                                   [Nl_eff]
   388    NSIGMA                         [Ntot_cliped & clip_method]
 10977750                                [Nglobal_steps]
   7                                     [N_chains]
  28                                     [NEX0s_base = N_base in EX0s-fits]
 0   0   1      388   2.0   1.294E+04    [Clip-Bug, RC-Crash & Burn-In warning-flags, n_censored_weights, wei_nsig_threshold & wei_limit]
    87     83.108     81.626      1.482  [idt_all, wdt_TotTime, wdt_UsrTime & wdt_SysTime (sec)]

## Synthesis Results - Best model ##

 7.91374E-06                             [chi2/Nl_eff]
     8.61129                             [adev (%)]

   116.47724                             [sum-of-x (%)]
 8.31543E-17                             [Flux_tot (units of input spectrum!)]
 6.72162E-13                             [Mini_tot (???)]
 3.37061E-13                             [Mcor_tot (???)]

 281.79                                  [v0_min  (km/s)]
   4.07                                  [vd_min  (km/s)]
 1.1755                                  [AV_min  (mag)]
 0.0000                                  [YAV_min (mag)]

# j     x_j(%)      Mini_j(%)     Mcor_j(%)     age_j(yr)     Z_j      (L/M)_j    YAV?  Mstars   component_j        a/Fe...       SSP_chi2r SSP_adev(%)   SSP_AV   SSP_x(%)
  1      0.0000     0.0000E+00    0.0000E+00    1.000000E+06  0.00400  1.094E-02    0   1.0000   age020_m42            0.0000     1.3437E-05    12.7890   2.7183   107.9841
  2      0.0000     0.0000E+00    0.0000E+00    3.160000E+06  0.00400  4.007E-02    0   0.9999   age045_m42            0.0000     1.1544E-05    11.6030   2.1071   109.9606
  3      0.0000     0.0000E+00    0.0000E+00    5.010000E+06  0.00400  2.539E-02    0   0.9488   age055_m42            0.0000     1.2420E-05    12.1326   2.3637   110.2577
  4      0.0000     0.0000E+00    0.0000E+00    6.610000E+06  0.00400  2.620E-02    0   0.9220   age061_m42            0.0000     1.1205E-05    11.3581   2.0363   110.1749
  5      0.0000     0.0000E+00    0.0000E+00    1.000000E+07  0.00400  1.322E-02    0   0.8862   age070_m42            0.0000     9.6433E-06    10.1262   1.7531   113.0889
  6      0.0000     0.0000E+00    0.0000E+00    1.445000E+07  0.00400  7.883E-03    0   0.8571   age078_m42            0.0000     1.0282E-05    10.5806   2.0540   111.3540
  7     14.6037     2.9539E-01    4.8149E-01    2.512000E+07  0.00400  5.251E-03    0   0.8174   age090_m42            0.0000     9.2954E-06     9.8466   1.6357   113.2338
  8      0.0000     0.0000E+00    0.0000E+00    4.000000E+07  0.00400  3.649E-03    0   0.7851   age104_m42            0.0000     9.0808E-06     9.7294   1.4324   112.9401
  9     11.7061     4.0133E-01    6.1057E-01    5.500000E+07  0.00400  3.098E-03    0   0.7629   age110_m42            0.0000     9.4572E-06    10.0410   1.6037   111.8224
 10      0.0000     0.0000E+00    0.0000E+00    1.015200E+08  0.00400  2.228E-03    0   0.7207   age116_m42            0.0000     9.7325E-06    10.2593   1.6303   111.6393
 11      0.3240     3.1486E-02    4.1742E-02    2.861200E+08  0.00400  1.093E-03    0   0.6648   age125_m42            0.0000     8.9340E-06     9.6284   1.0738   114.3740
 12      0.0000     0.0000E+00    0.0000E+00    5.088000E+08  0.00400  6.597E-04    0   0.6365   age130_m42            0.0000     9.1775E-06     9.8399   1.0894   113.9240
 13      0.0000     0.0000E+00    0.0000E+00    1.434000E+09  0.00400  2.132E-04    0   0.5798   age139_m42            0.0000     8.6874E-06     9.3589   0.2005   112.1938
 14      0.0000     0.0000E+00    0.0000E+00    4.250000E+09  0.00400  5.895E-05    0   0.5377   age158_m42            0.0000     1.0411E-05    10.6120  -0.2977   110.5070
 15      0.0000     0.0000E+00    0.0000E+00    7.500000E+09  0.00400  3.510E-05    0   0.5212   age171_m42            0.0000     1.0954E-05    10.8855  -0.4795   109.3396
 16      0.0000     0.0000E+00    0.0000E+00    1.300000E+10  0.00400  2.005E-05    0   0.5034   age193_m42            0.0000     1.1450E-05    11.1429  -0.6362   108.1973
 17      0.0000     0.0000E+00    0.0000E+00    1.800000E+10  0.00400  1.525E-05    0   0.4967   age213_m42            0.0000     1.1499E-05    11.1742  -0.6740   108.4809
 18      0.6306     5.4097E-03    1.0788E-02    1.000000E+06  0.00800  1.238E-02    0   1.0000   age020_m52            0.0000     1.3427E-05    12.7807   2.7169   108.0931
 19      0.0000     0.0000E+00    0.0000E+00    3.160000E+06  0.00800  3.074E-02    0   0.9966   age045_m52            0.0000     1.3349E-05    12.7281   2.6497   108.6251
 20      0.0000     0.0000E+00    0.0000E+00    5.010000E+06  0.00800  2.668E-02    0   0.9443   age055_m52            0.0000     1.2317E-05    12.0783   2.4501   109.0790
 21      0.0000     0.0000E+00    0.0000E+00    6.610000E+06  0.00800  2.136E-02    0   0.9177   age061_m52            0.0000     9.4979E-06    10.0987   1.2689   113.6251
 22      0.0000     0.0000E+00    0.0000E+00    1.000000E+07  0.00800  1.215E-02    0   0.8827   age070_m52            0.0000     9.4216E-06     9.9056   1.9262   113.1489
 23      0.0000     0.0000E+00    0.0000E+00    1.445000E+07  0.00800  8.717E-03    0   0.8552   age078_m52            0.0000     1.0006E-05    10.3557   2.0340   112.2429
 24      0.0000     0.0000E+00    0.0000E+00    2.512000E+07  0.00800  5.592E-03    0   0.8162   age090_m52            0.0000     9.0135E-06     9.5911   1.7138   113.8239
 25      0.0000     0.0000E+00    0.0000E+00    4.000000E+07  0.00800  3.896E-03    0   0.7841   age104_m52            0.0000     9.0252E-06     9.6146   1.6444   113.6637
 26      0.0000     0.0000E+00    0.0000E+00    1.015200E+08  0.00800  2.148E-03    0   0.7226   age116_m52            0.0000     9.3822E-06     9.9452   1.5995   112.5104
 27      0.0000     0.0000E+00    0.0000E+00    2.861200E+08  0.00800  9.925E-04    0   0.6683   age125_m52            0.0000     8.8869E-06     9.6120   1.1693   114.1968
 28      0.0000     0.0000E+00    0.0000E+00    9.047900E+08  0.00800  3.141E-04    0   0.6138   age135_m52            0.0000     8.9040E-06     9.5153   0.4499   114.7371
 29      0.0000     0.0000E+00    0.0000E+00    1.434000E+09  0.00800  1.719E-04    0   0.5853   age139_m52            0.0000     9.4102E-06     9.8321  -0.1542   113.5946
 30      0.0000     0.0000E+00    0.0000E+00    2.500000E+09  0.00800  7.872E-05    0   0.5600   age150_m52            0.0000     1.0888E-05    10.7885  -0.4329   110.9828
 31      0.0000     0.0000E+00    0.0000E+00    4.250000E+09  0.00800  4.336E-05    0   0.5426   age158_m52            0.0000     1.1224E-05    11.0019  -0.4645   110.7078
 32      0.0000     0.0000E+00    0.0000E+00    6.250000E+09  0.00800  3.159E-05    0   0.5319   age166_m52            0.0000     1.1989E-05    11.3538  -0.6501   109.8041
 33      0.0000     0.0000E+00    0.0000E+00    1.300000E+10  0.00800  1.361E-05    0   0.5073   age193_m52            0.0000     1.3542E-05    11.3897  -1.0000   105.5708
 34      4.3260     4.6476E+01    4.6249E+01    1.800000E+10  0.00800  9.886E-06    0   0.4990   age213_m52            0.0000     1.5330E-05    11.6776  -1.0000   101.8962
 35      0.0000     0.0000E+00    0.0000E+00    1.000000E+06  0.02000  1.544E-02    0   1.0000   age020_m62            0.0000     1.3409E-05    12.7836   2.7146   108.2500
 36      0.0000     0.0000E+00    0.0000E+00    3.160000E+06  0.02000  3.762E-02    0   0.9858   age045_m62            0.0000     1.3316E-05    12.7436   2.6630   108.7385
 37      0.0000     0.0000E+00    0.0000E+00    5.010000E+06  0.02000  3.296E-02    0   0.9342   age055_m62            0.0000     1.1976E-05    11.8936   2.3629   109.6960
 38     57.3381     5.2772E-01    9.3251E-01    8.710000E+06  0.02000  1.154E-02    0   0.8861   age067_m62            0.0000     7.7993E-06     8.5757   1.3579   118.2167
 39      7.3222     1.0149E-01    1.7146E-01    1.445000E+07  0.02000  7.663E-03    0   0.8472   age078_m62            0.0000     8.5338E-06     9.2030   1.5882   115.1147
 40      0.7110     1.6663E-02    2.6912E-02    2.512000E+07  0.02000  4.532E-03    0   0.8099   age090_m62            0.0000     8.4559E-06     9.1147   1.5803   114.8378
 41      0.0000     0.0000E+00    0.0000E+00    5.500000E+07  0.02000  2.733E-03    0   0.7595   age110_m62            0.0000     9.0762E-06     9.6670   1.6179   113.3416
 42      0.0000     0.0000E+00    0.0000E+00    1.609000E+08  0.02000  1.369E-03    0   0.6985   age120_m62            0.0000     9.1127E-06     9.7594   1.5027   113.9210
 43      0.0000     0.0000E+00    0.0000E+00    2.861200E+08  0.02000  9.013E-04    0   0.6714   age125_m62            0.0000     8.9164E-06     9.6111   1.2935   115.0602
 44      0.0000     0.0000E+00    0.0000E+00    5.088000E+08  0.02000  5.028E-04    0   0.6449   age130_m62            0.0000     9.1434E-06     9.7697   0.9807   114.5627
 45      0.0000     0.0000E+00    0.0000E+00    9.047900E+08  0.02000  2.428E-04    0   0.6179   age135_m62            0.0000     9.6366E-06    10.0903   0.3895   114.0854
 46      0.0000     0.0000E+00    0.0000E+00    1.434000E+09  0.02000  1.263E-04    0   0.5908   age139_m62            0.0000     1.0506E-05    10.6206  -0.0833   113.8495
 47      0.0207     3.6807E-02    4.1640E-02    2.500000E+09  0.02000  5.985E-05    0   0.5673   age150_m62            0.0000     1.2261E-05    11.5582  -0.4736   113.3272
 48      0.0000     0.0000E+00    0.0000E+00    4.250000E+09  0.02000  3.271E-05    0   0.5468   age158_m62            0.0000     1.3668E-05    12.1128  -0.7472   110.6694
 49      0.0000     0.0000E+00    0.0000E+00    1.000000E+10  0.02000  1.360E-05    0   0.5167   age181_m62            0.0000     1.5896E-05    12.3939  -1.0000   107.2930
 50      0.0000     0.0000E+00    0.0000E+00    1.800000E+10  0.02000  7.124E-06    0   0.5013   age213_m62            0.0000     2.0166E-05    12.8388  -1.0000   100.8303
 51      0.0000     0.0000E+00    0.0000E+00    1.000000E+06  0.05000  2.592E-02    0   0.9998   age020_m72            0.0000     1.3539E-05    12.8307   2.7000   108.6014
 52      0.0000     0.0000E+00    0.0000E+00    3.160000E+06  0.05000  4.845E-02    0   0.9577   age045_m72            0.0000     1.3013E-05    12.5351   2.5766   108.7491
 53     17.2764     5.9731E-02    1.0895E-01    5.010000E+06  0.05000  3.072E-02    0   0.9147   age055_m72            0.0000     1.0065E-05    10.3963   2.1322   112.1910
 54      0.0000     0.0000E+00    0.0000E+00    6.610000E+06  0.05000  1.455E-02    0   0.8877   age061_m72            0.0000     9.0060E-06     9.9421   1.3807   119.7091
 55      0.0000     0.0000E+00    0.0000E+00    1.000000E+07  0.05000  9.074E-03    0   0.8524   age070_m72            0.0000     1.0626E-05    11.0610   2.3044   111.7234
 56      0.0000     0.0000E+00    0.0000E+00    2.512000E+07  0.05000  4.250E-03    0   0.7902   age090_m72            0.0000     9.6992E-06    10.1483   2.0473   112.2391
 57      0.0000     0.0000E+00    0.0000E+00    4.000000E+07  0.05000  3.087E-03    0   0.7618   age104_m72            0.0000     9.2362E-06     9.8010   1.8381   113.3234
 58      0.0000     0.0000E+00    0.0000E+00    1.015200E+08  0.05000  1.700E-03    0   0.7096   age116_m72            0.0000     9.0158E-06     9.6157   1.6283   114.3154
 59      0.0000     0.0000E+00    0.0000E+00    2.861200E+08  0.05000  7.384E-04    0   0.6633   age125_m72            0.0000     9.1576E-06     9.7475   1.1766   115.7640
 60      0.0000     0.0000E+00    0.0000E+00    5.088000E+08  0.05000  3.819E-04    0   0.6372   age130_m72            0.0000     9.5173E-06    10.0498   0.7280   115.3187
 61      0.0000     0.0000E+00    0.0000E+00    9.047900E+08  0.05000  1.676E-04    0   0.6110   age135_m72            0.0000     1.1751E-05    11.4146  -0.0024   114.8511
 62      0.0000     0.0000E+00    0.0000E+00    1.434000E+09  0.05000  8.837E-05    0   0.5874   age139_m72            0.0000     1.2123E-05    11.4222  -0.4468   113.5661
 63      0.0000     0.0000E+00    0.0000E+00    2.500000E+09  0.05000  4.233E-05    0   0.5598   age150_m72            0.0000     1.4412E-05    12.4803  -0.7608   112.1497
 64      0.0000     0.0000E+00    0.0000E+00    6.250000E+09  0.05000  1.435E-05    0   0.5249   age166_m72            0.0000     1.7344E-05    12.4643  -1.0000   104.3082
 65      0.0000     0.0000E+00    0.0000E+00    1.300000E+10  0.05000  6.513E-06    0   0.5036   age193_m72            0.0000     2.5728E-05    14.2028  -1.0000    97.5672
 66      2.2184     5.2048E+01    5.1325E+01    1.800000E+10  0.05000  4.527E-06    0   0.4945   age213_m72            0.0000     3.3459E-05    15.9780  -1.0000    92.8672


## Synthesis Results - Average & Chains ##

# j      x_j: min, <> & last-chain-values for 1 ...  7 chains
  1      0.0000      0.1216      0.1149      0.0000      0.2747      0.0000      0.0413      0.0098      0.0000
  2      0.0000      0.2571      0.3659      0.1335      0.1753      0.0832      0.2465      0.3254      0.0722
  3      0.0000      0.1513      0.1001      0.1999      0.0000      0.0981      0.0000      0.0800      0.1762
  4      0.0000      0.1637      0.4019      0.3911      0.0037      0.3194      0.0779      0.0603      0.0217
  5      0.0000      0.2050      0.1091      0.1701      0.1399      0.4027      0.2691      0.0000      0.0867
  6      0.0000      0.2267      0.0933      0.1020      0.0584      0.2182      0.2988      0.0859      0.1068
  7     14.6037      0.2111      0.0795      0.3620      0.0370      0.0000      0.1637      0.1687      0.2166
  8      0.0000      0.1485      0.1596      0.2357      0.0646      0.3167      0.1624      0.0998      0.0698
  9     11.7061      0.1911      0.4006      0.0425      0.4125      0.3591      0.0957      0.0310      0.3976
 10      0.0000      0.1978      0.2829      0.1774      0.0427      0.2779      0.3003      0.2765      0.1194
 11      0.3240      0.1184      0.0748      0.0000      0.0000      0.0070      0.0480      0.0750      0.3132
 12      0.0000      0.1824      0.1023      0.1111      0.3095      0.1596      0.0893      0.0770      0.1855
 13      0.0000      0.1302      0.1331      0.2747      0.0668      0.0000      0.0132      0.1083      0.0796
 14      0.0000      0.1099      0.2483      0.0987      0.1141      0.0000      0.1893      0.2769      0.1704
 15      0.0000      0.1579      0.1792      0.1399      0.1688      0.0000      0.6164      0.3023      0.0023
 16      0.0000      0.1645      0.1251      0.2207      0.1048      0.1375      0.0199      0.0691      0.0067
 17      0.0000      5.2466      5.1509      4.9943      5.3673      5.3709      5.5508      4.9508      5.7873
 18      0.6306     11.8537     11.5842     12.0448     11.8220     12.6182     12.0119     12.3953     12.4583
 19      0.0000      0.2030      0.0000      0.0824      0.3476      0.2572      0.0571      0.0754      0.0451
 20      0.0000      0.1500      0.0322      0.2078      0.0000      0.0000      0.0657      0.0895      0.5142
 21      0.0000      0.1593      0.0000      0.1548      0.1454      0.0527      0.1792      0.0184      0.0670
 22      0.0000      0.1493      0.1088      0.1243      0.1950      0.4353      0.3420      0.0744      0.2338
 23      0.0000      0.1623      0.0429      0.1481      0.1812      0.0000      0.3299      0.0000      0.2785
 24      0.0000      0.1866      0.1091      0.4094      0.0728      0.0777      0.1320      0.0851      0.1684
 25      0.0000      0.1575      0.0433      0.1143      0.0682      0.1166      0.2277      0.0060      0.4699
 26      0.0000      0.1427      0.0000      0.1986      0.0000      0.0000      0.0000      0.0640      0.0000
 27      0.0000      0.1201      0.4307      0.0900      0.0046      0.0000      0.1328      0.1204      0.0700
 28      0.0000      0.2186      0.1603      0.4453      0.2182      0.1746      0.0238      0.1915      0.0676
 29      0.0000      0.1348      0.1280      0.1095      0.2458      0.1952      0.1739      0.0206      0.0788
 30      0.0000      0.1874      0.0854      0.2484      0.0000      0.2788      0.0066      0.0000      0.0424
 31      0.0000      0.1638      0.2385      0.0069      0.0022      0.1644      0.0905      0.1379      0.0000
 32      0.0000      0.1558      0.1561      0.3781      0.0000      0.0244      0.4069      0.0596      0.0000
 33      0.0000      0.1689      0.0657      0.1366      0.2082      0.0000      0.0248      0.1364      0.2583
 34      4.3260     32.3301     34.9176     33.1382     32.7741     33.5627     32.7546     33.9368     33.8089
 35      0.0000      9.1012      9.2697      8.9932      9.4877      9.4175      9.3181      9.5866      9.3790
 36      0.0000      0.1439      0.0404      0.0152      0.0000      0.0513      0.0437      0.1477      0.1470
 37      0.0000      0.1478      0.1671      0.1508      0.0399      0.0414      0.0000      0.0338      0.0000
 38     57.3381      0.1491      0.1031      0.2449      0.0168      0.1569      0.0679      0.1064      0.3327
 39      7.3222      0.1722      0.2469      0.0332      0.2546      0.0000      0.0000      0.0429      0.2154
 40      0.7110      0.1645      0.0000      0.0265      0.0000      0.0000      0.0000      0.0266      0.2254
 41      0.0000      0.2134      0.1784      0.0948      0.3053      0.1193      0.1536      0.2104      0.0000
 42      0.0000      0.2023      0.0548      0.0279      0.1803      0.0000      0.1785      0.1592      0.0602
 43      0.0000      0.1557      0.0530      0.0210      0.3080      0.0000      0.0934      0.1101      0.0331
 44      0.0000      0.1162      0.1039      0.1144      0.3039      0.1058      0.1536      0.1036      0.0000
 45      0.0000      0.1237      0.0370      0.1307      0.2709      0.0299      0.4749      0.0645      0.0897
 46      0.0000      0.1644      0.0622      0.0035      0.0891      0.0745      0.0613      0.1133      0.2342
