###################################################################
## OUTPUT of StarlightChains_v04.for    [Cid@UFSC - 01/Apr/2007] ##
###################################################################

## Some input info
KUG0210-078._27_29.txt                   [arq_obs]
Base.CB07.vall.4m                        [arq_base]
Masks.EmLines.NEW.gm                     [arq_masks]
StCv04.C11.config                        [arq_config]
   66                                    [N_base]
    0                                    [N_YAV_components = # of components with extra extinction!]
    0                                    [i_FitPowerLaw (1/0 = Yes/No)]
-9.99                                    [alpha_PowerLaw]
CCM                                      [red_law_option]
 1.458241                                [q_norm = A(l_norm)/A(V)]

## (Re)Sampling Parameters
 3741.00                                 [l_ini (A)]
 7218.00                                 [l_fin (A)]
    1.00                                 [dl    (A)]     (OBS: dl_cushion =    50.00 A)

## Normalization info
 4020.00                                 [l_norm (A) - for base]
 4010.00                                 [llow_norm (A) - window for f_obs]
 4060.00                                 [lupp_norm (A) - window for f_obs]
3.459091E-17                             [fobs_norm (in input units)]

## S/N
 3691.00                                 [llow_SN (A) - window for S/N]
 7268.00                                 [lupp_SN (A) - window for S/N]
   5.991                                 [S/N in S/N window]
   8.890                                 [S/N in norm. window]
   0.036                                 [S/N_err in S/N window]
   0.054                                 [S/N_err in norm. window]
  1.0000                                 [fscale_chi2]

## etc...
    -2007349                             [idum_orig]
  2430                                   [NOl_eff]
  1824                                   [Nl_eff]
   606    NSIGMA                         [Ntot_cliped & clip_method]
 15575140                                [Nglobal_steps]
   7                                     [N_chains]
  43                                     [NEX0s_base = N_base in EX0s-fits]
 0   0   1        0   2.0   3.796E+04    [Clip-Bug, RC-Crash & Burn-In warning-flags, n_censored_weights, wei_nsig_threshold & wei_limit]
   126    124.579    123.516      1.063  [idt_all, wdt_TotTime, wdt_UsrTime & wdt_SysTime (sec)]

## Synthesis Results - Best model ##

 1.64847E-05                             [chi2/Nl_eff]
     7.86095                             [adev (%)]

    78.42223                             [sum-of-x (%)]
 3.30529E-17                             [Flux_tot (units of input spectrum!)]
 1.47823E-12                             [Mini_tot (???)]
 7.40509E-13                             [Mcor_tot (???)]

 411.13                                  [v0_min  (km/s)]
  81.53                                  [vd_min  (km/s)]
 0.1471                                  [AV_min  (mag)]
 0.0000                                  [YAV_min (mag)]

# j     x_j(%)      Mini_j(%)     Mcor_j(%)     age_j(yr)     Z_j      (L/M)_j    YAV?  Mstars   component_j        a/Fe...       SSP_chi2r SSP_adev(%)   SSP_AV   SSP_x(%)
  1      0.3230     8.4173E-04    1.6803E-03    1.000000E+06  0.00400  1.094E-02    0   1.0000   age020_m42            0.0000     2.7226E-05    10.7182   3.0243    62.1938
  2      0.1849     1.3156E-04    2.6259E-04    3.160000E+06  0.00400  4.007E-02    0   0.9999   age045_m42            0.0000     2.6633E-05     9.9920   2.3451    64.9302
  3      0.0000     0.0000E+00    0.0000E+00    5.010000E+06  0.00400  2.539E-02    0   0.9488   age055_m42            0.0000     2.6607E-05    10.1777   2.6393    63.9741
  4      0.0000     0.0000E+00    0.0000E+00    6.610000E+06  0.00400  2.620E-02    0   0.9220   age061_m42            0.0000     2.5874E-05     9.7416   2.2573    65.3419
  5      0.0000     0.0000E+00    0.0000E+00    1.000000E+07  0.00400  1.322E-02    0   0.8862   age070_m42            0.0000     2.3465E-05     8.5671   1.9225    68.1282
  6      0.0000     0.0000E+00    0.0000E+00    1.445000E+07  0.00400  7.883E-03    0   0.8571   age078_m42            0.0000     2.4084E-05     8.9122   2.2469    66.4442
  7      1.7094     9.2815E-03    1.5145E-02    2.512000E+07  0.00400  5.251E-03    0   0.8174   age090_m42            0.0000     2.3259E-05     8.3163   1.7901    68.5458
  8      0.4212     3.2914E-03    5.1585E-03    4.000000E+07  0.00400  3.649E-03    0   0.7851   age104_m42            0.0000     2.2871E-05     8.3220   1.5639    69.1142
  9      0.0000     0.0000E+00    0.0000E+00    5.500000E+07  0.00400  3.098E-03    0   0.7629   age110_m42            0.0000     2.4100E-05     8.7126   1.7458    68.1865
 10      0.0000     0.0000E+00    0.0000E+00    1.015200E+08  0.00400  2.228E-03    0   0.7207   age116_m42            0.0000     2.4646E-05     8.8996   1.7887    67.6821
 11      0.0000     0.0000E+00    0.0000E+00    2.861200E+08  0.00400  1.093E-03    0   0.6648   age125_m42            0.0000     2.3204E-05     8.2309   1.1975    70.2432
 12      2.1054     9.0995E-02    1.1562E-01    5.088000E+08  0.00400  6.597E-04    0   0.6365   age130_m42            0.0000     2.3669E-05     8.5438   1.2167    70.0983
 13      0.0000     0.0000E+00    0.0000E+00    1.434000E+09  0.00400  2.132E-04    0   0.5798   age139_m42            0.0000     1.9027E-05     8.4672   0.2058    73.4129
 14      0.0000     0.0000E+00    0.0000E+00    4.250000E+09  0.00400  5.895E-05    0   0.5377   age158_m42            0.0000     1.9801E-05     9.3763  -0.2411    71.0172
 15      0.0000     0.0000E+00    0.0000E+00    7.500000E+09  0.00400  3.510E-05    0   0.5212   age171_m42            0.0000     2.0857E-05     9.7194  -0.4446    71.0131
 16      0.0000     0.0000E+00    0.0000E+00    1.300000E+10  0.00400  2.005E-05    0   0.5034   age193_m42            0.0000     2.2683E-05    10.1519  -0.6347    71.3764
 17      2.1161     3.9564E+00    3.9228E+00    1.800000E+10  0.00400  1.525E-05    0   0.4967   age213_m42            0.0000     2.2264E-05    10.0205  -0.6460    70.7875
 18      0.0000     0.0000E+00    0.0000E+00    1.000000E+06  0.00800  1.238E-02    0   1.0000   age020_m52            0.0000     2.7217E-05    10.7220   3.0207    62.3192
 19      0.0000     0.0000E+00    0.0000E+00    3.160000E+06  0.00800  3.074E-02    0   0.9966   age045_m52            0.0000     2.7002E-05    10.6858   2.9490    62.7514
 20      0.0000     0.0000E+00    0.0000E+00    5.010000E+06  0.00800  2.668E-02    0   0.9443   age055_m52            0.0000     2.6074E-05    10.2265   2.7059    63.9111
 21      0.0000     0.0000E+00    0.0000E+00    6.610000E+06  0.00800  2.136E-02    0   0.9177   age061_m52            0.0000     2.0994E-05     8.7235   1.3821    70.4521
 22      0.0000     0.0000E+00    0.0000E+00    1.000000E+07  0.00800  1.215E-02    0   0.8827   age070_m52            0.0000     2.3184E-05     8.3209   2.0828    68.4040
 23      0.0000     0.0000E+00    0.0000E+00    1.445000E+07  0.00800  8.717E-03    0   0.8552   age078_m52            0.0000     2.3807E-05     8.7305   2.2121    67.3392
 24      0.0000     0.0000E+00    0.0000E+00    2.512000E+07  0.00800  5.592E-03    0   0.8162   age090_m52            0.0000     2.2977E-05     8.1003   1.8522    69.3112
 25      0.3591     2.6277E-03    4.1130E-03    4.000000E+07  0.00800  3.896E-03    0   0.7841   age104_m52            0.0000     2.3213E-05     8.1667   1.7827    69.2265
 26      0.1617     2.1467E-03    3.0965E-03    1.015200E+08  0.00800  2.148E-03    0   0.7226   age116_m52            0.0000     2.3550E-05     8.5779   1.7435    68.5467
 27      0.1345     3.8640E-03    5.1549E-03    2.861200E+08  0.00800  9.925E-04    0   0.6683   age125_m52            0.0000     2.2832E-05     8.5262   1.2652    71.2240
 28      0.0000     0.0000E+00    0.0000E+00    9.047900E+08  0.00800  3.141E-04    0   0.6138   age135_m52            0.0000     2.0662E-05     8.5803   0.4935    73.6557
 29      0.0022     3.6886E-04    4.3097E-04    1.434000E+09  0.00800  1.719E-04    0   0.5853   age139_m52            0.0000     1.8584E-05     8.8316  -0.1351    74.0694
 30      0.1675     6.0653E-02    6.7803E-02    2.500000E+09  0.00800  7.872E-05    0   0.5600   age150_m52            0.0000     2.0701E-05     9.6745  -0.4052    72.2020
 31      1.5559     1.0231E+00    1.1082E+00    4.250000E+09  0.00800  4.336E-05    0   0.5426   age158_m52            0.0000     2.1112E-05     9.7287  -0.4173    71.4648
 32      0.0000     0.0000E+00    0.0000E+00    6.250000E+09  0.00800  3.159E-05    0   0.5319   age166_m52            0.0000     2.3445E-05    10.2228  -0.6296    71.8599
 33      0.0000     0.0000E+00    0.0000E+00    1.300000E+10  0.00800  1.361E-05    0   0.5073   age193_m52            0.0000     2.8562E-05    10.6991  -1.0000    69.4117
 34      0.0000     0.0000E+00    0.0000E+00    1.800000E+10  0.00800  9.886E-06    0   0.4990   age213_m52            0.0000     3.3903E-05    11.1442  -1.0000    66.6299
 35      9.4249     1.7404E-02    3.4743E-02    1.000000E+06  0.02000  1.544E-02    0   1.0000   age020_m62            0.0000     2.7300E-05    10.7494   3.0170    62.5086
 36      0.8735     6.6202E-04    1.3028E-03    3.160000E+06  0.02000  3.762E-02    0   0.9858   age045_m62            0.0000     2.7131E-05    10.7475   2.9453    63.2094
 37      4.2711     3.6947E-03    6.8902E-03    5.010000E+06  0.02000  3.296E-02    0   0.9342   age055_m62            0.0000     2.6490E-05    10.2078   2.5986    64.7842
 38      9.9622     2.4614E-02    4.3538E-02    8.710000E+06  0.02000  1.154E-02    0   0.8861   age067_m62            0.0000     2.0369E-05     6.8611   1.4174    74.0541
 39      0.0000     0.0000E+00    0.0000E+00    1.445000E+07  0.02000  7.663E-03    0   0.8472   age078_m62            0.0000     2.1768E-05     7.7021   1.6924    71.0944
 40      9.1771     5.7735E-02    9.3344E-02    2.512000E+07  0.02000  4.532E-03    0   0.8099   age090_m62            0.0000     2.1729E-05     7.5574   1.6836    70.8468
 41      0.0000     0.0000E+00    0.0000E+00    5.500000E+07  0.02000  2.733E-03    0   0.7595   age110_m62            0.0000     2.2219E-05     8.1948   1.7494    69.3437
 42      0.0000     0.0000E+00    0.0000E+00    1.609000E+08  0.02000  1.369E-03    0   0.6985   age120_m62            0.0000     2.3079E-05     8.5079   1.6215    70.2320
 43      0.2287     7.2341E-03    9.6956E-03    2.861200E+08  0.02000  9.013E-04    0   0.6714   age125_m62            0.0000     2.3283E-05     8.5449   1.3835    71.8799
 44      0.0000     0.0000E+00    0.0000E+00    5.088000E+08  0.02000  5.028E-04    0   0.6449   age130_m62            0.0000     2.3395E-05     8.9642   1.0405    72.7983
 45      0.0000     0.0000E+00    0.0000E+00    9.047900E+08  0.02000  2.428E-04    0   0.6179   age135_m62            0.0000     2.0407E-05     9.0580   0.4548    72.6724
 46      0.0000     0.0000E+00    0.0000E+00    1.434000E+09  0.02000  1.263E-04    0   0.5908   age139_m62            0.0000     1.9646E-05     9.3585  -0.0199    72.7324
 47      0.0000     0.0000E+00    0.0000E+00    2.500000E+09  0.02000  5.985E-05    0   0.5673   age150_m62            0.0000     2.2018E-05    10.0732  -0.4018    72.3495
 48      0.0000     0.0000E+00    0.0000E+00    4.250000E+09  0.02000  3.271E-05    0   0.5468   age158_m62            0.0000     2.7599E-05    10.9526  -0.7302    72.7008
 49      0.5749     1.2052E+00    1.2431E+00    1.000000E+10  0.02000  1.360E-05    0   0.5167   age181_m62            0.0000     3.4854E-05    11.4626  -1.0000    70.5963
 50      0.2535     1.0147E+00    1.0154E+00    1.800000E+10  0.02000  7.124E-06    0   0.5013   age213_m62            0.0000     4.3410E-05    11.8510  -1.0000    65.1633
 51      0.5463     6.0089E-04    1.1993E-03    1.000000E+06  0.05000  2.592E-02    0   0.9998   age020_m72            0.0000     2.7220E-05    10.7656   3.0111    62.5852
 52      0.0000     0.0000E+00    0.0000E+00    3.160000E+06  0.05000  4.845E-02    0   0.9577   age045_m72            0.0000     2.7091E-05    10.6171   2.8462    63.4607
 53      0.0000     0.0000E+00    0.0000E+00    5.010000E+06  0.05000  3.072E-02    0   0.9147   age055_m72            0.0000     2.3732E-05     8.7323   2.3126    67.3770
 54      0.0000     0.0000E+00    0.0000E+00    6.610000E+06  0.05000  1.455E-02    0   0.8877   age061_m72            0.0000     2.4522E-05     7.9940   1.4389    75.2370
 55      6.9752     2.1917E-02    3.7294E-02    1.000000E+07  0.05000  9.074E-03    0   0.8524   age070_m72            0.0000     2.5211E-05     9.2813   2.5063    66.8842
 56      0.0000     0.0000E+00    0.0000E+00    2.512000E+07  0.05000  4.250E-03    0   0.7902   age090_m72            0.0000     2.4478E-05     8.5581   2.2158    67.6429
 57      7.7163     7.1269E-02    1.0838E-01    4.000000E+07  0.05000  3.087E-03    0   0.7618   age104_m72            0.0000     2.4162E-05     8.2283   1.9911    68.7064
 58      0.5923     9.9337E-03    1.4071E-02    1.015200E+08  0.05000  1.700E-03    0   0.7096   age116_m72            0.0000     2.3641E-05     8.2369   1.7604    69.8947
 59      0.0000     0.0000E+00    0.0000E+00    2.861200E+08  0.05000  7.384E-04    0   0.6633   age125_m72            0.0000     2.3112E-05     8.5807   1.2816    71.8468
 60      0.0000     0.0000E+00    0.0000E+00    5.088000E+08  0.05000  3.819E-04    0   0.6372   age130_m72            0.0000     2.1229E-05     9.0077   0.8085    72.7533
 61      0.0000     0.0000E+00    0.0000E+00    9.047900E+08  0.05000  1.676E-04    0   0.6110   age135_m72            0.0000     2.0917E-05     9.9003   0.0980    72.2568
 62      0.0000     0.0000E+00    0.0000E+00    1.434000E+09  0.05000  8.837E-05    0   0.5874   age139_m72            0.0000     2.2238E-05    10.1620  -0.3947    73.1998
 63      0.5901     3.9746E-01    4.4416E-01    2.500000E+09  0.05000  4.233E-05    0   0.5598   age150_m72            0.0000     2.8282E-05    11.0933  -0.7163    72.7874
 64      0.2776     5.5159E-01    5.7796E-01    6.250000E+09  0.05000  1.435E-05    0   0.5249   age166_m72            0.0000     3.7282E-05    11.6496  -1.0000    68.0509
 65     10.4807     4.5881E+01    4.6125E+01    1.300000E+10  0.05000  6.513E-06    0   0.5036   age193_m72            0.0000     5.4001E-05    12.5510  -1.0000    62.2514
 66      7.2371     4.5581E+01    4.4995E+01    1.800000E+10  0.05000  4.527E-06    0   0.4945   age213_m72            0.0000     6.5495E-05    13.2397  -1.0000    58.4234


## Synthesis Results - Average & Chains ##

# j      x_j: min, <> & last-chain-values for 1 ...  7 chains
  1      0.3230      2.0243      1.5255      2.1357      1.4094      2.3418      1.1886      1.5145      0.5568
  2      0.1849      0.2001      0.2069      0.7640      2.4413      0.0000      0.5001      1.0152      0.1503
  3      0.0000      0.2063      0.6920      0.0000      0.0000      0.2020      0.5157      0.0000      0.5421
  4      0.0000      0.2624      0.0000      0.0000      2.3046      0.6377      0.6275      0.9259      0.0000
  5      0.0000      0.2532      0.0000      0.5035      0.0000      0.4088      1.0290      0.0317      0.0000
  6      0.0000      0.2169      0.3119      0.0721      0.3351      0.0898      0.0000      0.0000      2.8011
  7      1.7094      0.1800      0.0427      0.0594      0.5807      0.3803      0.4330      1.0635      1.9204
  8      0.4212      0.2768      0.3273      0.0000      0.6033      0.1053      2.0894      0.3210      0.0000
  9      0.0000      0.4003      0.3448      1.3524      2.0402      0.4458      0.9165      1.5536      1.7346
 10      0.0000      0.2476      0.4558      0.6442      0.7499      0.0000      0.7640      0.0763      0.0000
 11      0.0000      0.2092      0.0952      0.0000      0.0000      0.3409      0.1320      0.0000      0.0000
 12      2.1054      0.2166      0.8166      0.0000      0.9549      0.0601      0.5514      0.0000      0.1664
 13      0.0000      0.2672      0.0000      0.2542      0.0000      0.2171      0.0000      1.8284      0.0000
 14      0.0000      0.2575      0.7102      0.0567      0.8633      0.2083      0.0000      0.4874      0.2271
 15      0.0000      0.1765      0.0789      0.0000      0.0000      0.0000      0.3404      0.0000      0.0000
 16      0.0000      0.2770      2.4046      0.0823      0.0000      0.0000      0.0988      0.4983      1.2854
 17      2.1161      0.3118      0.0000      1.0845      0.5453      0.3014      0.4795      2.0740      0.6735
 18      0.0000      1.0594      0.8851      1.0369      0.4669      1.0062      1.4184      1.1061      0.7104
 19      0.0000      0.1945      0.0969      0.8582      0.1001      0.0130      0.3963      1.3742      0.0000
 20      0.0000      0.2433      0.0503      0.6895      0.2533      0.1054      0.7000      0.8326      1.2551
 21      0.0000      2.7446      3.3779      3.2032      3.0572      2.4383      1.1165      2.9769      1.1178
 22      0.0000      0.2615      0.4126      0.3311      0.3721      0.1683      0.8060      1.7736      2.6317
 23      0.0000      0.2052      1.2046      0.5724      0.0000      0.5534      0.2180      0.0000      0.8820
 24      0.0000      0.2178      1.4052      0.0000      1.3340      0.0000      0.0000      0.0000      0.0000
 25      0.3591      0.3186      0.0000      0.6334      0.8522      0.1945      1.4025      0.5074      0.0000
 26      0.1617      0.1785      0.0000      0.0000      0.4118      0.0000      0.3298      0.0000      0.1149
 27      0.1345      0.4781      0.6109      0.7562      1.4744      0.0696      0.2514      0.2408      0.9536
 28      0.0000      0.2007      0.2371      0.0000      0.0000      0.2180      0.3899      0.8398      1.2150
 29      0.0022      0.1832      0.0000      0.0000      0.7363      0.0000      0.0000      0.3201      0.8836
 30      0.1675      0.2237      0.0000      0.0148      0.5599      0.5616      1.0847      0.0000      0.5779
 31      1.5559      0.2142      0.6665      0.1302      0.6532      0.6535      0.3737      0.0000      0.0000
 32      0.0000      0.2103      0.0939      0.0902      0.0000      0.0000      0.0000      0.0000      0.0000
 33      0.0000      0.2595      0.1034      0.3077      0.0755      0.0000      0.5434      0.1035      0.0681
 34      0.0000      0.4414      1.2223      0.0000      2.9067      0.1422      1.8550      0.9036      0.9255
 35      9.4249      1.8929      2.8604      2.0641      1.9253      2.0993      0.5049      1.9080      2.4179
 36      0.8735      0.1902      0.2181      0.0000      0.3947      0.4332      1.0344      0.5753      0.1277
 37      4.2711      0.2692      0.0959      0.2944      1.1950      0.1937      0.0933      1.4735      2.8279
 38      9.9622      0.2472      0.6205      0.0000      0.4938      0.0000      0.7180      0.6630      2.0474
 39      0.0000      0.2474      0.0000      0.0000      0.0000      0.5887      0.2953      0.6636      0.7444
 40      9.1771      0.2869      1.6649      0.0508      1.5626      0.1991      0.0942      0.7512      1.4235
 41      0.0000      0.2671      0.5748      0.5463      0.0000      0.0000      0.0000      1.2774      0.7413
 42      0.0000      2.8923      1.1328      2.6195      1.0608      2.5938      3.1068      3.8014      3.7035
 43      0.2287     14.4644     10.8196     12.8817      8.5984     15.8152     10.9978     10.5797      8.8487
 44      0.0000      1.9504      1.7188      2.1287      1.8250      2.2295      1.8742      2.7674      1.3501
 45      0.0000      0.2638      1.6380      0.1391      0.0000      0.1434      0.0000      0.0000      0.0000
 46      0.0000      0.2922      0.0000      0.5368      0.0000      0.2061      1.7961      0.0833      1.0202
