###################################################################
## OUTPUT of StarlightChains_v04.for    [Cid@UFSC - 01/Apr/2007] ##
###################################################################

## Some input info
KUG0210-078._42_45.txt                   [arq_obs]
Base.CB07.vall.4m                        [arq_base]
Masks.EmLines.NEW.gm                     [arq_masks]
StCv04.C11.config                        [arq_config]
   66                                    [N_base]
    0                                    [N_YAV_components = # of components with extra extinction!]
    0                                    [i_FitPowerLaw (1/0 = Yes/No)]
-9.99                                    [alpha_PowerLaw]
CCM                                      [red_law_option]
 1.458241                                [q_norm = A(l_norm)/A(V)]

## (Re)Sampling Parameters
 3741.00                                 [l_ini (A)]
 7218.00                                 [l_fin (A)]
    1.00                                 [dl    (A)]     (OBS: dl_cushion =    50.00 A)

## Normalization info
 4020.00                                 [l_norm (A) - for base]
 4010.00                                 [llow_norm (A) - window for f_obs]
 4060.00                                 [lupp_norm (A) - window for f_obs]
8.145094E-18                             [fobs_norm (in input units)]

## S/N
 3691.00                                 [llow_SN (A) - window for S/N]
 7268.00                                 [lupp_SN (A) - window for S/N]
   3.815                                 [S/N in S/N window]
   3.823                                 [S/N in norm. window]
   0.009                                 [S/N_err in S/N window]
   0.009                                 [S/N_err in norm. window]
  1.0000                                 [fscale_chi2]

## etc...
    -2007786                             [idum_orig]
  2366                                   [NOl_eff]
  2286                                   [Nl_eff]
    80    NSIGMA                         [Ntot_cliped & clip_method]
  5454330                                [Nglobal_steps]
   7                                     [N_chains]
   8                                     [NEX0s_base = N_base in EX0s-fits]
 0   0   1       80   2.0   3.170E+03    [Clip-Bug, RC-Crash & Burn-In warning-flags, n_censored_weights, wei_nsig_threshold & wei_limit]
    44     43.835     43.287      0.548  [idt_all, wdt_TotTime, wdt_UsrTime & wdt_SysTime (sec)]

## Synthesis Results - Best model ##

 3.88384E-05                             [chi2/Nl_eff]
    34.37640                             [adev (%)]

   101.28889                             [sum-of-x (%)]
 1.13638E-17                             [Flux_tot (units of input spectrum!)]
 4.41421E-13                             [Mini_tot (???)]
 2.23539E-13                             [Mcor_tot (???)]

-244.05                                  [v0_min  (km/s)]
  12.84                                  [vd_min  (km/s)]
 0.2384                                  [AV_min  (mag)]
 0.0000                                  [YAV_min (mag)]

# j     x_j(%)      Mini_j(%)     Mcor_j(%)     age_j(yr)     Z_j      (L/M)_j    YAV?  Mstars   component_j        a/Fe...       SSP_chi2r SSP_adev(%)   SSP_AV   SSP_x(%)
  1      0.0000     0.0000E+00    0.0000E+00    1.000000E+06  0.00400  1.094E-02    0   1.0000   age020_m42            0.0000     4.5571E-05    41.6147   3.4391    79.4081
  2      0.0000     0.0000E+00    0.0000E+00    3.160000E+06  0.00400  4.007E-02    0   0.9999   age045_m42            0.0000     4.2959E-05    40.9076   2.6726    86.0513
  3      0.0000     0.0000E+00    0.0000E+00    5.010000E+06  0.00400  2.539E-02    0   0.9488   age055_m42            0.0000     4.4625E-05    41.3684   3.0339    82.7134
  4      0.0000     0.0000E+00    0.0000E+00    6.610000E+06  0.00400  2.620E-02    0   0.9220   age061_m42            0.0000     4.3452E-05    40.8835   2.6223    85.4483
  5      0.0000     0.0000E+00    0.0000E+00    1.000000E+07  0.00400  1.322E-02    0   0.8862   age070_m42            0.0000     4.4429E-05    41.6168   2.4095    85.1453
  6      0.0000     0.0000E+00    0.0000E+00    1.445000E+07  0.00400  7.883E-03    0   0.8571   age078_m42            0.0000     4.5036E-05    41.8199   2.7361    83.0018
  7      0.0000     0.0000E+00    0.0000E+00    2.512000E+07  0.00400  5.251E-03    0   0.8174   age090_m42            0.0000     4.4279E-05    41.6667   2.2816    85.5297
  8      0.0000     0.0000E+00    0.0000E+00    4.000000E+07  0.00400  3.649E-03    0   0.7851   age104_m42            0.0000     4.3724E-05    41.1247   2.0399    86.7001
  9      0.0000     0.0000E+00    0.0000E+00    5.500000E+07  0.00400  3.098E-03    0   0.7629   age110_m42            0.0000     4.2850E-05    40.9424   2.1537    87.9813
 10      0.0000     0.0000E+00    0.0000E+00    1.015200E+08  0.00400  2.228E-03    0   0.7207   age116_m42            0.0000     4.2310E-05    40.7175   2.1500    88.8814
 11      0.0000     0.0000E+00    0.0000E+00    2.861200E+08  0.00400  1.093E-03    0   0.6648   age125_m42            0.0000     4.1971E-05    39.9199   1.6009    90.7808
 12      0.0000     0.0000E+00    0.0000E+00    5.088000E+08  0.00400  6.597E-04    0   0.6365   age130_m42            0.0000     4.0842E-05    39.2093   1.5411    93.2125
 13      0.0000     0.0000E+00    0.0000E+00    1.434000E+09  0.00400  2.132E-04    0   0.5798   age139_m42            0.0000     3.9539E-05    36.3989   0.5248    96.5003
 14      0.0000     0.0000E+00    0.0000E+00    4.250000E+09  0.00400  5.895E-05    0   0.5377   age158_m42            0.0000     4.0139E-05    32.6793   0.0652    93.3364
 15      0.0000     0.0000E+00    0.0000E+00    7.500000E+09  0.00400  3.510E-05    0   0.5212   age171_m42            0.0000     3.9789E-05    31.4062  -0.1583    93.7644
 16      6.0412     7.6581E+00    7.6126E+00    1.300000E+10  0.00400  2.005E-05    0   0.5034   age193_m42            0.0000     3.9975E-05    30.2565  -0.3348    93.5117
 17      1.3841     2.3068E+00    2.2626E+00    1.800000E+10  0.00400  1.525E-05    0   0.4967   age213_m42            0.0000     4.0155E-05    30.2759  -0.3499    92.8440
 18      0.0000     0.0000E+00    0.0000E+00    1.000000E+06  0.00800  1.238E-02    0   1.0000   age020_m52            0.0000     4.5737E-05    41.5949   3.4391    79.4353
 19      0.0000     0.0000E+00    0.0000E+00    3.160000E+06  0.00800  3.074E-02    0   0.9966   age045_m52            0.0000     4.5831E-05    41.5504   3.3651    80.0221
 20      0.0000     0.0000E+00    0.0000E+00    5.010000E+06  0.00800  2.668E-02    0   0.9443   age055_m52            0.0000     4.5331E-05    41.3542   3.1255    81.6034
 21      0.0000     0.0000E+00    0.0000E+00    6.610000E+06  0.00800  2.136E-02    0   0.9177   age061_m52            0.0000     4.4495E-05    39.6588   1.9047    86.2260
 22      0.0000     0.0000E+00    0.0000E+00    1.000000E+07  0.00800  1.215E-02    0   0.8827   age070_m52            0.0000     4.5152E-05    42.0334   2.6068    84.3487
 23      0.0000     0.0000E+00    0.0000E+00    1.445000E+07  0.00800  8.717E-03    0   0.8552   age078_m52            0.0000     4.4904E-05    41.7810   2.7036    84.1263
 24      0.0000     0.0000E+00    0.0000E+00    2.512000E+07  0.00800  5.592E-03    0   0.8162   age090_m52            0.0000     4.4256E-05    41.6449   2.3460    86.5256
 25      0.0000     0.0000E+00    0.0000E+00    4.000000E+07  0.00800  3.896E-03    0   0.7841   age104_m52            0.0000     4.3390E-05    41.1054   2.2336    88.0154
 26      0.0000     0.0000E+00    0.0000E+00    1.015200E+08  0.00800  2.148E-03    0   0.7226   age116_m52            0.0000     4.2710E-05    40.1717   2.1404    88.8038
 27      0.0000     0.0000E+00    0.0000E+00    2.861200E+08  0.00800  9.925E-04    0   0.6683   age125_m52            0.0000     4.0871E-05    39.0608   1.6023    94.1591
 28      0.0000     0.0000E+00    0.0000E+00    9.047900E+08  0.00800  3.141E-04    0   0.6138   age135_m52            0.0000     3.8634E-05    33.9987   0.7102   101.2586
 29      0.0000     0.0000E+00    0.0000E+00    1.434000E+09  0.00800  1.719E-04    0   0.5853   age139_m52            0.0000     3.8940E-05    33.6700   0.1360    98.8648
 30      0.0000     0.0000E+00    0.0000E+00    2.500000E+09  0.00800  7.872E-05    0   0.5600   age150_m52            0.0000     3.9279E-05    31.7776  -0.1680    97.3256
 31      0.0000     0.0000E+00    0.0000E+00    4.250000E+09  0.00800  4.336E-05    0   0.5426   age158_m52            0.0000     3.9493E-05    30.6700  -0.1828    96.3788
 32      0.0000     0.0000E+00    0.0000E+00    6.250000E+09  0.00800  3.159E-05    0   0.5319   age166_m52            0.0000     3.9266E-05    29.8176  -0.4226    97.4749
 33      0.0000     0.0000E+00    0.0000E+00    1.300000E+10  0.00800  1.361E-05    0   0.5073   age193_m52            0.0000     3.9260E-05    29.6751  -0.9381    98.1917
 34      0.0000     0.0000E+00    0.0000E+00    1.800000E+10  0.00800  9.886E-06    0   0.4990   age213_m52            0.0000     3.9281E-05    29.1478  -1.0000    97.2860
 35      0.0000     0.0000E+00    0.0000E+00    1.000000E+06  0.02000  1.544E-02    0   1.0000   age020_m62            0.0000     4.5986E-05    41.5761   3.4391    79.4659
 36      0.0000     0.0000E+00    0.0000E+00    3.160000E+06  0.02000  3.762E-02    0   0.9858   age045_m62            0.0000     4.6305E-05    41.6448   3.3865    79.8995
 37      0.0000     0.0000E+00    0.0000E+00    5.010000E+06  0.02000  3.296E-02    0   0.9342   age055_m62            0.0000     4.4608E-05    41.1480   2.9919    83.7404
 38      0.0000     0.0000E+00    0.0000E+00    8.710000E+06  0.02000  1.154E-02    0   0.8861   age067_m62            0.0000     4.8068E-05    44.0952   2.1715    82.8896
 39      0.0000     0.0000E+00    0.0000E+00    1.445000E+07  0.02000  7.663E-03    0   0.8472   age078_m62            0.0000     4.5596E-05    42.1050   2.2779    85.3526
 40      0.0000     0.0000E+00    0.0000E+00    2.512000E+07  0.02000  4.532E-03    0   0.8099   age090_m62            0.0000     4.5718E-05    42.4766   2.2802    84.7516
 41      0.0000     0.0000E+00    0.0000E+00    5.500000E+07  0.02000  2.733E-03    0   0.7595   age110_m62            0.0000     4.4135E-05    41.1872   2.2359    86.6873
 42      0.0000     0.0000E+00    0.0000E+00    1.609000E+08  0.02000  1.369E-03    0   0.6985   age120_m62            0.0000     4.2395E-05    40.3496   2.0139    91.0214
 43      0.0000     0.0000E+00    0.0000E+00    2.861200E+08  0.02000  9.013E-04    0   0.6714   age125_m62            0.0000     4.0715E-05    39.5686   1.7096    95.5674
 44     69.6136     3.5189E+00    4.4813E+00    5.088000E+08  0.02000  5.028E-04    0   0.6449   age130_m62            0.0000     3.8470E-05    36.9190   1.2328   101.5994
 45      0.0000     0.0000E+00    0.0000E+00    9.047900E+08  0.02000  2.428E-04    0   0.6179   age135_m62            0.0000     3.8096E-05    33.2125   0.6063   102.1848
 46      0.0000     0.0000E+00    0.0000E+00    1.434000E+09  0.02000  1.263E-04    0   0.5908   age139_m62            0.0000     3.8529E-05    31.5788   0.1590   100.6872
 47      0.0000     0.0000E+00    0.0000E+00    2.500000E+09  0.02000  5.985E-05    0   0.5673   age150_m62            0.0000     3.9080E-05    30.5034  -0.2343   100.0232
 48      0.0000     0.0000E+00    0.0000E+00    4.250000E+09  0.02000  3.271E-05    0   0.5468   age158_m62            0.0000     3.9504E-05    30.2227  -0.5728   100.0294
 49      0.0000     0.0000E+00    0.0000E+00    1.000000E+10  0.02000  1.360E-05    0   0.5167   age181_m62            0.0000     3.9414E-05    30.1962  -1.0000   101.9805
 50     24.2500     8.6516E+01    8.5644E+01    1.800000E+10  0.02000  7.124E-06    0   0.5013   age213_m62            0.0000     3.9970E-05    29.5540  -1.0000    97.5881
 51      0.0000     0.0000E+00    0.0000E+00    1.000000E+06  0.05000  2.592E-02    0   0.9998   age020_m72            0.0000     4.6397E-05    41.5564   3.4427    79.1790
 52      0.0000     0.0000E+00    0.0000E+00    3.160000E+06  0.05000  4.845E-02    0   0.9577   age045_m72            0.0000     4.5804E-05    41.5057   3.2662    81.0639
 53      0.0000     0.0000E+00    0.0000E+00    5.010000E+06  0.05000  3.072E-02    0   0.9147   age055_m72            0.0000     4.6167E-05    41.9892   2.8411    82.7397
 54      0.0000     0.0000E+00    0.0000E+00    6.610000E+06  0.05000  1.455E-02    0   0.8877   age061_m72            0.0000     4.9478E-05    45.4835   2.2277    82.5131
 55      0.0000     0.0000E+00    0.0000E+00    1.000000E+07  0.05000  9.074E-03    0   0.8524   age070_m72            0.0000     4.6214E-05    42.5729   3.0051    82.6975
 56      0.0000     0.0000E+00    0.0000E+00    2.512000E+07  0.05000  4.250E-03    0   0.7902   age090_m72            0.0000     4.5067E-05    42.1976   2.7073    84.4740
 57      0.0000     0.0000E+00    0.0000E+00    4.000000E+07  0.05000  3.087E-03    0   0.7618   age104_m72            0.0000     4.4733E-05    42.2183   2.4834    85.7527
 58      0.0000     0.0000E+00    0.0000E+00    1.015200E+08  0.05000  1.700E-03    0   0.7096   age116_m72            0.0000     4.2819E-05    40.8065   2.1751    89.9692
 59      0.0000     0.0000E+00    0.0000E+00    2.861200E+08  0.05000  7.384E-04    0   0.6633   age125_m72            0.0000     3.9437E-05    38.2570   1.5168    98.9268
 60      0.0000     0.0000E+00    0.0000E+00    5.088000E+08  0.05000  3.819E-04    0   0.6372   age130_m72            0.0000     3.8190E-05    35.0657   0.9533   103.0367
 61      0.0000     0.0000E+00    0.0000E+00    9.047900E+08  0.05000  1.676E-04    0   0.6110   age135_m72            0.0000     3.8646E-05    31.3727   0.2128   102.5297
 62      0.0000     0.0000E+00    0.0000E+00    1.434000E+09  0.05000  8.837E-05    0   0.5874   age139_m72            0.0000     3.9104E-05    29.8525  -0.2473   101.8772
 63      0.0000     0.0000E+00    0.0000E+00    2.500000E+09  0.05000  4.233E-05    0   0.5598   age150_m72            0.0000     3.9524E-05    30.0220  -0.6018   101.7289
 64      0.0000     0.0000E+00    0.0000E+00    6.250000E+09  0.05000  1.435E-05    0   0.5249   age166_m72            0.0000     3.9731E-05    30.0417  -1.0000    99.8160
 65      0.0000     0.0000E+00    0.0000E+00    1.300000E+10  0.05000  6.513E-06    0   0.5036   age193_m72            0.0000     4.1598E-05    30.6110  -1.0000    94.9717
 66      0.0000     0.0000E+00    0.0000E+00    1.800000E+10  0.05000  4.527E-06    0   0.4945   age213_m72            0.0000     4.3081E-05    32.4218  -1.0000    91.2645


## Synthesis Results - Average & Chains ##

# j      x_j: min, <> & last-chain-values for 1 ...  7 chains
  1      0.0000      0.3264      0.0738      0.1430      0.0386      0.2005      0.2111      0.3429      0.0830
  2      0.0000      0.2945      0.0253      0.0623      0.0887      0.1491      0.0802      0.0176      0.0121
  3      0.0000      0.3187      0.0251      0.0000      0.0000      0.0000      0.0097      0.1341      0.0000
  4      0.0000      0.2176      0.0000      0.0000      0.0816      0.1243      0.0002      0.0302      0.0628
  5      0.0000      0.3376      0.0497      0.0000      0.0295      0.0195      0.0000      0.0714      0.0000
  6      0.0000      0.2420      0.0000      0.0526      0.0000      0.0084      0.0083      0.1324      0.0000
  7      0.0000      0.3506      0.0431      0.0687      0.0000      0.0393      0.0787      0.0000      0.0363
  8      0.0000      0.2666      0.0250      0.0008      0.0970      0.0000      0.0794      0.1352      0.0000
  9      0.0000      0.2919      0.0206      0.0000      0.0725      0.0170      0.0527      0.0000      0.0000
 10      0.0000      0.3911      0.0000      0.0000      0.0967      0.0000      0.0388      0.0000      0.0546
 11      0.0000      0.2533      0.0000      0.0551      0.0000      0.0492      0.0077      0.0634      0.0054
 12      0.0000      0.2178      0.0264      0.0881      0.0679      0.0356      0.0453      0.0000      0.0964
 13      0.0000     29.0740     31.7801     32.2114     31.8835     33.6325     31.9275     32.5443     27.1469
 14      0.0000      0.2056      0.0421      0.0390      0.1581      0.0163      0.1327      0.0002      0.0365
 15      0.0000     53.4649     64.2188     59.2001     60.1705     62.9212     61.5880     58.8875     67.0909
 16      6.0412     26.3905     30.5130     32.6721     30.6509     27.7232     30.3384     30.0249     30.7140
 17      1.3841      0.9504      0.8061      0.9190      1.4867      0.8098      1.2250      1.0918      0.3367
 18      0.0000      0.3033      0.0260      0.0000      0.1711      0.0369      0.0000      0.1143      0.0206
 19      0.0000      0.3664      0.0168      0.0648      0.0000      0.0922      0.0342      0.0329      0.0000
 20      0.0000      0.2977      0.0030      0.0450      0.0000      0.0464      0.0000      0.0000      0.0491
 21      0.0000      0.3499      0.0342      0.0000      0.1150      0.0000      0.0093      0.1922      0.0000
 22      0.0000      0.3009      0.0305      0.0000      0.0338      0.0685      0.0133      0.3623      0.0000
 23      0.0000      0.2863      0.0161      0.0000      0.0010      0.0000      0.0227      0.0030      0.0259
 24      0.0000      0.3486      0.0323      0.1163      0.0009      0.0161      0.0053      0.0181      0.0000
 25      0.0000      0.2138      0.0000      0.0672      0.0723      0.0016      0.0191      0.0000      0.0000
 26      0.0000      0.3514      0.0000      0.0000      0.0000      0.0714      0.0533      0.0671      0.0325
 27      0.0000      0.3307      0.0000      0.0320      0.0353      0.0240      0.0033      0.0000      0.0708
 28      0.0000      0.2463      0.0000      0.0729      0.0777      0.0076      0.0000      0.0000      0.0000
 29      0.0000      0.2586      0.0163      0.0884      0.0000      0.0514      0.0000      0.0000      0.0796
 30      0.0000      0.3116      0.0358      0.1312      0.0526      0.0710      0.0217      0.0000      0.0362
 31      0.0000      0.2618      0.0000      0.0808      0.0293      0.1079      0.0424      0.1978      0.0054
 32      0.0000      0.3256      0.1599      0.1285      0.1098      0.2074      0.2019      0.3547      0.1499
 33      0.0000      0.2879      0.0033      0.0437      0.0000      0.0000      0.0185      0.0302      0.0000
 34      0.0000      0.3762      0.0621      0.0000      0.1211      0.0908      0.0000      0.0264      0.1390
 35      0.0000      0.2810      0.0039      0.0000      0.0851      0.0022      0.0403      0.0080      0.0000
 36      0.0000      0.2252      0.0000      0.0444      0.0947      0.0071      0.0164      0.0508      0.0085
 37      0.0000      0.2979      0.0034      0.0702      0.0404      0.1852      0.0000      0.0000      0.0628
 38      0.0000      0.2165      0.0000      0.0314      0.0023      0.0273      0.0438      0.1284      0.0840
 39      0.0000      0.3004      0.0079      0.0000      0.0002      0.0135      0.0000      0.0853      0.0000
 40      0.0000      0.4117      0.0000      0.0000      0.0499      0.0810      0.0309      0.0609      0.0060
 41      0.0000      0.3218      0.0000      0.2081      0.0000      0.0119      0.0143      0.0000      0.0000
 42      0.0000      0.2004      0.0027      0.0102      0.1291      0.0000      0.0280      0.0150      0.0006
 43      0.0000      0.2837      0.0311      0.1093      0.0730      0.0889      0.0296      0.0000      0.0000
 44     69.6136      2.1078      1.5956      2.2229      2.5888      2.2690      2.9297      2.2363      3.1072
 45      0.0000      0.2364      0.0084      0.0132      0.1549      0.0548      0.0123      0.0062      0.0000
 46      0.0000      0.3209      0.0000      0.0000      0.0354      0.0000      0.0227      0.1084      0.0780
