###################################################################
## OUTPUT of StarlightChains_v04.for    [Cid@UFSC - 01/Apr/2007] ##
###################################################################

## Some input info
KUG0210-078._30_36.txt                   [arq_obs]
Base.CB07.vall.4m                        [arq_base]
Masks.EmLines.NEW.gm                     [arq_masks]
StCv04.C11.config                        [arq_config]
   66                                    [N_base]
    0                                    [N_YAV_components = # of components with extra extinction!]
    0                                    [i_FitPowerLaw (1/0 = Yes/No)]
-9.99                                    [alpha_PowerLaw]
CCM                                      [red_law_option]
 1.458241                                [q_norm = A(l_norm)/A(V)]

## (Re)Sampling Parameters
 3741.00                                 [l_ini (A)]
 7218.00                                 [l_fin (A)]
    1.00                                 [dl    (A)]     (OBS: dl_cushion =    50.00 A)

## Normalization info
 4020.00                                 [l_norm (A) - for base]
 4010.00                                 [llow_norm (A) - window for f_obs]
 4060.00                                 [lupp_norm (A) - window for f_obs]
1.294646E-16                             [fobs_norm (in input units)]

## S/N
 3691.00                                 [llow_SN (A) - window for S/N]
 7268.00                                 [lupp_SN (A) - window for S/N]
   5.713                                 [S/N in S/N window]
   5.627                                 [S/N in norm. window]
   0.235                                 [S/N_err in S/N window]
   0.231                                 [S/N_err in norm. window]
  1.0000                                 [fscale_chi2]

## etc...
    -2007437                             [idum_orig]
  2432                                   [NOl_eff]
  2404                                   [Nl_eff]
    28    NSIGMA                         [Ntot_cliped & clip_method]
 10793160                                [Nglobal_steps]
   7                                     [N_chains]
  31                                     [NEX0s_base = N_base in EX0s-fits]
 0   0   1       28   2.0   2.866E+04    [Clip-Bug, RC-Crash & Burn-In warning-flags, n_censored_weights, wei_nsig_threshold & wei_limit]
    89     88.360     87.433      0.926  [idt_all, wdt_TotTime, wdt_UsrTime & wdt_SysTime (sec)]

## Synthesis Results - Best model ##

 9.72199E-04                             [chi2/Nl_eff]
     7.47996                             [adev (%)]

   118.71688                             [sum-of-x (%)]
 6.61808E-17                             [Flux_tot (units of input spectrum!)]
 2.59122E-12                             [Mini_tot (???)]
 1.35877E-12                             [Mcor_tot (???)]

 264.70                                  [v0_min  (km/s)]
 123.65                                  [vd_min  (km/s)]
-0.6274                                  [AV_min  (mag)]
 0.0000                                  [YAV_min (mag)]

# j     x_j(%)      Mini_j(%)     Mcor_j(%)     age_j(yr)     Z_j      (L/M)_j    YAV?  Mstars   component_j        a/Fe...       SSP_chi2r SSP_adev(%)   SSP_AV   SSP_x(%)
  1      0.0000     0.0000E+00    0.0000E+00    1.000000E+06  0.00400  1.094E-02    0   1.0000   age020_m42            0.0000     2.3954E-03    12.6833   3.2136    90.2307
  2      0.0000     0.0000E+00    0.0000E+00    3.160000E+06  0.00400  4.007E-02    0   0.9999   age045_m42            0.0000     1.8105E-03    11.1799   2.4213    99.1082
  3      0.0000     0.0000E+00    0.0000E+00    5.010000E+06  0.00400  2.539E-02    0   0.9488   age055_m42            0.0000     2.0834E-03    11.9417   2.7753    95.3410
  4      0.0000     0.0000E+00    0.0000E+00    6.610000E+06  0.00400  2.620E-02    0   0.9220   age061_m42            0.0000     1.8729E-03    11.4525   2.3533    99.1339
  5      0.0000     0.0000E+00    0.0000E+00    1.000000E+07  0.00400  1.322E-02    0   0.8862   age070_m42            0.0000     2.2831E-03    13.5549   2.1258    99.2839
  6      0.0000     0.0000E+00    0.0000E+00    1.445000E+07  0.00400  7.883E-03    0   0.8571   age078_m42            0.0000     2.3821E-03    13.6272   2.4648    96.2197
  7      0.0000     0.0000E+00    0.0000E+00    2.512000E+07  0.00400  5.251E-03    0   0.8174   age090_m42            0.0000     2.3248E-03    13.8946   2.0007    99.7090
  8      0.0000     0.0000E+00    0.0000E+00    4.000000E+07  0.00400  3.649E-03    0   0.7851   age104_m42            0.0000     2.1897E-03    13.4948   1.7576   101.2045
  9      0.0000     0.0000E+00    0.0000E+00    5.500000E+07  0.00400  3.098E-03    0   0.7629   age110_m42            0.0000     1.9540E-03    12.3518   1.8736   102.6305
 10      0.0000     0.0000E+00    0.0000E+00    1.015200E+08  0.00400  2.228E-03    0   0.7207   age116_m42            0.0000     1.8354E-03    11.6554   1.8668   103.8560
 11      1.9797     3.8966E-02    4.9401E-02    2.861200E+08  0.00400  1.093E-03    0   0.6648   age125_m42            0.0000     1.9006E-03    12.1346   1.2940   107.1110
 12      5.7901     1.8882E-01    2.2920E-01    5.088000E+08  0.00400  6.597E-04    0   0.6365   age130_m42            0.0000     1.7144E-03    11.0731   1.2424   109.7343
 13      0.0000     0.0000E+00    0.0000E+00    1.434000E+09  0.00400  2.132E-04    0   0.5798   age139_m42            0.0000     1.3746E-03    10.4114   0.2481   113.0879
 14      2.9250     1.0675E+00    1.0946E+00    4.250000E+09  0.00400  5.895E-05    0   0.5377   age158_m42            0.0000     1.1984E-03     9.3361  -0.1951   108.7081
 15      0.7821     4.7935E-01    4.7645E-01    7.500000E+09  0.00400  3.510E-05    0   0.5212   age171_m42            0.0000     1.1711E-03     8.8442  -0.4001   108.6043
 16      0.0000     0.0000E+00    0.0000E+00    1.300000E+10  0.00400  2.005E-05    0   0.5034   age193_m42            0.0000     1.1992E-03     8.4989  -0.5778   108.4432
 17      0.0000     0.0000E+00    0.0000E+00    1.800000E+10  0.00400  1.525E-05    0   0.4967   age213_m42            0.0000     1.2123E-03     8.6374  -0.5932   107.6780
 18      0.0000     0.0000E+00    0.0000E+00    1.000000E+06  0.00800  1.238E-02    0   1.0000   age020_m52            0.0000     2.3889E-03    12.6577   3.2077    90.4798
 19      0.4356     3.0487E-04    5.7942E-04    3.160000E+06  0.00800  3.074E-02    0   0.9966   age045_m52            0.0000     2.3423E-03    12.5341   3.1285    91.4202
 20      0.0000     0.0000E+00    0.0000E+00    5.010000E+06  0.00800  2.668E-02    0   0.9443   age055_m52            0.0000     2.1900E-03    12.2697   2.8713    93.9963
 21      1.1416     1.1498E-03    2.0123E-03    6.610000E+06  0.00800  2.136E-02    0   0.9177   age061_m52            0.0000     2.2190E-03    13.4693   1.6329   100.2205
 22      0.0000     0.0000E+00    0.0000E+00    1.000000E+07  0.00800  1.215E-02    0   0.8827   age070_m52            0.0000     2.4984E-03    14.3252   2.3282    98.1196
 23      0.0000     0.0000E+00    0.0000E+00    1.445000E+07  0.00800  8.717E-03    0   0.8552   age078_m52            0.0000     2.3468E-03    13.6223   2.4264    97.7292
 24      0.0000     0.0000E+00    0.0000E+00    2.512000E+07  0.00800  5.592E-03    0   0.8162   age090_m52            0.0000     2.3288E-03    13.9826   2.0628   100.9506
 25      0.0000     0.0000E+00    0.0000E+00    4.000000E+07  0.00800  3.896E-03    0   0.7841   age104_m52            0.0000     2.1358E-03    13.3155   1.9504   102.6997
 26      0.0000     0.0000E+00    0.0000E+00    1.015200E+08  0.00800  2.148E-03    0   0.7226   age116_m52            0.0000     1.8909E-03    12.1851   1.8513   104.0081
 27      0.0000     0.0000E+00    0.0000E+00    2.861200E+08  0.00800  9.925E-04    0   0.6683   age125_m52            0.0000     1.7204E-03    11.2364   1.3068   110.7740
 28      0.0000     0.0000E+00    0.0000E+00    9.047900E+08  0.00800  3.141E-04    0   0.6138   age135_m52            0.0000     1.3375E-03     9.7016   0.4449   118.1846
 29      1.5392     1.9263E-01    2.1501E-01    1.434000E+09  0.00800  1.719E-04    0   0.5853   age139_m52            0.0000     1.1870E-03     9.4951  -0.1203   115.1122
 30      0.0000     0.0000E+00    0.0000E+00    2.500000E+09  0.00800  7.872E-05    0   0.5600   age150_m52            0.0000     1.0693E-03     8.3669  -0.4135   113.0005
 31      0.0000     0.0000E+00    0.0000E+00    4.250000E+09  0.00800  4.336E-05    0   0.5426   age158_m52            0.0000     1.1077E-03     8.3819  -0.4222   111.6472
 32      0.0000     0.0000E+00    0.0000E+00    6.250000E+09  0.00800  3.159E-05    0   0.5319   age166_m52            0.0000     1.0944E-03     7.7414  -0.6556   112.8510
 33      0.0000     0.0000E+00    0.0000E+00    1.300000E+10  0.00800  1.361E-05    0   0.5073   age193_m52            0.0000     1.2661E-03     9.6887  -1.0000   109.4196
 34      0.0000     0.0000E+00    0.0000E+00    1.800000E+10  0.00800  9.886E-06    0   0.4990   age213_m52            0.0000     1.5701E-03    11.6793  -1.0000   106.2368
 35      0.0000     0.0000E+00    0.0000E+00    1.000000E+06  0.02000  1.544E-02    0   1.0000   age020_m62            0.0000     2.4114E-03    12.7078   3.2059    90.6235
 36      0.0000     0.0000E+00    0.0000E+00    3.160000E+06  0.02000  3.762E-02    0   0.9858   age045_m62            0.0000     2.4332E-03    12.6396   3.1456    91.3907
 37      0.0000     0.0000E+00    0.0000E+00    5.010000E+06  0.02000  3.296E-02    0   0.9342   age055_m62            0.0000     1.9700E-03    11.5300   2.7178    97.2019
 38      0.0436     8.1251E-05    1.3730E-04    8.710000E+06  0.02000  1.154E-02    0   0.8861   age067_m62            0.0000     3.8475E-03    19.0264   1.8846    96.7457
 39      0.0000     0.0000E+00    0.0000E+00    1.445000E+07  0.02000  7.663E-03    0   0.8472   age078_m62            0.0000     2.7972E-03    15.5787   2.0029    99.2635
 40      0.0000     0.0000E+00    0.0000E+00    2.512000E+07  0.02000  4.532E-03    0   0.8099   age090_m62            0.0000     2.8289E-03    15.7526   1.9933    99.0196
 41      0.0000     0.0000E+00    0.0000E+00    5.500000E+07  0.02000  2.733E-03    0   0.7595   age110_m62            0.0000     2.1930E-03    13.4435   1.9408   101.6295
 42      0.0000     0.0000E+00    0.0000E+00    1.609000E+08  0.02000  1.369E-03    0   0.6985   age120_m62            0.0000     1.8802E-03    11.9395   1.7088   107.3612
 43      2.8224     6.7369E-02    8.6258E-02    2.861200E+08  0.02000  9.013E-04    0   0.6714   age125_m62            0.0000     1.7888E-03    11.2379   1.4101   112.5637
 44      0.0000     0.0000E+00    0.0000E+00    5.088000E+08  0.02000  5.028E-04    0   0.6449   age130_m62            0.0000     1.4996E-03     9.6298   0.9669   118.3763
 45      0.0000     0.0000E+00    0.0000E+00    9.047900E+08  0.02000  2.428E-04    0   0.6179   age135_m62            0.0000     1.1505E-03     8.7748   0.3735   117.9415
 46      0.0000     0.0000E+00    0.0000E+00    1.434000E+09  0.02000  1.263E-04    0   0.5908   age139_m62            0.0000     1.0853E-03     8.5717  -0.0650   115.9367
 47      0.0000     0.0000E+00    0.0000E+00    2.500000E+09  0.02000  5.985E-05    0   0.5673   age150_m62            0.0000     1.0566E-03     7.7252  -0.4578   115.3565
 48      0.0000     0.0000E+00    0.0000E+00    4.250000E+09  0.02000  3.271E-05    0   0.5468   age158_m62            0.0000     1.0868E-03     6.9614  -0.8123   116.3351
 49      0.0000     0.0000E+00    0.0000E+00    1.000000E+10  0.02000  1.360E-05    0   0.5167   age181_m62            0.0000     1.4385E-03     9.7759  -1.0000   112.2024
 50      1.0677     3.2242E+00    3.0823E+00    1.800000E+10  0.02000  7.124E-06    0   0.5013   age213_m62            0.0000     2.2470E-03    13.9749  -1.0000   105.5133
 51      0.0000     0.0000E+00    0.0000E+00    1.000000E+06  0.05000  2.592E-02    0   0.9998   age020_m72            0.0000     2.4744E-03    12.9148   3.2030    90.4774
 52      0.0000     0.0000E+00    0.0000E+00    3.160000E+06  0.05000  4.845E-02    0   0.9577   age045_m72            0.0000     2.2192E-03    12.0781   3.0074    93.3921
 53      0.0000     0.0000E+00    0.0000E+00    5.010000E+06  0.05000  3.072E-02    0   0.9147   age055_m72            0.0000     2.6639E-03    14.2937   2.5721    95.8220
 54      0.0000     0.0000E+00    0.0000E+00    6.610000E+06  0.05000  1.455E-02    0   0.8877   age061_m72            0.0000     4.6417E-03    20.8004   1.9504    96.1358
 55      0.0000     0.0000E+00    0.0000E+00    1.000000E+07  0.05000  9.074E-03    0   0.8524   age070_m72            0.0000     2.7447E-03    14.0695   2.7429    95.6194
 56      0.0000     0.0000E+00    0.0000E+00    2.512000E+07  0.05000  4.250E-03    0   0.7902   age090_m72            0.0000     2.4681E-03    13.8698   2.4236    98.5063
 57      0.0000     0.0000E+00    0.0000E+00    4.000000E+07  0.05000  3.087E-03    0   0.7618   age104_m72            0.0000     2.4609E-03    14.0531   2.1893   100.4995
 58      0.0000     0.0000E+00    0.0000E+00    1.015200E+08  0.05000  1.700E-03    0   0.7096   age116_m72            0.0000     2.0145E-03    12.5942   1.8700   106.0936
 59      0.0000     0.0000E+00    0.0000E+00    2.861200E+08  0.05000  7.384E-04    0   0.6633   age125_m72            0.0000     1.6081E-03    10.3937   1.2396   115.7577
 60      3.1904     1.7973E-01    2.1840E-01    5.088000E+08  0.05000  3.819E-04    0   0.6372   age130_m72            0.0000     1.2314E-03     8.9451   0.7080   119.3666
 61     48.1207     6.1769E+00    7.1974E+00    9.047900E+08  0.05000  1.676E-04    0   0.6110   age135_m72            0.0000     9.8048E-04     7.6067  -0.0170   118.3656
 62      0.0000     0.0000E+00    0.0000E+00    1.434000E+09  0.05000  8.837E-05    0   0.5874   age139_m72            0.0000     1.0504E-03     7.6504  -0.4783   117.9166
 63      0.0000     0.0000E+00    0.0000E+00    2.500000E+09  0.05000  4.233E-05    0   0.5598   age150_m72            0.0000     1.0945E-03     6.8060  -0.8340   118.1954
 64     40.5069     6.0729E+01    6.0789E+01    6.250000E+09  0.05000  1.435E-05    0   0.5249   age166_m72            0.0000     1.6462E-03    11.6329  -1.0000   109.1228
 65      8.3720     2.7654E+01    2.6559E+01    1.300000E+10  0.05000  6.513E-06    0   0.5036   age193_m72            0.0000     3.0887E-03    17.3881  -1.0000   101.8180
 66      0.0000     0.0000E+00    0.0000E+00    1.800000E+10  0.05000  4.527E-06    0   0.4945   age213_m72            0.0000     4.2228E-03    20.6251  -1.0000    96.5322


## Synthesis Results - Average & Chains ##

# j      x_j: min, <> & last-chain-values for 1 ...  7 chains
  1      0.0000      0.1483      0.0528      0.2327      0.5699      0.0000      0.5249      0.4190      0.0569
  2      0.0000      0.1746      0.1831      0.7758      0.0000      0.0000      0.0000      0.3200      0.0000
  3      0.0000      0.1303      0.0000      0.0918      0.0000      0.0372      0.0000      0.5295      0.0286
  4      0.0000      0.2034      0.2392      0.3249      0.0000      0.1039      0.7465      1.1078      0.0000
  5      0.0000      0.1704      0.0016      0.0000      0.1196      1.5709      0.8648      0.8335      0.0000
  6      0.0000      0.1783      0.3333      0.2290      0.0000      0.3085      0.3474      0.0383      0.1623
  7      0.0000      0.1824      0.0367      0.0000      0.0000      0.3707      0.2058      0.0000      0.3513
  8      0.0000      0.1573      0.1018      0.0000      0.3222      0.0000      0.3228      0.0000      0.2979
  9      0.0000      0.1660      0.0000      0.3636      0.0825      0.2220      0.0000      0.1859      0.2230
 10      0.0000      0.1565      0.0423      0.0000      0.6999      0.0727      0.4216      0.6728      0.0000
 11      1.9797      0.1624      0.0000      0.8949      0.0000      0.3802      1.1104      0.6806      0.0604
 12      5.7901      0.1812      0.0729      0.4938      0.3604      0.6900      0.0000      0.0000      0.0219
 13      0.0000      0.1610      0.0532      1.3758      0.0000      0.0000      0.9751      0.0579      0.0000
 14      2.9250      0.1371      0.2245      0.1832      0.2108      1.0176      0.4851      0.0000      0.1230
 15      0.7821      0.2016      0.3342      0.0257      0.2332      0.4760      1.7165      0.0000      0.1820
 16      0.0000      0.1473      0.0000      0.7056      0.1214      0.0000      0.6074      0.0000      0.3762
 17      0.0000      0.2568      0.1761      0.5826      0.2733      0.3235      0.5215      1.9564      0.2425
 18      0.0000      0.2025      0.0000      0.3455      0.5124      0.0000      0.0000      0.0000      0.5180
 19      0.4356      0.3113      0.6423      0.8101      0.0513      0.3401      2.1491      1.5047      0.6145
 20      0.0000      0.1966      0.2199      0.8021      0.4502      0.0000      0.0578      0.0000      0.0000
 21      1.1416      0.1879      0.4703      0.2285      0.9478      0.5048      0.0000      0.5190      0.0000
 22      0.0000      0.1988      0.0000      0.0294      0.1276      0.0000      0.0000      1.0910      0.0683
 23      0.0000      0.1396      0.1700      0.6351      0.8882      0.2813      0.0000      0.6653      0.0091
 24      0.0000      0.1429      0.0669      0.0000      0.0929      0.2066      0.0000      0.6074      0.4650
 25      0.0000      0.1756      0.0113      0.0548      0.1566      0.2997      0.1874      0.2807      0.0000
 26      0.0000      0.2621      0.0000      0.4227      0.0000      0.2696      1.5730      0.0000      0.0000
 27      0.0000      0.1896      0.2264      0.3234      0.4648      0.2412      0.6741      0.0000      0.3634
 28      0.0000      0.1533      0.5673      0.5171      0.0000      0.1231      0.4639      0.1948      0.3219
 29      1.5392      0.2130      0.3326      4.1087      0.0000      1.4268      0.0000      0.7631      0.4324
 30      0.0000      0.2407      0.0408      0.9920      0.2029      0.5028      0.0000      0.1031      0.5896
 31      0.0000      0.2376      0.0574      0.0000      0.8497      0.0838      0.4829      0.6936      0.1505
 32      0.0000      0.1537      0.1184      0.0398      0.1835      0.4406      0.3529      0.1433      0.0000
 33      0.0000      0.2082      0.0352      0.0000      0.3765      0.1614      0.5250      0.0909      0.0000
 34      0.0000      0.1401      0.1207      0.7559      0.1513      0.0153      0.0002      0.0000      0.0000
 35      0.0000      0.1847      0.0777      0.0000      0.0000      0.0000      0.0000      0.0000      0.0000
 36      0.0000      0.1763      0.1170      0.6502      0.0000      0.1099      0.3180      0.0000      0.3574
 37      0.0000      0.2059      0.0000      1.7145      0.2961      0.0198      1.1603      0.0000      0.2212
 38      0.0436      0.1544      0.0000      0.4570      0.0229      0.4473      0.0916      1.0983      0.6325
 39      0.0000      0.1988      0.5554      0.0000      0.5585      0.0592      0.7071      0.0000      0.0682
 40      0.0000      0.1674      0.0000      0.0000      0.8754      0.3747      0.6753      0.6153      0.0973
 41      0.0000      0.2022      0.2414      1.3415      0.1543      0.0373      0.0000      2.4608      0.0597
 42      0.0000      0.1773      0.0193      0.7086      0.2588      0.0000      0.4182      0.0090      0.3119
 43      2.8224      0.1620      0.1272      0.0000      0.0899      0.4832      0.8573      0.0000      0.0000
 44      0.0000      0.1596      0.1335      0.0000      0.5834      0.0000      0.0837      0.0000      0.3050
 45      0.0000      0.2001      0.0365      0.5668      0.1284      0.5859      0.0000      0.6836      0.0000
 46      0.0000      0.1490      0.0000      0.0791      0.3176      0.5145      0.8199      0.1371      0.0000
