###################################################################
## OUTPUT of StarlightChains_v04.for    [Cid@UFSC - 01/Apr/2007] ##
###################################################################

## Some input info
KUG0210-078._36_51.txt                   [arq_obs]
Base.CB07.vall.4m                        [arq_base]
Masks.EmLines.NEW.gm                     [arq_masks]
StCv04.C11.config                        [arq_config]
   66                                    [N_base]
    0                                    [N_YAV_components = # of components with extra extinction!]
    0                                    [i_FitPowerLaw (1/0 = Yes/No)]
-9.99                                    [alpha_PowerLaw]
CCM                                      [red_law_option]
 1.458241                                [q_norm = A(l_norm)/A(V)]

## (Re)Sampling Parameters
 3741.00                                 [l_ini (A)]
 7218.00                                 [l_fin (A)]
    1.00                                 [dl    (A)]     (OBS: dl_cushion =    50.00 A)

## Normalization info
 4020.00                                 [l_norm (A) - for base]
 4010.00                                 [llow_norm (A) - window for f_obs]
 4060.00                                 [lupp_norm (A) - window for f_obs]
6.133467E-18                             [fobs_norm (in input units)]

## S/N
 3691.00                                 [llow_SN (A) - window for S/N]
 7268.00                                 [lupp_SN (A) - window for S/N]
   2.602                                 [S/N in S/N window]
   2.730                                 [S/N in norm. window]
   0.008                                 [S/N_err in S/N window]
   0.008                                 [S/N_err in norm. window]
  1.0000                                 [fscale_chi2]

## etc...
    -2007614                             [idum_orig]
  2366                                   [NOl_eff]
  2063                                   [Nl_eff]
   303    NSIGMA                         [Ntot_cliped & clip_method]
  5491360                                [Nglobal_steps]
   7                                     [N_chains]
   7                                     [NEX0s_base = N_base in EX0s-fits]
 0   0   1      303   2.0   4.809E+03    [Clip-Bug, RC-Crash & Burn-In warning-flags, n_censored_weights, wei_nsig_threshold & wei_limit]
    81     79.646     78.513      1.133  [idt_all, wdt_TotTime, wdt_UsrTime & wdt_SysTime (sec)]

## Synthesis Results - Best model ##

 1.27735E-05                             [chi2/Nl_eff]
    28.14317                             [adev (%)]

   129.99998                             [sum-of-x (%)]
 2.08139E-18                             [Flux_tot (units of input spectrum!)]
 1.82641E-13                             [Mini_tot (???)]
 9.20597E-14                             [Mcor_tot (???)]

 334.14                                  [v0_min  (km/s)]
   0.51                                  [vd_min  (km/s)]
-1.0000                                  [AV_min  (mag)]
 0.0000                                  [YAV_min (mag)]

# j     x_j(%)      Mini_j(%)     Mcor_j(%)     age_j(yr)     Z_j      (L/M)_j    YAV?  Mstars   component_j        a/Fe...       SSP_chi2r SSP_adev(%)   SSP_AV   SSP_x(%)
  1      0.0000     0.0000E+00    0.0000E+00    1.000000E+06  0.00400  1.094E-02    0   1.0000   age020_m42            0.0000     1.3531E-05    26.4198   1.7827   155.3723
  2      0.0000     0.0000E+00    0.0000E+00    3.160000E+06  0.00400  4.007E-02    0   0.9999   age045_m42            0.0000     1.3558E-05    26.4342   1.1492   160.0307
  3      0.0000     0.0000E+00    0.0000E+00    5.010000E+06  0.00400  2.539E-02    0   0.9488   age055_m42            0.0000     1.3597E-05    26.4231   1.4251   159.0139
  4      0.0000     0.0000E+00    0.0000E+00    6.610000E+06  0.00400  2.620E-02    0   0.9220   age061_m42            0.0000     1.3457E-05    26.2941   1.0815   159.9038
  5      0.0000     0.0000E+00    0.0000E+00    1.000000E+07  0.00400  1.322E-02    0   0.8862   age070_m42            0.0000     1.3175E-05    26.0798   0.8020   163.6425
  6      0.0000     0.0000E+00    0.0000E+00    1.445000E+07  0.00400  7.883E-03    0   0.8571   age078_m42            0.0000     1.3288E-05    26.2076   1.1026   161.3648
  7      0.0000     0.0000E+00    0.0000E+00    2.512000E+07  0.00400  5.251E-03    0   0.8174   age090_m42            0.0000     1.3131E-05    26.1136   0.6814   164.1892
  8      0.0000     0.0000E+00    0.0000E+00    4.000000E+07  0.00400  3.649E-03    0   0.7851   age104_m42            0.0000     1.2989E-05    25.9692   0.4747   163.7460
  9      0.0000     0.0000E+00    0.0000E+00    5.500000E+07  0.00400  3.098E-03    0   0.7629   age110_m42            0.0000     1.3078E-05    26.0152   0.6453   162.2354
 10     49.9997     1.9673E-01    2.8129E-01    1.015200E+08  0.00400  2.228E-03    0   0.7207   age116_m42            0.0000     1.3149E-05    26.0193   0.6755   161.6411
 11      0.0000     0.0000E+00    0.0000E+00    2.861200E+08  0.00400  1.093E-03    0   0.6648   age125_m42            0.0000     1.3174E-05    26.1513   0.1132   166.0295
 12      0.0000     0.0000E+00    0.0000E+00    5.088000E+08  0.00400  6.597E-04    0   0.6365   age130_m42            0.0000     1.3141E-05    25.9780   0.1360   164.4723
 13      0.0000     0.0000E+00    0.0000E+00    1.434000E+09  0.00400  2.132E-04    0   0.5798   age139_m42            0.0000     1.2168E-05    24.7864  -0.7345   158.3954
 14      0.0000     0.0000E+00    0.0000E+00    4.250000E+09  0.00400  5.895E-05    0   0.5377   age158_m42            0.0000     1.1743E-05    26.1701  -1.0000   145.6401
 15      0.0000     0.0000E+00    0.0000E+00    7.500000E+09  0.00400  3.510E-05    0   0.5212   age171_m42            0.0000     1.1956E-05    28.2590  -1.0000   137.2305
 16      0.0000     0.0000E+00    0.0000E+00    1.300000E+10  0.00400  2.005E-05    0   0.5034   age193_m42            0.0000     1.2504E-05    30.6024  -1.0000   130.2184
 17      0.0000     0.0000E+00    0.0000E+00    1.800000E+10  0.00400  1.525E-05    0   0.4967   age213_m42            0.0000     1.2614E-05    31.3395  -1.0000   129.4008
 18      4.9356     3.4949E-03    6.9337E-03    1.000000E+06  0.00800  1.238E-02    0   1.0000   age020_m52            0.0000     1.3582E-05    26.4196   1.7791   155.6664
 19      0.0000     0.0000E+00    0.0000E+00    3.160000E+06  0.00800  3.074E-02    0   0.9966   age045_m52            0.0000     1.3621E-05    26.4167   1.7088   156.6993
 20      0.0000     0.0000E+00    0.0000E+00    5.010000E+06  0.00800  2.668E-02    0   0.9443   age055_m52            0.0000     1.3472E-05    26.3547   1.5027   157.8451
 21      0.0000     0.0000E+00    0.0000E+00    6.610000E+06  0.00800  2.136E-02    0   0.9177   age061_m52            0.0000     1.2606E-05    25.4641   0.3229   162.9578
 22      0.0000     0.0000E+00    0.0000E+00    1.000000E+07  0.00800  1.215E-02    0   0.8827   age070_m52            0.0000     1.3138E-05    26.1683   0.9683   164.3737
 23      0.0000     0.0000E+00    0.0000E+00    1.445000E+07  0.00800  8.717E-03    0   0.8552   age078_m52            0.0000     1.3185E-05    26.1618   1.0829   162.5830
 24      0.0000     0.0000E+00    0.0000E+00    2.512000E+07  0.00800  5.592E-03    0   0.8162   age090_m52            0.0000     1.3040E-05    26.0458   0.7596   164.8361
 25      0.0000     0.0000E+00    0.0000E+00    4.000000E+07  0.00800  3.896E-03    0   0.7841   age104_m52            0.0000     1.2972E-05    26.0212   0.6930   164.3420
 26      0.0000     0.0000E+00    0.0000E+00    1.015200E+08  0.00800  2.148E-03    0   0.7226   age116_m52            0.0000     1.2917E-05    26.0538   0.6408   163.2997
 27      0.0000     0.0000E+00    0.0000E+00    2.861200E+08  0.00800  9.925E-04    0   0.6683   age125_m52            0.0000     1.2649E-05    25.6832   0.2205   164.0347
 28      0.0000     0.0000E+00    0.0000E+00    9.047900E+08  0.00800  3.141E-04    0   0.6138   age135_m52            0.0000     1.1954E-05    24.8427  -0.4688   160.5332
 29      0.0000     0.0000E+00    0.0000E+00    1.434000E+09  0.00800  1.719E-04    0   0.5853   age139_m52            0.0000     1.1634E-05    24.9643  -1.0000   154.7318
 30      0.0000     0.0000E+00    0.0000E+00    2.500000E+09  0.00800  7.872E-05    0   0.5600   age150_m52            0.0000     1.1832E-05    27.1271  -1.0000   139.8958
 31      0.0000     0.0000E+00    0.0000E+00    4.250000E+09  0.00800  4.336E-05    0   0.5426   age158_m52            0.0000     1.1886E-05    27.4207  -1.0000   138.3090
 32      0.0000     0.0000E+00    0.0000E+00    6.250000E+09  0.00800  3.159E-05    0   0.5319   age166_m52            0.0000     1.2402E-05    29.8798  -1.0000   130.2376
 33      0.0000     0.0000E+00    0.0000E+00    1.300000E+10  0.00800  1.361E-05    0   0.5073   age193_m52            0.0000     1.4490E-05    37.8398  -1.0000   112.8089
 34      0.0000     0.0000E+00    0.0000E+00    1.800000E+10  0.00800  9.886E-06    0   0.4990   age213_m52            0.0000     1.5179E-05    39.1220  -1.0000   107.9193
 35      0.9170     5.2063E-04    1.0329E-03    1.000000E+06  0.02000  1.544E-02    0   1.0000   age020_m62            0.0000     1.3647E-05    26.4374   1.7717   156.2690
 36      0.0000     0.0000E+00    0.0000E+00    3.160000E+06  0.02000  3.762E-02    0   0.9858   age045_m62            0.0000     1.3677E-05    26.3997   1.7133   157.3691
 37      0.0000     0.0000E+00    0.0000E+00    5.010000E+06  0.02000  3.296E-02    0   0.9342   age055_m62            0.0000     1.3450E-05    26.3269   1.4036   159.4678
 38      0.0000     0.0000E+00    0.0000E+00    8.710000E+06  0.02000  1.154E-02    0   0.8861   age067_m62            0.0000     1.2832E-05    26.2096   0.3991   171.4846
 39      0.0000     0.0000E+00    0.0000E+00    1.445000E+07  0.02000  7.663E-03    0   0.8472   age078_m62            0.0000     1.2939E-05    26.1263   0.6253   167.1804
 40      0.0000     0.0000E+00    0.0000E+00    2.512000E+07  0.02000  4.532E-03    0   0.8099   age090_m62            0.0000     1.3018E-05    26.2496   0.6188   166.8184
 41      0.0000     0.0000E+00    0.0000E+00    5.500000E+07  0.02000  2.733E-03    0   0.7595   age110_m62            0.0000     1.2918E-05    25.9327   0.6673   163.6304
 42      0.0000     0.0000E+00    0.0000E+00    1.609000E+08  0.02000  1.369E-03    0   0.6985   age120_m62            0.0000     1.2831E-05    25.8396   0.5454   164.7529
 43      0.0000     0.0000E+00    0.0000E+00    2.861200E+08  0.02000  9.013E-04    0   0.6714   age125_m62            0.0000     1.2727E-05    25.6460   0.3384   165.8163
 44      0.0000     0.0000E+00    0.0000E+00    5.088000E+08  0.02000  5.028E-04    0   0.6449   age130_m62            0.0000     1.2410E-05    25.1120  -0.0001   165.1286
 45      0.0000     0.0000E+00    0.0000E+00    9.047900E+08  0.02000  2.428E-04    0   0.6179   age135_m62            0.0000     1.1735E-05    24.5454  -0.5047   157.4084
 46      0.0000     0.0000E+00    0.0000E+00    1.434000E+09  0.02000  1.263E-04    0   0.5908   age139_m62            0.0000     1.1395E-05    24.0717  -0.9299   152.6274
 47      0.0000     0.0000E+00    0.0000E+00    2.500000E+09  0.02000  5.985E-05    0   0.5673   age150_m62            0.0000     1.1720E-05    26.2742  -1.0000   138.7674
 48      0.0000     0.0000E+00    0.0000E+00    4.250000E+09  0.02000  3.271E-05    0   0.5468   age158_m62            0.0000     1.2721E-05    29.5493  -1.0000   125.3598
 49      0.0000     0.0000E+00    0.0000E+00    1.000000E+10  0.02000  1.360E-05    0   0.5167   age181_m62            0.0000     1.4221E-05    34.3286  -1.0000   111.6847
 50      0.0000     0.0000E+00    0.0000E+00    1.800000E+10  0.02000  7.124E-06    0   0.5013   age213_m62            0.0000     1.5449E-05    37.5739  -1.0000   103.4131
 51      0.0000     0.0000E+00    0.0000E+00    1.000000E+06  0.05000  2.592E-02    0   0.9998   age020_m72            0.0000     1.3961E-05    26.5324   1.7486   157.5266
 52      0.0000     0.0000E+00    0.0000E+00    3.160000E+06  0.05000  4.845E-02    0   0.9577   age045_m72            0.0000     1.3632E-05    26.3784   1.6224   157.6556
 53      0.0000     0.0000E+00    0.0000E+00    5.010000E+06  0.05000  3.072E-02    0   0.9147   age055_m72            0.0000     1.3276E-05    26.4041   1.1693   163.0946
 54      0.0000     0.0000E+00    0.0000E+00    6.610000E+06  0.05000  1.455E-02    0   0.8877   age061_m72            0.0000     1.3695E-05    27.7423   0.3813   177.5461
 55      0.0000     0.0000E+00    0.0000E+00    1.000000E+07  0.05000  9.074E-03    0   0.8524   age070_m72            0.0000     1.3638E-05    27.0124   1.3282   163.4590
 56      0.0000     0.0000E+00    0.0000E+00    2.512000E+07  0.05000  4.250E-03    0   0.7902   age090_m72            0.0000     1.3441E-05    26.6976   1.0724   164.2141
 57      0.0000     0.0000E+00    0.0000E+00    4.000000E+07  0.05000  3.087E-03    0   0.7618   age104_m72            0.0000     1.3353E-05    26.7522   0.8632   165.9172
 58      0.0000     0.0000E+00    0.0000E+00    1.015200E+08  0.05000  1.700E-03    0   0.7096   age116_m72            0.0000     1.2959E-05    26.2274   0.6631   166.5682
 59      0.0000     0.0000E+00    0.0000E+00    2.861200E+08  0.05000  7.384E-04    0   0.6633   age125_m72            0.0000     1.2332E-05    25.3951   0.2460   164.4924
 60      0.0000     0.0000E+00    0.0000E+00    5.088000E+08  0.05000  3.819E-04    0   0.6372   age130_m72            0.0000     1.1803E-05    24.6936  -0.1768   160.3664
 61      0.0000     0.0000E+00    0.0000E+00    9.047900E+08  0.05000  1.676E-04    0   0.6110   age135_m72            0.0000     1.1155E-05    23.8798  -0.8123   151.0605
 62      0.0000     0.0000E+00    0.0000E+00    1.434000E+09  0.05000  8.837E-05    0   0.5874   age139_m72            0.0000     1.1504E-05    25.8602  -1.0000   139.5472
 63      0.0000     0.0000E+00    0.0000E+00    2.500000E+09  0.05000  4.233E-05    0   0.5598   age150_m72            0.0000     1.2627E-05    29.0674  -1.0000   125.6324
 64      0.0000     0.0000E+00    0.0000E+00    6.250000E+09  0.05000  1.435E-05    0   0.5249   age166_m72            0.0000     1.4780E-05    36.0672  -1.0000   107.9995
 65     74.1476     9.9799E+01    9.9711E+01    1.300000E+10  0.05000  6.513E-06    0   0.5036   age193_m72            0.0000     1.6821E-05    40.6407  -1.0000    99.2926
 66      0.0000     0.0000E+00    0.0000E+00    1.800000E+10  0.05000  4.527E-06    0   0.4945   age213_m72            0.0000     1.8124E-05    43.3743  -1.0000    93.8089


## Synthesis Results - Average & Chains ##

# j      x_j: min, <> & last-chain-values for 1 ...  7 chains
  1      0.0000     46.9716     48.6763     49.3297     50.1106     48.5650     50.1280     49.1861     49.1743
  2      0.0000      0.2694      0.2251      0.0549      0.4176      0.3289      0.2797      0.2180      0.2081
  3      0.0000      0.0954      0.2538      0.0072      0.0000      0.0274      0.0000      0.0425      0.0922
  4      0.0000      0.1224      0.0464      0.0522      0.0053      0.1347      0.0000      0.0291      0.0070
  5      0.0000      0.1056      0.1349      0.0112      0.0277      0.2156      0.0032      0.0115      0.1327
  6      0.0000      0.1059      0.0942      0.0537      0.0033      0.0000      0.0039      0.0078      0.0366
  7      0.0000      0.0907      0.0718      0.0301      0.0324      0.0505      0.0000      0.0503      0.0943
  8      0.0000      0.1327      0.0513      0.0532      0.0088      0.0716      0.0093      0.1281      0.0178
  9      0.0000      0.0960      0.1979      0.0270      0.0102      0.0462      0.0061      0.0440      0.0000
 10     49.9997     16.7216     17.1402     17.5210     17.6807     17.3327     17.7263     17.6400     17.3771
 11      0.0000      0.1014      0.0785      0.0000      0.0077      0.0000      0.0153      0.0350      0.0052
 12      0.0000      3.4125      3.4605      3.6870      3.5000      3.4640      3.5369      3.5418      3.4331
 13      0.0000      0.1289      0.0930      0.0000      0.0189      0.0000      0.0114      0.0239      0.0162
 14      0.0000      0.0929      0.0601      0.0222      0.0000      0.0000      0.0008      0.0294      0.0000
 15      0.0000      0.0979      0.0516      0.0000      0.0296      0.0051      0.0007      0.0240      0.1073
 16      0.0000      0.1191      0.0000      0.0210      0.0000      0.0889      0.0327      0.0000      0.0000
 17      0.0000      0.0938      0.0369      0.0000      0.0000      0.0000      0.0250      0.0420      0.0668
 18      4.9356     17.9655     18.5416     18.7968     18.9949     18.5328     19.3256     18.5667     18.2994
 19      0.0000      0.1142      0.0358      0.0224      0.0041      0.0982      0.0000      0.1291      0.1218
 20      0.0000      0.0756      0.0757      0.0000      0.0000      0.0997      0.0000      0.0143      0.0173
 21      0.0000      0.0915      0.0000      0.1477      0.0009      0.0000      0.0025      0.0000      0.1037
 22      0.0000      0.1045      0.0441      0.0000      0.0000      0.1476      0.0000      0.0635      0.0454
 23      0.0000      0.0901      0.1338      0.0165      0.0000      0.2076      0.0084      0.0133      0.0476
 24      0.0000      0.0949      0.1366      0.1036      0.0022      0.0000      0.0120      0.0000      0.0107
 25      0.0000      0.1014      0.0000      0.1067      0.0118      0.0083      0.0000      0.0014      0.0000
 26      0.0000      0.0953      0.0238      0.0000      0.0065      0.0667      0.0000      0.0312      0.1066
 27      0.0000      0.1086      0.0000      0.0158      0.0080      0.0932      0.0363      0.0178      0.1068
 28      0.0000      0.1214      0.0461      0.0018      0.0100      0.0959      0.0094      0.1156      0.1008
 29      0.0000      0.1183      0.1497      0.0000      0.0368      0.0000      0.0056      0.0004      0.0065
 30      0.0000      0.0968      0.0000      0.0325      0.0144      0.1310      0.0035      0.0000      0.0386
 31      0.0000      0.1522      0.0445      0.0256      0.0000      0.0000      0.0000      0.0197      0.0101
 32      0.0000      0.0839      0.0711      0.0609      0.0000      0.0897      0.0000      0.0000      0.0781
 33      0.0000      0.1243      0.0000      0.0000      0.0053      0.0617      0.0123      0.0604      0.0000
 34      0.0000      0.0768      0.0000      0.0000      0.0000      0.0713      0.0096      0.0143      0.0000
 35      0.9170      7.3290      7.3178      7.4904      7.7901      6.9689      7.5755      7.4589      7.5953
 36      0.0000      0.1085      0.2348      0.1236      0.0000      0.1062      0.0079      0.0385      0.0000
 37      0.0000      0.1373      0.0384      0.0000      0.0000      0.0992      0.0156      0.0000      0.0322
 38      0.0000      0.0762      0.0000      0.0076      0.0171      0.0305      0.0157      0.0345      0.0285
 39      0.0000      0.1066      0.0678      0.1321      0.0000      0.1287      0.0057      0.0068      0.0000
 40      0.0000      0.0902      0.0888      0.1494      0.0028      0.0000      0.0199      0.0000      0.0375
 41      0.0000      0.1408      0.0995      0.1109      0.0009      0.0000      0.0040      0.0438      0.0327
 42      0.0000      0.1097      0.0742      0.0842      0.0053      0.1347      0.0035      0.0096      0.0471
 43      0.0000      0.3857      0.2631      0.2617      0.2627      0.2780      0.2785      0.2932      0.3321
 44      0.0000      0.0923      0.0351      0.0000      0.0000      0.0536      0.0031      0.0336      0.0792
 45      0.0000      0.0716      0.0023      0.0846      0.0105      0.0000      0.0000      0.0427      0.0585
 46      0.0000      0.1573      0.2527      0.1032      0.0000      0.0564      0.0014      0.0402      0.0454
