###################################################################
## OUTPUT of StarlightChains_v04.for    [Cid@UFSC - 01/Apr/2007] ##
###################################################################

## Some input info
KUG0210-078._43_48.txt                   [arq_obs]
Base.CB07.vall.4m                        [arq_base]
Masks.EmLines.NEW.gm                     [arq_masks]
StCv04.C11.config                        [arq_config]
   66                                    [N_base]
    0                                    [N_YAV_components = # of components with extra extinction!]
    0                                    [i_FitPowerLaw (1/0 = Yes/No)]
-9.99                                    [alpha_PowerLaw]
CCM                                      [red_law_option]
 1.458241                                [q_norm = A(l_norm)/A(V)]

## (Re)Sampling Parameters
 3741.00                                 [l_ini (A)]
 7218.00                                 [l_fin (A)]
    1.00                                 [dl    (A)]     (OBS: dl_cushion =    50.00 A)

## Normalization info
 4020.00                                 [l_norm (A) - for base]
 4010.00                                 [llow_norm (A) - window for f_obs]
 4060.00                                 [lupp_norm (A) - window for f_obs]
7.770747E-18                             [fobs_norm (in input units)]

## S/N
 3691.00                                 [llow_SN (A) - window for S/N]
 7268.00                                 [lupp_SN (A) - window for S/N]
   2.959                                 [S/N in S/N window]
   3.020                                 [S/N in norm. window]
   0.010                                 [S/N_err in S/N window]
   0.010                                 [S/N_err in norm. window]
  1.0000                                 [fscale_chi2]

## etc...
    -2007820                             [idum_orig]
  2399                                   [NOl_eff]
  2142                                   [Nl_eff]
   257    NSIGMA                         [Ntot_cliped & clip_method]
 11025350                                [Nglobal_steps]
   7                                     [N_chains]
  35                                     [NEX0s_base = N_base in EX0s-fits]
 0   0   1      257   2.0   5.552E+03    [Clip-Bug, RC-Crash & Burn-In warning-flags, n_censored_weights, wei_nsig_threshold & wei_limit]
   257    256.364    254.902      1.462  [idt_all, wdt_TotTime, wdt_UsrTime & wdt_SysTime (sec)]

## Synthesis Results - Best model ##

 1.25611E-05                             [chi2/Nl_eff]
    18.85377                             [adev (%)]

   129.07956                             [sum-of-x (%)]
 3.10852E-18                             [Flux_tot (units of input spectrum!)]
 8.64392E-14                             [Mini_tot (???)]
 4.57874E-14                             [Mcor_tot (???)]

 249.35                                  [v0_min  (km/s)]
 150.00                                  [vd_min  (km/s)]
-0.8722                                  [AV_min  (mag)]
 0.0000                                  [YAV_min (mag)]

# j     x_j(%)      Mini_j(%)     Mcor_j(%)     age_j(yr)     Z_j      (L/M)_j    YAV?  Mstars   component_j        a/Fe...       SSP_chi2r SSP_adev(%)   SSP_AV   SSP_x(%)
  1      0.8306     2.1153E-03    3.9933E-03    1.000000E+06  0.00400  1.094E-02    0   1.0000   age020_m42            0.0000     1.3471E-05    18.4543   2.3236   118.7618
  2      0.0556     3.8674E-05    7.3004E-05    3.160000E+06  0.00400  4.007E-02    0   0.9999   age045_m42            0.0000     1.3391E-05    19.1189   1.6822   123.3246
  3      0.0000     0.0000E+00    0.0000E+00    5.010000E+06  0.00400  2.539E-02    0   0.9488   age055_m42            0.0000     1.3489E-05    18.8397   1.9645   121.7963
  4      0.0000     0.0000E+00    0.0000E+00    6.610000E+06  0.00400  2.620E-02    0   0.9220   age061_m42            0.0000     1.3462E-05    19.3232   1.6179   123.3969
  5      0.0370     7.8022E-05    1.3053E-04    1.000000E+07  0.00400  1.322E-02    0   0.8862   age070_m42            0.0000     1.3830E-05    20.8158   1.3793   125.6826
  6      0.0000     0.0000E+00    0.0000E+00    1.445000E+07  0.00400  7.883E-03    0   0.8571   age078_m42            0.0000     1.3763E-05    20.3708   1.6772   123.4786
  7      0.0385     2.0437E-04    3.1537E-04    2.512000E+07  0.00400  5.251E-03    0   0.8174   age090_m42            0.0000     1.3914E-05    21.2312   1.2652   125.9951
  8      0.0000     0.0000E+00    0.0000E+00    4.000000E+07  0.00400  3.649E-03    0   0.7851   age104_m42            0.0000     1.3862E-05    21.2579   1.0513   126.4485
  9      0.0000     0.0000E+00    0.0000E+00    5.500000E+07  0.00400  3.098E-03    0   0.7629   age110_m42            0.0000     1.3668E-05    20.6604   1.1981   126.0844
 10      2.3341     2.9188E-02    3.9712E-02    1.015200E+08  0.00400  2.228E-03    0   0.7207   age116_m42            0.0000     1.3562E-05    20.3036   1.2150   126.0197
 11      0.0000     0.0000E+00    0.0000E+00    2.861200E+08  0.00400  1.093E-03    0   0.6648   age125_m42            0.0000     1.3825E-05    21.2634   0.6755   128.6137
 12      0.0000     0.0000E+00    0.0000E+00    5.088000E+08  0.00400  6.597E-04    0   0.6365   age130_m42            0.0000     1.3635E-05    20.6644   0.6662   129.0440
 13      0.0000     0.0000E+00    0.0000E+00    1.434000E+09  0.00400  2.132E-04    0   0.5798   age139_m42            0.0000     1.3366E-05    20.5260  -0.2605   129.6560
 14      0.0000     0.0000E+00    0.0000E+00    4.250000E+09  0.00400  5.895E-05    0   0.5377   age158_m42            0.0000     1.3220E-05    19.3662  -0.7288   125.0755
 15      0.0000     0.0000E+00    0.0000E+00    7.500000E+09  0.00400  3.510E-05    0   0.5212   age171_m42            0.0000     1.3217E-05    19.0884  -0.9187   123.9937
 16      0.0000     0.0000E+00    0.0000E+00    1.300000E+10  0.00400  2.005E-05    0   0.5034   age193_m42            0.0000     1.3344E-05    19.6014  -1.0000   120.1907
 17      0.0000     0.0000E+00    0.0000E+00    1.800000E+10  0.00400  1.525E-05    0   0.4967   age213_m42            0.0000     1.3351E-05    19.8238  -1.0000   118.8413
 18      2.5943     5.8382E-03    1.1022E-02    1.000000E+06  0.00800  1.238E-02    0   1.0000   age020_m52            0.0000     1.3431E-05    18.4171   2.3177   119.1043
 19      0.0000     0.0000E+00    0.0000E+00    3.160000E+06  0.00800  3.074E-02    0   0.9966   age045_m52            0.0000     1.3398E-05    18.3882   2.2455   119.9571
 20      0.0000     0.0000E+00    0.0000E+00    5.010000E+06  0.00800  2.668E-02    0   0.9443   age055_m52            0.0000     1.3444E-05    18.7814   2.0413   121.1587
 21      0.0000     0.0000E+00    0.0000E+00    6.610000E+06  0.00800  2.136E-02    0   0.9177   age061_m52            0.0000     1.3730E-05    20.6056   0.8852   127.0887
 22      0.0129     2.9645E-05    4.9400E-05    1.000000E+07  0.00800  1.215E-02    0   0.8827   age070_m52            0.0000     1.3861E-05    21.1178   1.5529   125.9724
 23      0.2062     6.5897E-04    1.0639E-03    1.445000E+07  0.00800  8.717E-03    0   0.8552   age078_m52            0.0000     1.3726E-05    20.5277   1.6534   124.9229
 24      0.0000     0.0000E+00    0.0000E+00    2.512000E+07  0.00800  5.592E-03    0   0.8162   age090_m52            0.0000     1.3828E-05    21.3932   1.3356   127.3645
 25      0.0000     0.0000E+00    0.0000E+00    4.000000E+07  0.00800  3.896E-03    0   0.7841   age104_m52            0.0000     1.3740E-05    21.2859   1.2565   127.6898
 26      0.0000     0.0000E+00    0.0000E+00    1.015200E+08  0.00800  2.148E-03    0   0.7226   age116_m52            0.0000     1.3615E-05    20.7480   1.1967   126.7717
 27      0.0000     0.0000E+00    0.0000E+00    2.861200E+08  0.00800  9.925E-04    0   0.6683   age125_m52            0.0000     1.3521E-05    20.8008   0.7408   130.3572
 28      0.0000     0.0000E+00    0.0000E+00    9.047900E+08  0.00800  3.141E-04    0   0.6138   age135_m52            0.0000     1.2986E-05    20.2785  -0.0275   133.6530
 29      0.0000     0.0000E+00    0.0000E+00    1.434000E+09  0.00800  1.719E-04    0   0.5853   age139_m52            0.0000     1.3017E-05    19.9709  -0.6207   131.0347
 30      0.0000     0.0000E+00    0.0000E+00    2.500000E+09  0.00800  7.872E-05    0   0.5600   age150_m52            0.0000     1.2921E-05    19.0514  -0.8993   127.6255
 31      0.0000     0.0000E+00    0.0000E+00    4.250000E+09  0.00800  4.336E-05    0   0.5426   age158_m52            0.0000     1.2949E-05    19.0133  -0.9141   126.3872
 32      0.0052     4.5671E-03    4.5860E-03    6.250000E+09  0.00800  3.159E-05    0   0.5319   age166_m52            0.0000     1.3067E-05    19.6411  -1.0000   121.8754
 33      0.0000     0.0000E+00    0.0000E+00    1.300000E+10  0.00800  1.361E-05    0   0.5073   age193_m52            0.0000     1.5015E-05    24.5056  -1.0000   104.2788
 34      0.0000     0.0000E+00    0.0000E+00    1.800000E+10  0.00800  9.886E-06    0   0.4990   age213_m52            0.0000     1.5813E-05    25.4144  -1.0000    99.7725
 35      0.0000     0.0000E+00    0.0000E+00    1.000000E+06  0.02000  1.544E-02    0   1.0000   age020_m62            0.0000     1.3413E-05    18.3776   2.3104   119.5155
 36      0.0000     0.0000E+00    0.0000E+00    3.160000E+06  0.02000  3.762E-02    0   0.9858   age045_m62            0.0000     1.3414E-05    18.3205   2.2446   120.6628
 37      0.0000     0.0000E+00    0.0000E+00    5.010000E+06  0.02000  3.296E-02    0   0.9342   age055_m62            0.0000     1.3385E-05    18.7888   1.9335   122.9680
 38      0.0000     0.0000E+00    0.0000E+00    8.710000E+06  0.02000  1.154E-02    0   0.8861   age067_m62            0.0000     1.4761E-05    24.2984   1.0405   130.8873
 39      0.0000     0.0000E+00    0.0000E+00    1.445000E+07  0.02000  7.663E-03    0   0.8472   age078_m62            0.0000     1.4128E-05    22.1660   1.2187   128.6877
 40      0.0000     0.0000E+00    0.0000E+00    2.512000E+07  0.02000  4.532E-03    0   0.8099   age090_m62            0.0000     1.4257E-05    22.5105   1.2218   127.9522
 41      0.0000     0.0000E+00    0.0000E+00    5.500000E+07  0.02000  2.733E-03    0   0.7595   age110_m62            0.0000     1.3769E-05    21.1878   1.2328   127.0315
 42      0.0000     0.0000E+00    0.0000E+00    1.609000E+08  0.02000  1.369E-03    0   0.6985   age120_m62            0.0000     1.3567E-05    20.7929   1.0862   129.3051
 43      0.0000     0.0000E+00    0.0000E+00    2.861200E+08  0.02000  9.013E-04    0   0.6714   age125_m62            0.0000     1.3456E-05    20.7194   0.8540   132.0573
 44      0.0000     0.0000E+00    0.0000E+00    5.088000E+08  0.02000  5.028E-04    0   0.6449   age130_m62            0.0000     1.3063E-05    19.9876   0.4850   134.3095
 45      0.0000     0.0000E+00    0.0000E+00    9.047900E+08  0.02000  2.428E-04    0   0.6179   age135_m62            0.0000     1.2701E-05    19.4771  -0.0974   132.8792
 46      2.7213     6.0029E-01    6.6953E-01    1.434000E+09  0.02000  1.263E-04    0   0.5908   age139_m62            0.0000     1.2654E-05    19.2128  -0.5410   130.8176
 47     12.2039     5.6809E+00    6.0841E+00    2.500000E+09  0.02000  5.985E-05    0   0.5673   age150_m62            0.0000     1.2643E-05    18.6150  -0.9223   129.3309
 48     12.7370     1.0849E+01    1.1199E+01    4.250000E+09  0.02000  3.271E-05    0   0.5468   age158_m62            0.0000     1.3041E-05    20.0951  -1.0000   119.5700
 49      0.0000     0.0000E+00    0.0000E+00    1.000000E+10  0.02000  1.360E-05    0   0.5167   age181_m62            0.0000     1.4689E-05    23.6075  -1.0000   106.2429
 50      6.6986     2.6197E+01    2.4792E+01    1.800000E+10  0.02000  7.124E-06    0   0.5013   age213_m62            0.0000     1.6345E-05    25.8007  -1.0000    97.8887
 51      0.0094     1.0129E-05    1.9117E-05    1.000000E+06  0.05000  2.592E-02    0   0.9998   age020_m72            0.0000     1.3383E-05    18.3323   2.2948   119.8832
 52      0.0000     0.0000E+00    0.0000E+00    3.160000E+06  0.05000  4.845E-02    0   0.9577   age045_m72            0.0000     1.3417E-05    18.4144   2.1537   121.0926
 53      0.3106     2.8167E-04    4.8640E-04    5.010000E+06  0.05000  3.072E-02    0   0.9147   age055_m72            0.0000     1.3814E-05    20.6690   1.7370   125.1999
 54      2.0318     3.8904E-03    6.5197E-03    6.610000E+06  0.05000  1.455E-02    0   0.8877   age061_m72            0.0000     1.5701E-05    25.9351   1.0606   132.7078
 55      0.0000     0.0000E+00    0.0000E+00    1.000000E+07  0.05000  9.074E-03    0   0.8524   age070_m72            0.0000     1.4045E-05    21.0639   1.9002   124.9772
 56      0.0000     0.0000E+00    0.0000E+00    2.512000E+07  0.05000  4.250E-03    0   0.7902   age090_m72            0.0000     1.4017E-05    21.3779   1.6562   125.4851
 57      0.0000     0.0000E+00    0.0000E+00    4.000000E+07  0.05000  3.087E-03    0   0.7618   age104_m72            0.0000     1.4071E-05    21.8576   1.4516   126.8415
 58      0.0000     0.0000E+00    0.0000E+00    1.015200E+08  0.05000  1.700E-03    0   0.7096   age116_m72            0.0000     1.3716E-05    21.1719   1.2255   129.0096
 59      0.0000     0.0000E+00    0.0000E+00    2.861200E+08  0.05000  7.384E-04    0   0.6633   age125_m72            0.0000     1.3034E-05    20.3078   0.7230   133.6173
 60      0.0000     0.0000E+00    0.0000E+00    5.088000E+08  0.05000  3.819E-04    0   0.6372   age130_m72            0.0000     1.2495E-05    19.4470   0.2334   135.0882
 61     32.0982     5.3357E+00    6.1546E+00    9.047900E+08  0.05000  1.676E-04    0   0.6110   age135_m72            0.0000     1.2241E-05    18.4785  -0.4738   132.4854
 62     45.5186     1.4351E+01    1.5914E+01    1.434000E+09  0.05000  8.837E-05    0   0.5874   age139_m72            0.0000     1.2420E-05    18.4857  -0.9280   131.2502
 63      0.0000     0.0000E+00    0.0000E+00    2.500000E+09  0.05000  4.233E-05    0   0.5598   age150_m72            0.0000     1.2939E-05    19.8893  -1.0000   120.4160
 64      0.0000     0.0000E+00    0.0000E+00    6.250000E+09  0.05000  1.435E-05    0   0.5249   age166_m72            0.0000     1.5372E-05    24.6492  -1.0000   102.3181
 65      8.6357     3.6941E+01    3.5120E+01    1.300000E+10  0.05000  6.513E-06    0   0.5036   age193_m72            0.0000     1.8141E-05    27.5784  -1.0000    93.1877
 66      0.0000     0.0000E+00    0.0000E+00    1.800000E+10  0.05000  4.527E-06    0   0.4945   age213_m72            0.0000     2.0048E-05    29.2332  -1.0000    87.3698


## Synthesis Results - Average & Chains ##

# j      x_j: min, <> & last-chain-values for 1 ...  7 chains
  1      0.8306      2.1918      0.6901      0.8996      1.5799      2.0359      1.2293      2.2813      3.6030
  2      0.0556      0.4308      0.1124      0.8183      0.0984      0.5404      2.3245      0.0558      0.0000
  3      0.0000      0.2685      0.0143      0.0000      0.0000      0.3378      0.0000      0.0000      1.6179
  4      0.0000      0.2882      0.1370      0.3291      0.0000      0.4724      0.5601      1.2117      0.0257
  5      0.0370      0.3532      0.0928      0.0000      1.7079      0.5267      0.6153      0.2484      0.0000
  6      0.0000      0.3190      0.0000      0.1443      0.1913      0.0447      0.4486      0.2526      1.5639
  7      0.0385      0.2348      0.0000      0.6920      0.9999      0.0893      1.5945      0.0000      0.0000
  8      0.0000      0.3347      0.2802      0.0000      0.0036      0.0733      0.0000      0.5893      0.0000
  9      0.0000      0.3081      0.2507      0.3184      0.3648      0.2925      0.7150      0.0000      0.7894
 10      2.3341      0.3713      0.2938      1.7953      1.4347      0.0000      0.9851      0.0000      0.4937
 11      0.0000      0.2411      0.0000      0.7977      0.5380      0.0900      0.0000      0.0000      0.0000
 12      0.0000      0.2633      0.0000      0.5499      0.0000      0.6215      0.0000      0.0000      0.9092
 13      0.0000      0.2903      0.1761      0.5491      0.0000      0.7387      0.0576      1.0506      0.0000
 14      0.0000      0.3371      0.0839      1.3301      0.0000      0.1779      2.6930      0.5839      1.1128
 15      0.0000      0.2202      0.0000      0.0000      0.0000      0.4739      0.4972      1.9528      1.3431
 16      0.0000      0.2599      0.1639      0.8482      0.0000      0.1868      2.5013      1.0348      1.4743
 17      0.0000      0.3432      0.0201      1.5525      0.6074      0.3149      2.7061      1.1819      0.3523
 18      2.5943      2.8330      3.6150      2.2781      2.9115      2.9960      2.9044      2.7878      2.4123
 19      0.0000      0.2636      0.2354      1.0961      0.0000      0.0000      1.0531      0.3321      0.0000
 20      0.0000      0.3043      0.0262      0.0000      1.2566      0.0000      0.0000      0.6836      0.4659
 21      0.0000      0.3931      0.1605      0.0000      0.7593      0.3260      0.0000      1.0754      0.5183
 22      0.0129      0.3410      0.2466      0.6617      0.1401      0.0000      0.6893      0.3035      3.4751
 23      0.2062      0.2563      0.2586      0.0000      1.3732      0.3605      0.7705      0.8309      0.8394
 24      0.0000      0.2517      0.0891      0.0000      0.0000      0.1976      0.0000      0.5825      0.0000
 25      0.0000      0.2718      0.3380      0.1939      0.0854      0.0000      0.0000      0.5197      0.5494
 26      0.0000      0.2927      0.5015      0.2655      0.0000      0.2092      0.0332      0.8065      0.0000
 27      0.0000      0.2272      0.0709      1.1703      0.0940      0.1768      0.6568      0.8224      3.5699
 28      0.0000      0.2778      0.1455      1.4899      1.0449      0.5256      0.1106      0.9252      0.0000
 29      0.0000      0.2938      0.1773      2.5160      0.0604      0.4369      0.0000      0.0786      2.6000
 30      0.0000      0.2838      0.0138      0.9418      0.0000      0.1951      0.6345      1.6353      0.5402
 31      0.0000      0.2710      0.1252      1.6721      0.8167      0.4701      1.0525      2.5273      2.5966
 32      0.0052      0.2427      0.2648      0.0000      0.0000      0.2758      1.0386      0.0000      1.7329
 33      0.0000      0.2468      0.0138      1.3664      0.5691      0.0504      0.0000      0.3740      2.0992
 34      0.0000      0.3178      0.0663      1.1078      0.3240      0.5064      1.3081      0.3684      1.7262
 35      0.0000      0.3559      0.0000      0.1511      0.4882      0.0000      0.0000      1.0731      1.4672
 36      0.0000      0.2125      0.0882      0.0000      0.3703      0.0836      0.0000      0.0000      0.4000
 37      0.0000      0.3044      0.0000      0.8695      0.0000      0.4586      0.0054      0.0000      0.0000
 38      0.0000      0.2367      0.0000      0.5719      0.0311      0.0000      0.0000      1.2216      0.1497
 39      0.0000      0.2511      0.1770      0.3197      0.0000      0.0000      0.1577      0.3654      0.4813
 40      0.0000      0.2572      0.1276      0.2931      0.7487      0.1938      0.7048      0.8466      0.3546
 41      0.0000      0.2358      0.1745      1.3842      0.1137      0.0000      0.0257      0.2039      0.0000
 42      0.0000      0.3151      0.0713      0.0000      0.8234      0.5316      0.0000      0.5020      0.0070
 43      0.0000      0.3143      0.0000      0.3480      0.0000      0.0000      0.0000      0.5818      0.0000
 44      0.0000      0.3323      0.0392      0.5024      0.8499      0.1195      0.5048      0.0000      0.0000
 45      0.0000      0.3117      0.0414      0.5046      0.4583      1.0170      0.0000      0.0000      0.1912
 46      2.7213      4.1239      4.8480      3.1091      4.2012      4.7688      2.9923      3.4128      2.6951
