###################################################################
## OUTPUT of StarlightChains_v04.for    [Cid@UFSC - 01/Apr/2007] ##
###################################################################

## Some input info
KUG0210-078._29_28.txt                   [arq_obs]
Base.CB07.vall.4m                        [arq_base]
Masks.EmLines.NEW.gm                     [arq_masks]
StCv04.C11.config                        [arq_config]
   66                                    [N_base]
    0                                    [N_YAV_components = # of components with extra extinction!]
    0                                    [i_FitPowerLaw (1/0 = Yes/No)]
-9.99                                    [alpha_PowerLaw]
CCM                                      [red_law_option]
 1.458241                                [q_norm = A(l_norm)/A(V)]

## (Re)Sampling Parameters
 3741.00                                 [l_ini (A)]
 7218.00                                 [l_fin (A)]
    1.00                                 [dl    (A)]     (OBS: dl_cushion =    50.00 A)

## Normalization info
 4020.00                                 [l_norm (A) - for base]
 4010.00                                 [llow_norm (A) - window for f_obs]
 4060.00                                 [lupp_norm (A) - window for f_obs]
3.607714E-17                             [fobs_norm (in input units)]

## S/N
 3691.00                                 [llow_SN (A) - window for S/N]
 7268.00                                 [lupp_SN (A) - window for S/N]
   5.989                                 [S/N in S/N window]
   7.513                                 [S/N in norm. window]
   0.048                                 [S/N_err in S/N window]
   0.061                                 [S/N_err in norm. window]
  1.0000                                 [fscale_chi2]

## etc...
    -2007404                             [idum_orig]
  2432                                   [NOl_eff]
  2120                                   [Nl_eff]
   312    NSIGMA                         [Ntot_cliped & clip_method]
 10664920                                [Nglobal_steps]
   7                                     [N_chains]
  34                                     [NEX0s_base = N_base in EX0s-fits]
 0   0   1      312   2.0   2.831E+04    [Clip-Bug, RC-Crash & Burn-In warning-flags, n_censored_weights, wei_nsig_threshold & wei_limit]
    76     75.344     74.661      0.683  [idt_all, wdt_TotTime, wdt_UsrTime & wdt_SysTime (sec)]

## Synthesis Results - Best model ##

 2.31688E-05                             [chi2/Nl_eff]
     5.62246                             [adev (%)]

    88.05303                             [sum-of-x (%)]
 4.00417E-17                             [Flux_tot (units of input spectrum!)]
 1.67428E-12                             [Mini_tot (???)]
 8.43145E-13                             [Mcor_tot (???)]

  17.43                                  [v0_min  (km/s)]
 311.36                                  [vd_min  (km/s)]
 0.1724                                  [AV_min  (mag)]
 0.0000                                  [YAV_min (mag)]

# j     x_j(%)      Mini_j(%)     Mcor_j(%)     age_j(yr)     Z_j      (L/M)_j    YAV?  Mstars   component_j        a/Fe...       SSP_chi2r SSP_adev(%)   SSP_AV   SSP_x(%)
  1      0.0000     0.0000E+00    0.0000E+00    1.000000E+06  0.00400  1.094E-02    0   1.0000   age020_m42            0.0000     4.6316E-05     9.7559   2.9024    75.4339
  2      0.0000     0.0000E+00    0.0000E+00    3.160000E+06  0.00400  4.007E-02    0   0.9999   age045_m42            0.0000     4.1228E-05     8.8020   2.2660    78.1756
  3      0.0000     0.0000E+00    0.0000E+00    5.010000E+06  0.00400  2.539E-02    0   0.9488   age055_m42            0.0000     4.2776E-05     9.1358   2.5433    77.4440
  4      0.0000     0.0000E+00    0.0000E+00    6.610000E+06  0.00400  2.620E-02    0   0.9220   age061_m42            0.0000     3.9797E-05     8.5766   2.1921    78.4902
  5      0.0000     0.0000E+00    0.0000E+00    1.000000E+07  0.00400  1.322E-02    0   0.8862   age070_m42            0.0000     3.3911E-05     7.4528   1.8979    81.5110
  6      0.0000     0.0000E+00    0.0000E+00    1.445000E+07  0.00400  7.883E-03    0   0.8571   age078_m42            0.0000     3.6044E-05     7.8786   2.2025    79.8870
  7      0.0000     0.0000E+00    0.0000E+00    2.512000E+07  0.00400  5.251E-03    0   0.8174   age090_m42            0.0000     3.2957E-05     7.1932   1.7745    82.0097
  8      0.0000     0.0000E+00    0.0000E+00    4.000000E+07  0.00400  3.649E-03    0   0.7851   age104_m42            0.0000     3.2252E-05     7.0887   1.5631    82.1803
  9      0.0000     0.0000E+00    0.0000E+00    5.500000E+07  0.00400  3.098E-03    0   0.7629   age110_m42            0.0000     3.4318E-05     7.4837   1.7334    81.1750
 10      0.0000     0.0000E+00    0.0000E+00    1.015200E+08  0.00400  2.228E-03    0   0.7207   age116_m42            0.0000     3.5342E-05     7.6728   1.7663    80.6732
 11      0.0000     0.0000E+00    0.0000E+00    2.861200E+08  0.00400  1.093E-03    0   0.6648   age125_m42            0.0000     3.1629E-05     7.0207   1.2164    83.1656
 12      0.0000     0.0000E+00    0.0000E+00    5.088000E+08  0.00400  6.597E-04    0   0.6365   age130_m42            0.0000     3.2229E-05     7.1399   1.2300    82.7292
 13      0.0000     0.0000E+00    0.0000E+00    1.434000E+09  0.00400  2.132E-04    0   0.5798   age139_m42            0.0000     2.7926E-05     6.3593   0.2913    83.3760
 14      0.0000     0.0000E+00    0.0000E+00    4.250000E+09  0.00400  5.895E-05    0   0.5377   age158_m42            0.0000     2.9849E-05     7.0365  -0.1660    80.2119
 15      0.0000     0.0000E+00    0.0000E+00    7.500000E+09  0.00400  3.510E-05    0   0.5212   age171_m42            0.0000     3.0075E-05     7.1752  -0.3469    79.3832
 16      0.0000     0.0000E+00    0.0000E+00    1.300000E+10  0.00400  2.005E-05    0   0.5034   age193_m42            0.0000     3.0366E-05     7.3468  -0.5078    78.8090
 17      0.0000     0.0000E+00    0.0000E+00    1.800000E+10  0.00400  1.525E-05    0   0.4967   age213_m42            0.0000     3.0476E-05     7.3430  -0.5363    78.5858
 18      0.0000     0.0000E+00    0.0000E+00    1.000000E+06  0.00800  1.238E-02    0   1.0000   age020_m52            0.0000     4.5728E-05     9.7095   2.9001    75.6085
 19      0.0000     0.0000E+00    0.0000E+00    3.160000E+06  0.00800  3.074E-02    0   0.9966   age045_m52            0.0000     4.5278E-05     9.6308   2.8315    76.0738
 20      0.0000     0.0000E+00    0.0000E+00    5.010000E+06  0.00800  2.668E-02    0   0.9443   age055_m52            0.0000     4.2625E-05     9.1281   2.6150    77.1246
 21      0.0000     0.0000E+00    0.0000E+00    6.610000E+06  0.00800  2.136E-02    0   0.9177   age061_m52            0.0000     3.1154E-05     7.0869   1.4036    82.5905
 22      0.0000     0.0000E+00    0.0000E+00    1.000000E+07  0.00800  1.215E-02    0   0.8827   age070_m52            0.0000     3.3171E-05     7.2813   2.0628    82.0180
 23      0.0000     0.0000E+00    0.0000E+00    1.445000E+07  0.00800  8.717E-03    0   0.8552   age078_m52            0.0000     3.5207E-05     7.6719   2.1760    80.8352
 24      4.3818     2.1283E-02    3.4494E-02    2.512000E+07  0.00800  5.592E-03    0   0.8162   age090_m52            0.0000     3.2262E-05     7.0428   1.8412    82.8899
 25      4.9038     3.4187E-02    5.3229E-02    4.000000E+07  0.00800  3.896E-03    0   0.7841   age104_m52            0.0000     3.2243E-05     7.0713   1.7723    82.8196
 26      0.0000     0.0000E+00    0.0000E+00    1.015200E+08  0.00800  2.148E-03    0   0.7226   age116_m52            0.0000     3.3159E-05     7.3170   1.7325    81.6819
 27      0.0000     0.0000E+00    0.0000E+00    2.861200E+08  0.00800  9.925E-04    0   0.6683   age125_m52            0.0000     3.1435E-05     7.0296   1.2904    83.6301
 28      0.0000     0.0000E+00    0.0000E+00    9.047900E+08  0.00800  3.141E-04    0   0.6138   age135_m52            0.0000     2.8406E-05     6.5877   0.5499    85.0024
 29      1.9586     3.0947E-01    3.5968E-01    1.434000E+09  0.00800  1.719E-04    0   0.5853   age139_m52            0.0000     2.6585E-05     6.4450  -0.0520    84.1017
 30      0.0000     0.0000E+00    0.0000E+00    2.500000E+09  0.00800  7.872E-05    0   0.5600   age150_m52            0.0000     2.8471E-05     6.9422  -0.3119    81.2494
 31      0.0000     0.0000E+00    0.0000E+00    4.250000E+09  0.00800  4.336E-05    0   0.5426   age158_m52            0.0000     2.8895E-05     7.0685  -0.3291    80.4984
 32      0.0000     0.0000E+00    0.0000E+00    6.250000E+09  0.00800  3.159E-05    0   0.5319   age166_m52            0.0000     2.9797E-05     7.3075  -0.5205    80.0068
 33      0.0000     0.0000E+00    0.0000E+00    1.300000E+10  0.00800  1.361E-05    0   0.5073   age193_m52            0.0000     3.1761E-05     7.6505  -0.9814    79.0243
 34      0.0000     0.0000E+00    0.0000E+00    1.800000E+10  0.00800  9.886E-06    0   0.4990   age213_m52            0.0000     3.4209E-05     7.5480  -1.0000    75.7975
 35      0.0000     0.0000E+00    0.0000E+00    1.000000E+06  0.02000  1.544E-02    0   1.0000   age020_m62            0.0000     4.5361E-05     9.6872   2.8964    75.8364
 36      0.0000     0.0000E+00    0.0000E+00    3.160000E+06  0.02000  3.762E-02    0   0.9858   age045_m62            0.0000     4.5869E-05     9.7436   2.8343    76.4538
 37      7.7761     6.4079E-03    1.1887E-02    5.010000E+06  0.02000  3.296E-02    0   0.9342   age055_m62            0.0000     4.2467E-05     9.0866   2.5159    77.9542
 38      0.0000     0.0000E+00    0.0000E+00    8.710000E+06  0.02000  1.154E-02    0   0.8861   age067_m62            0.0000     2.7983E-05     6.2055   1.4685    88.2673
 39      0.0000     0.0000E+00    0.0000E+00    1.445000E+07  0.02000  7.663E-03    0   0.8472   age078_m62            0.0000     3.0022E-05     6.7321   1.7051    84.8309
 40     12.9884     7.7841E-02    1.2519E-01    2.512000E+07  0.02000  4.532E-03    0   0.8099   age090_m62            0.0000     2.9787E-05     6.6855   1.6986    84.7171
 41      0.0000     0.0000E+00    0.0000E+00    5.500000E+07  0.02000  2.733E-03    0   0.7595   age110_m62            0.0000     3.1271E-05     6.9443   1.7480    82.6598
 42      0.0000     0.0000E+00    0.0000E+00    1.609000E+08  0.02000  1.369E-03    0   0.6985   age120_m62            0.0000     3.2060E-05     7.0995   1.6283    83.1866
 43      0.0000     0.0000E+00    0.0000E+00    2.861200E+08  0.02000  9.013E-04    0   0.6714   age125_m62            0.0000     3.1470E-05     6.9536   1.4104    84.4114
 44      0.0000     0.0000E+00    0.0000E+00    5.088000E+08  0.02000  5.028E-04    0   0.6449   age130_m62            0.0000     3.1269E-05     7.0569   1.0784    84.7687
 45      4.5592     5.1001E-01    6.2578E-01    9.047900E+08  0.02000  2.428E-04    0   0.6179   age135_m62            0.0000     2.8132E-05     6.7168   0.5028    83.9877
 46      0.0000     0.0000E+00    0.0000E+00    1.434000E+09  0.02000  1.263E-04    0   0.5908   age139_m62            0.0000     2.7091E-05     6.6916   0.0508    83.0149
 47      0.5133     2.3293E-01    2.6240E-01    2.500000E+09  0.02000  5.985E-05    0   0.5673   age150_m62            0.0000     2.9458E-05     7.1994  -0.3157    81.6811
 48      0.0000     0.0000E+00    0.0000E+00    4.250000E+09  0.02000  3.271E-05    0   0.5468   age158_m62            0.0000     3.1712E-05     7.6292  -0.6073    80.3720
 49      0.0000     0.0000E+00    0.0000E+00    1.000000E+10  0.02000  1.360E-05    0   0.5167   age181_m62            0.0000     3.4510E-05     8.0795  -0.9361    79.3599
 50     10.9025     4.1567E+01    4.1378E+01    1.800000E+10  0.02000  7.124E-06    0   0.5013   age213_m62            0.0000     3.9403E-05     7.8614  -1.0000    74.1612
 51      0.0000     0.0000E+00    0.0000E+00    1.000000E+06  0.05000  2.592E-02    0   0.9998   age020_m72            0.0000     4.3880E-05     9.5492   2.8900    76.0441
 52      0.0000     0.0000E+00    0.0000E+00    3.160000E+06  0.05000  4.845E-02    0   0.9577   age045_m72            0.0000     4.5498E-05     9.6391   2.7370    76.8099
 53     10.2455     9.0584E-03    1.6453E-02    5.010000E+06  0.05000  3.072E-02    0   0.9147   age055_m72            0.0000     3.4671E-05     7.9016   2.2660    81.4613
 54     14.8244     2.7673E-02    4.8780E-02    6.610000E+06  0.05000  1.455E-02    0   0.8877   age061_m72            0.0000     3.8538E-05     8.3925   1.4708    91.4462
 55      0.0000     0.0000E+00    0.0000E+00    1.000000E+07  0.05000  9.074E-03    0   0.8524   age070_m72            0.0000     3.8275E-05     8.9814   2.4309    81.7504
 56      0.0000     0.0000E+00    0.0000E+00    2.512000E+07  0.05000  4.250E-03    0   0.7902   age090_m72            0.0000     3.4659E-05     7.9573   2.1737    82.0845
 57      0.0000     0.0000E+00    0.0000E+00    4.000000E+07  0.05000  3.087E-03    0   0.7618   age104_m72            0.0000     3.3563E-05     7.6939   1.9586    83.2487
 58      0.0000     0.0000E+00    0.0000E+00    1.015200E+08  0.05000  1.700E-03    0   0.7096   age116_m72            0.0000     3.2317E-05     7.1082   1.7562    83.3879
 59      0.0000     0.0000E+00    0.0000E+00    2.861200E+08  0.05000  7.384E-04    0   0.6633   age125_m72            0.0000     3.0836E-05     6.8899   1.3036    84.5515
 60      0.0000     0.0000E+00    0.0000E+00    5.088000E+08  0.05000  3.819E-04    0   0.6372   age130_m72            0.0000     2.9206E-05     6.7887   0.8427    84.7449
 61      0.0000     0.0000E+00    0.0000E+00    9.047900E+08  0.05000  1.676E-04    0   0.6110   age135_m72            0.0000     3.0002E-05     7.2144   0.1506    82.8582
 62      0.0000     0.0000E+00    0.0000E+00    1.434000E+09  0.05000  8.837E-05    0   0.5874   age139_m72            0.0000     2.8431E-05     7.0340  -0.3042    82.5383
 63      0.0000     0.0000E+00    0.0000E+00    2.500000E+09  0.05000  4.233E-05    0   0.5598   age150_m72            0.0000     3.2584E-05     7.7982  -0.6065    80.9379
 64      7.9834     1.5111E+01    1.5750E+01    6.250000E+09  0.05000  1.435E-05    0   0.5249   age166_m72            0.0000     3.5670E-05     8.0660  -1.0000    77.9639
 65      0.0000     0.0000E+00    0.0000E+00    1.300000E+10  0.05000  6.513E-06    0   0.5036   age193_m72            0.0000     4.7622E-05     7.6245  -1.0000    70.1722
 66      7.0160     4.2094E+01    4.1334E+01    1.800000E+10  0.05000  4.527E-06    0   0.4945   age213_m72            0.0000     5.9187E-05     7.7232  -1.0000    65.4121


## Synthesis Results - Average & Chains ##

# j      x_j: min, <> & last-chain-values for 1 ...  7 chains
  1      0.0000      0.0911      0.4255      0.0998      0.0000      1.5358      0.2289      0.2970      0.0000
  2      0.0000      0.1073      0.1371      0.3381      0.0000      0.3314      0.0000      0.0000      2.0589
  3      0.0000      0.1037      0.8860      0.5899      0.0220      0.0000      0.0000      0.1318      0.0000
  4      0.0000      0.1295      0.4637      0.0000      0.0000      0.2518      0.0848      0.0000      0.9443
  5      0.0000      0.1041      0.4240      0.2248      0.0252      0.0000      0.3130      0.0000      0.1267
  6      0.0000      0.0837      0.0000      0.0000      0.4609      0.9785      0.0000      0.1211      0.0596
  7      0.0000      0.1502      0.5526      0.9965      0.3398      0.4424      0.1717      1.0632      0.3811
  8      0.0000      0.1187      0.0000      0.7315      0.1118      0.0000      0.1284      0.1759      1.0210
  9      0.0000      0.1116      0.5492      0.3129      0.0000      0.0000      0.1194      0.5612      0.9914
 10      0.0000      0.1047      0.3448      0.1218      0.5898      0.8070      0.1137      0.1632      0.5036
 11      0.0000      0.0885      0.9315      0.4549      0.0152      0.6440      0.5779      0.0000      0.1647
 12      0.0000      0.1291      0.2106      0.4337      0.6611      0.4660      1.6162      0.3926      0.9387
 13      0.0000      0.1173      0.2728      0.1343      0.0000      0.6945      0.1591      0.3228      0.5557
 14      0.0000      0.1249      0.7496      0.5617      0.2142      0.1109      0.0193      0.0000      0.2129
 15      0.0000      0.1055      0.2338      0.6741      0.0000      0.1822      0.6415      0.0640      0.2646
 16      0.0000      0.1497      0.0000      0.2693      0.0485      0.4513      0.0000      0.4150      0.6385
 17      0.0000      0.1103      0.0000      0.1406      0.0000      0.0000      0.1655      0.1929      0.5964
 18      0.0000      0.1155      0.5258      0.4481      0.5445      0.0000      0.0000      0.0897      1.3557
 19      0.0000      0.1531      1.0957      0.7261      0.2669      0.3799      0.6268      0.1561      0.3110
 20      0.0000      0.1451      1.0858      0.9054      0.1588      0.0000      0.5054      0.6270      0.0000
 21      0.0000      0.1301      0.4203      0.4388      0.4716      0.5677      0.0067      0.3495      0.3071
 22      0.0000      0.1105      0.8161      0.7061      1.1904      0.0000      0.6791      0.4939      0.3696
 23      0.0000      0.1229      0.6093      0.4815      0.2277      0.0000      0.0000      0.2260      1.2780
 24      4.3818      0.1148      0.0639      0.1155      0.4207      0.2854      0.3245      0.8165      0.3004
 25      4.9038      0.1464      0.0000      0.0358      0.2912      0.3313      0.7538      0.1960      0.2779
 26      0.0000      0.1614      0.0760      1.4576      0.2130      0.5659      0.3653      0.1560      1.2858
 27      0.0000      0.1194      0.4340      0.0000      0.0000      0.2602      0.4284      0.2177      0.3411
 28      0.0000      0.1305      0.1092      0.0000      0.1106      0.1130      0.3021      0.7080      0.0000
 29      1.9586      0.1027      0.0000      0.1356      0.3199      1.0379      0.3566      0.1432      0.4227
 30      0.0000      0.1299      0.3893      0.1415      0.5882      0.4115      0.0000      0.4818      0.5052
 31      0.0000      0.1837      0.2690      0.4987      0.8379      0.0494      1.4094      0.3219      1.4419
 32      0.0000      0.1482      0.6559      0.0000      0.0000      0.3581      0.0000      0.0000      0.0000
 33      0.0000      0.1075      0.0000      0.1656      0.2382      2.1358      0.2572      0.5424      0.5947
 34      0.0000      0.0949      1.1341      0.0000      0.0000      0.0000      0.1901      0.0000      0.3255
 35      0.0000      0.1267      0.0000      0.8169      2.3796      0.0000      0.2075      0.6625      0.0000
 36      0.0000      0.0930      0.5579      0.0000      0.5559      0.2145      0.2137      0.0327      0.0771
 37      7.7761      0.1063      0.1120      0.1038      0.6966      0.1931      0.0000      0.5724      0.2432
 38      0.0000      0.1716      0.0874      0.1187      0.1522      0.4530      1.7504      0.5952      0.6471
 39      0.0000      0.1681      0.6787      0.4048      0.8467      1.1146      0.0000      1.1366      0.5354
 40     12.9884      0.0966      0.0398      0.4343      0.2392      0.2092      0.5900      0.6422      0.0000
 41      0.0000      0.1109      0.0000      0.9188      0.0000      0.5870      0.3897      0.2839      0.3924
 42      0.0000      0.1429      0.0000      1.3223      0.0000      0.2581      0.0000      0.1650      0.3809
 43      0.0000      0.0879      0.1442      1.0802      0.0000      0.2945      0.7490      0.0000      0.3101
 44      0.0000     22.0592     18.1662     18.9028     19.7268     16.2407     17.9537     18.3609     15.3547
 45      4.5592      0.0992      0.0000      0.5097      0.4659      0.6071      0.3016      0.6095      0.0464
 46      0.0000      0.1156      0.0000      0.6200      0.2603      0.0634      0.6795      0.6300      0.7115
