###################################################################
## OUTPUT of StarlightChains_v04.for    [Cid@UFSC - 01/Apr/2007] ##
###################################################################

## Some input info
KUG0210-078._33_36.txt                   [arq_obs]
Base.CB07.vall.4m                        [arq_base]
Masks.EmLines.NEW.gm                     [arq_masks]
StCv04.C11.config                        [arq_config]
   66                                    [N_base]
    0                                    [N_YAV_components = # of components with extra extinction!]
    0                                    [i_FitPowerLaw (1/0 = Yes/No)]
-9.99                                    [alpha_PowerLaw]
CCM                                      [red_law_option]
 1.458241                                [q_norm = A(l_norm)/A(V)]

## (Re)Sampling Parameters
 3741.00                                 [l_ini (A)]
 7218.00                                 [l_fin (A)]
    1.00                                 [dl    (A)]     (OBS: dl_cushion =    50.00 A)

## Normalization info
 4020.00                                 [l_norm (A) - for base]
 4010.00                                 [llow_norm (A) - window for f_obs]
 4060.00                                 [lupp_norm (A) - window for f_obs]
3.315730E-17                             [fobs_norm (in input units)]

## S/N
 3691.00                                 [llow_SN (A) - window for S/N]
 7268.00                                 [lupp_SN (A) - window for S/N]
   3.496                                 [S/N in S/N window]
   1.994                                 [S/N in norm. window]
   0.076                                 [S/N_err in S/N window]
   0.043                                 [S/N_err in norm. window]
  1.0000                                 [fscale_chi2]

## etc...
    -2007511                             [idum_orig]
  2432                                   [NOl_eff]
  2420                                   [Nl_eff]
    12    NSIGMA                         [Ntot_cliped & clip_method]
  6319600                                [Nglobal_steps]
   7                                     [N_chains]
  47                                     [NEX0s_base = N_base in EX0s-fits]
 0   0   1       12   2.0   4.736E+03    [Clip-Bug, RC-Crash & Burn-In warning-flags, n_censored_weights, wei_nsig_threshold & wei_limit]
    73     71.931     71.172      0.759  [idt_all, wdt_TotTime, wdt_UsrTime & wdt_SysTime (sec)]

## Synthesis Results - Best model ##

 2.07855E-05                             [chi2/Nl_eff]
     4.68630                             [adev (%)]

   113.96239                             [sum-of-x (%)]
 1.10097E-16                             [Flux_tot (units of input spectrum!)]
 3.60870E-12                             [Mini_tot (???)]
 1.91152E-12                             [Mcor_tot (???)]

 -56.91                                  [v0_min  (km/s)]
 166.22                                  [vd_min  (km/s)]
 0.7962                                  [AV_min  (mag)]
 0.0000                                  [YAV_min (mag)]

# j     x_j(%)      Mini_j(%)     Mcor_j(%)     age_j(yr)     Z_j      (L/M)_j    YAV?  Mstars   component_j        a/Fe...       SSP_chi2r SSP_adev(%)   SSP_AV   SSP_x(%)
  1      0.4063     9.9413E-04    1.8768E-03    1.000000E+06  0.00400  1.094E-02    0   1.0000   age020_m42            0.0000     1.4266E-04    13.9376   4.0000   110.2940
  2      0.0000     0.0000E+00    0.0000E+00    3.160000E+06  0.00400  4.007E-02    0   0.9999   age045_m42            0.0000     7.9209E-05     9.5480   3.6671   103.2140
  3      0.0000     0.0000E+00    0.0000E+00    5.010000E+06  0.00400  2.539E-02    0   0.9488   age055_m42            0.0000     8.6172E-05     9.9231   3.9918   100.5420
  4      0.0000     0.0000E+00    0.0000E+00    6.610000E+06  0.00400  2.620E-02    0   0.9220   age061_m42            0.0000     8.0819E-05     9.6546   3.5935   103.3578
  5      0.0000     0.0000E+00    0.0000E+00    1.000000E+07  0.00400  1.322E-02    0   0.8862   age070_m42            0.0000     9.7944E-05    11.1217   3.3016   105.5076
  6      0.0000     0.0000E+00    0.0000E+00    1.445000E+07  0.00400  7.883E-03    0   0.8571   age078_m42            0.0000     1.0007E-04    11.1490   3.6298   102.8578
  7      0.0000     0.0000E+00    0.0000E+00    2.512000E+07  0.00400  5.251E-03    0   0.8174   age090_m42            0.0000     1.0133E-04    11.4072   3.1705   106.0655
  8      0.0000     0.0000E+00    0.0000E+00    4.000000E+07  0.00400  3.649E-03    0   0.7851   age104_m42            0.0000     9.5617E-05    11.0704   2.9430   107.0106
  9      0.0000     0.0000E+00    0.0000E+00    5.500000E+07  0.00400  3.098E-03    0   0.7629   age110_m42            0.0000     8.6810E-05    10.2818   3.0989   107.0928
 10      0.0000     0.0000E+00    0.0000E+00    1.015200E+08  0.00400  2.228E-03    0   0.7207   age116_m42            0.0000     8.1676E-05     9.8208   3.1208   107.3177
 11      0.0000     0.0000E+00    0.0000E+00    2.861200E+08  0.00400  1.093E-03    0   0.6648   age125_m42            0.0000     8.6772E-05    10.3990   2.5360   110.6986
 12      0.0000     0.0000E+00    0.0000E+00    5.088000E+08  0.00400  6.597E-04    0   0.6365   age130_m42            0.0000     7.5101E-05     9.4594   2.5306   111.7082
 13      0.0000     0.0000E+00    0.0000E+00    1.434000E+09  0.00400  2.132E-04    0   0.5798   age139_m42            0.0000     5.3710E-05     8.0618   1.5699   113.7761
 14      6.3315     2.8753E+00    2.9188E+00    4.250000E+09  0.00400  5.895E-05    0   0.5377   age158_m42            0.0000     3.6887E-05     6.5960   1.1419   109.2720
 15      4.6527     3.5486E+00    3.4917E+00    7.500000E+09  0.00400  3.510E-05    0   0.5212   age171_m42            0.0000     3.1978E-05     6.0721   0.9550   108.5830
 16      0.7221     9.6416E-01    9.1629E-01    1.300000E+10  0.00400  2.005E-05    0   0.5034   age193_m42            0.0000     2.8882E-05     5.6532   0.7898   108.0467
 17      0.0106     1.8655E-02    1.7493E-02    1.800000E+10  0.00400  1.525E-05    0   0.4967   age213_m42            0.0000     2.9925E-05     5.7983   0.7667   107.5564
 18      0.0000     0.0000E+00    0.0000E+00    1.000000E+06  0.00800  1.238E-02    0   1.0000   age020_m52            0.0000     1.4165E-04    13.8659   4.0000   110.3974
 19      0.0000     0.0000E+00    0.0000E+00    3.160000E+06  0.00800  3.074E-02    0   0.9966   age045_m52            0.0000     1.2308E-04    12.4907   4.0000   108.7835
 20      0.0000     0.0000E+00    0.0000E+00    5.010000E+06  0.00800  2.668E-02    0   0.9443   age055_m52            0.0000     8.9653E-05     9.9677   4.0000   102.3542
 21      0.0000     0.0000E+00    0.0000E+00    6.610000E+06  0.00800  2.136E-02    0   0.9177   age061_m52            0.0000     8.6109E-05    10.5921   2.8064   106.7236
 22      0.0000     0.0000E+00    0.0000E+00    1.000000E+07  0.00800  1.215E-02    0   0.8827   age070_m52            0.0000     1.0670E-04    11.7272   3.4738   105.3667
 23      0.0000     0.0000E+00    0.0000E+00    1.445000E+07  0.00800  8.717E-03    0   0.8552   age078_m52            0.0000     9.8756E-05    11.1142   3.5935   104.3454
 24      0.0000     0.0000E+00    0.0000E+00    2.512000E+07  0.00800  5.592E-03    0   0.8162   age090_m52            0.0000     1.0216E-04    11.4736   3.2299   107.4164
 25      0.0000     0.0000E+00    0.0000E+00    4.000000E+07  0.00800  3.896E-03    0   0.7841   age104_m52            0.0000     9.5538E-05    11.0339   3.1409   108.3345
 26      0.0000     0.0000E+00    0.0000E+00    1.015200E+08  0.00800  2.148E-03    0   0.7226   age116_m52            0.0000     8.3889E-05    10.1614   3.0835   108.1977
 27      0.0000     0.0000E+00    0.0000E+00    2.861200E+08  0.00800  9.925E-04    0   0.6683   age125_m52            0.0000     7.4531E-05     9.4122   2.5949   112.7487
 28      2.6301     2.2416E-01    2.5976E-01    9.047900E+08  0.00800  3.141E-04    0   0.6138   age135_m52            0.0000     4.9660E-05     7.5506   1.7960   117.7811
 29      0.0000     0.0000E+00    0.0000E+00    1.434000E+09  0.00800  1.719E-04    0   0.5853   age139_m52            0.0000     4.1878E-05     7.0856   1.2195   115.2184
 30      0.0000     0.0000E+00    0.0000E+00    2.500000E+09  0.00800  7.872E-05    0   0.5600   age150_m52            0.0000     2.8421E-05     5.6833   0.9697   111.8741
 31      6.8945     4.2567E+00    4.3604E+00    4.250000E+09  0.00800  4.336E-05    0   0.5426   age158_m52            0.0000     2.7924E-05     5.6441   0.9555   110.8084
 32     10.0005     8.4749E+00    8.5101E+00    6.250000E+09  0.00800  3.159E-05    0   0.5319   age166_m52            0.0000     2.3385E-05     4.9954   0.7563   110.8251
 33      0.0000     0.0000E+00    0.0000E+00    1.300000E+10  0.00800  1.361E-05    0   0.5073   age193_m52            0.0000     2.0226E-05     4.4402   0.2944   110.0359
 34      0.0000     0.0000E+00    0.0000E+00    1.800000E+10  0.00800  9.886E-06    0   0.4990   age213_m52            0.0000     1.9481E-05     4.2037   0.1886   109.5538
 35      0.0000     0.0000E+00    0.0000E+00    1.000000E+06  0.02000  1.544E-02    0   1.0000   age020_m62            0.0000     1.4116E-04    13.8089   4.0000   110.5326
 36      0.0000     0.0000E+00    0.0000E+00    3.160000E+06  0.02000  3.762E-02    0   0.9858   age045_m62            0.0000     1.2693E-04    12.7282   4.0000   109.4465
 37      0.0000     0.0000E+00    0.0000E+00    5.010000E+06  0.02000  3.296E-02    0   0.9342   age055_m62            0.0000     8.1958E-05     9.5878   3.9503   101.8811
 38      0.0000     0.0000E+00    0.0000E+00    8.710000E+06  0.02000  1.154E-02    0   0.8861   age067_m62            0.0000     1.6918E-04    15.4559   2.9001   108.2559
 39      0.4639     1.6205E-03    2.5918E-03    1.445000E+07  0.02000  7.663E-03    0   0.8472   age078_m62            0.0000     1.2140E-04    12.8124   3.1065   107.8958
 40      0.0000     0.0000E+00    0.0000E+00    2.512000E+07  0.02000  4.532E-03    0   0.8099   age090_m62            0.0000     1.2644E-04    13.0755   3.0959   107.5620
 41      0.0000     0.0000E+00    0.0000E+00    5.500000E+07  0.02000  2.733E-03    0   0.7595   age110_m62            0.0000     9.5308E-05    11.0212   3.1255   107.4860
 42      0.4276     8.3609E-03    1.1025E-02    1.609000E+08  0.02000  1.369E-03    0   0.6985   age120_m62            0.0000     8.2069E-05     9.9601   2.9645   110.6320
 43      0.0000     0.0000E+00    0.0000E+00    2.861200E+08  0.02000  9.013E-04    0   0.6714   age125_m62            0.0000     7.4571E-05     9.3745   2.7141   113.9702
 44      0.0000     0.0000E+00    0.0000E+00    5.088000E+08  0.02000  5.028E-04    0   0.6449   age130_m62            0.0000     5.6675E-05     7.9195   2.3378   117.3065
 45      8.5011     9.3732E-01    1.0934E+00    9.047900E+08  0.02000  2.428E-04    0   0.6179   age135_m62            0.0000     3.7913E-05     6.5398   1.7539   116.6697
 46      0.0000     0.0000E+00    0.0000E+00    1.434000E+09  0.02000  1.263E-04    0   0.5908   age139_m62            0.0000     3.0535E-05     5.9753   1.3169   114.7739
 47      1.0951     4.8985E-01    5.2463E-01    2.500000E+09  0.02000  5.985E-05    0   0.5673   age150_m62            0.0000     2.3213E-05     5.0513   0.9592   113.1255
 48      0.0000     0.0000E+00    0.0000E+00    4.250000E+09  0.02000  3.271E-05    0   0.5468   age158_m62            0.0000     1.9125E-05     4.3168   0.6610   112.1160
 49      8.8787     1.7477E+01    1.7048E+01    1.000000E+10  0.02000  1.360E-05    0   0.5167   age181_m62            0.0000     1.9794E-05     4.1710   0.3162   111.7033
 50      0.0000     0.0000E+00    0.0000E+00    1.800000E+10  0.02000  7.124E-06    0   0.5013   age213_m62            0.0000     2.3477E-05     4.4929   0.1077   110.9073
 51      0.0000     0.0000E+00    0.0000E+00    1.000000E+06  0.05000  2.592E-02    0   0.9998   age020_m72            0.0000     1.4117E-04    13.7336   4.0000   110.2862
 52      0.0000     0.0000E+00    0.0000E+00    3.160000E+06  0.05000  4.845E-02    0   0.9577   age045_m72            0.0000     1.0202E-04    10.7904   4.0000   106.7547
 53      0.0000     0.0000E+00    0.0000E+00    5.010000E+06  0.05000  3.072E-02    0   0.9147   age055_m72            0.0000     1.1333E-04    11.9599   3.6908   104.0235
 54      0.0000     0.0000E+00    0.0000E+00    6.610000E+06  0.05000  1.455E-02    0   0.8877   age061_m72            0.0000     2.3914E-04    18.6701   2.8905   109.8769
 55      0.0000     0.0000E+00    0.0000E+00    1.000000E+07  0.05000  9.074E-03    0   0.8524   age070_m72            0.0000     1.3295E-04    12.8035   3.8397   104.3469
 56      0.0000     0.0000E+00    0.0000E+00    2.512000E+07  0.05000  4.250E-03    0   0.7902   age090_m72            0.0000     1.1741E-04    12.1811   3.5610   105.8413
 57      0.0000     0.0000E+00    0.0000E+00    4.000000E+07  0.05000  3.087E-03    0   0.7618   age104_m72            0.0000     1.1968E-04    12.4025   3.3304   107.6252
 58      0.0000     0.0000E+00    0.0000E+00    1.015200E+08  0.05000  1.700E-03    0   0.7096   age116_m72            0.0000     9.1953E-05    10.6368   3.0989   110.2413
 59      0.0000     0.0000E+00    0.0000E+00    2.861200E+08  0.05000  7.384E-04    0   0.6633   age125_m72            0.0000     6.4462E-05     8.6255   2.5817   115.7367
 60      0.2970     2.0816E-02    2.5041E-02    5.088000E+08  0.05000  3.819E-04    0   0.6372   age130_m72            0.0000     4.3336E-05     6.9886   2.0961   117.7690
 61     16.4674     2.6304E+00    3.0341E+00    9.047900E+08  0.05000  1.676E-04    0   0.6110   age135_m72            0.0000     2.5364E-05     5.3220   1.4160   115.4577
 62      0.0000     0.0000E+00    0.0000E+00    1.434000E+09  0.05000  8.837E-05    0   0.5874   age139_m72            0.0000     2.2734E-05     4.9974   0.9545   114.9743
 63     34.2780     2.1679E+01    2.2911E+01    2.500000E+09  0.05000  4.233E-05    0   0.5598   age150_m72            0.0000     1.8513E-05     4.2083   0.6588   113.2454
 64      8.4024     1.5675E+01    1.5533E+01    6.250000E+09  0.05000  1.435E-05    0   0.5249   age166_m72            0.0000     2.0574E-05     4.2878   0.2187   111.3451
 65      0.0000     0.0000E+00    0.0000E+00    1.300000E+10  0.05000  6.513E-06    0   0.5036   age193_m72            0.0000     2.7257E-05     4.9143  -0.0593   112.4615
 66      3.5033     2.0717E+01    1.9340E+01    1.800000E+10  0.05000  4.527E-06    0   0.4945   age213_m72            0.0000     3.3549E-05     5.4791  -0.2205   112.3050


## Synthesis Results - Average & Chains ##

# j      x_j: min, <> & last-chain-values for 1 ...  7 chains
  1      0.4063      2.0651      8.7115      0.9960      4.0230      0.9029      0.0000      8.3322      3.4736
  2      0.0000      0.6653      0.0000      0.0000      0.0000      2.8284      0.7612      0.6088      3.6157
  3      0.0000      0.8286      2.3551      1.6339      1.6524      0.5885      3.1061      0.0000      1.3869
  4      0.0000      1.0736      2.2867      1.6353      3.5812      1.6374      0.0000      2.2352      4.1983
  5      0.0000      0.7151      0.0000      4.4910      0.0000      2.0297      1.8309      1.9102      0.8064
  6      0.0000      1.2339      1.5477      2.1560      2.5096      1.7273      0.3542      2.1249      0.0000
  7      0.0000      0.7034      3.0255      2.8138      0.5422      0.0000      0.0000      1.7660      2.9327
  8      0.0000      0.7203      1.9233      0.4088      0.7730      2.7508      0.0000      0.7024      0.3718
  9      0.0000      0.9907      0.8442      1.7125      4.1322      1.1605      2.3202      4.2682      0.0000
 10      0.0000      0.6204      0.1800      1.1965      0.6758      1.9566      3.1319      0.0000      0.0000
 11      0.0000      0.9545      0.8354      3.8324      0.1476      1.9526      1.7286      3.5078      1.1155
 12      0.0000      0.8850      1.7061      0.6720      0.0000      0.3551      0.4927      1.1146      1.3752
 13      0.0000      0.8141      1.1726      0.7470      1.0357      2.5759      0.9862      1.9065      0.2753
 14      6.3315      0.9970      0.8795      0.1728      3.4703      0.9482      1.5993      3.6101      2.7912
 15      4.6527      1.0324      0.2083      0.0000      3.5054      0.9886      0.0000      0.5777      2.4353
 16      0.7221      0.8786      0.0000      1.4577      0.2351      0.7709      1.6010      0.0000      0.3142
 17      0.0106      0.8531      1.9709      3.3699      0.4641      0.4669      0.0293      0.0000      0.0000
 18      0.0000      0.5814      0.0000      0.0000      1.0374      0.7219      0.0000      0.0000      1.5126
 19      0.0000      0.5847      1.4467      0.6069      1.4196      1.4582      0.8116      0.0000      0.0000
 20      0.0000      0.8305      1.5330      4.3609      0.0661      1.6774      0.6216      1.7043      4.3618
 21      0.0000      0.9317      1.0058      1.0417      1.2018      1.0310      2.4894      1.3625      1.9614
 22      0.0000      0.7492      1.4860      1.3513      0.1969      0.9867      0.4994      0.2147      0.0056
 23      0.0000      0.9936      2.3537      0.3400      0.0000      1.5848      5.2670      0.0000      0.1385
 24      0.0000      0.8025      0.0000      4.0908      0.0468      2.0689      0.0000      0.0000      0.3213
 25      0.0000      0.6684      1.5234      4.8089      0.8854      0.0000      0.5061      0.0000      1.5816
 26      0.0000      1.2061      2.9434      3.3419      3.6189      1.9753      0.0000      1.1045      1.4579
 27      0.0000      0.7796      0.2084      2.4628      2.2736      1.3490      0.0000      1.7937      1.7795
 28      2.6301      0.8886      2.4165      1.0294      0.0000      3.5976      0.0000      1.9382      1.1480
 29      0.0000      0.5682      2.5557      0.0000      0.0000      0.4334      1.1307      0.1426      0.0000
 30      0.0000      1.0077      1.8603      0.1886      2.8745      0.0000      1.6642      1.3551      1.2309
 31      6.8945      1.0082      2.1603      1.4171      4.7294      5.8562      1.2639      0.0000      0.0000
 32     10.0005      0.7498      0.0000      0.0000      1.5480      2.0567      3.8553      0.0000      2.6321
 33      0.0000      0.7884      1.2276      1.1609      0.0000      0.0615      0.7919      0.0000      0.0000
 34      0.0000      0.9098      1.3033      1.4969      0.0661      0.0000      0.0000      0.4337      2.1019
 35      0.0000      1.0505      0.8281      1.9340      2.9111      1.2877      1.9879      1.6541      1.6546
 36      0.0000      4.3887      1.5407      3.7960      5.9740      2.2161      4.2582      4.0592      3.6057
 37      0.0000      0.6756      2.6226      0.3865      0.0000      2.3689      1.0675      0.4173      0.4957
 38      0.0000     26.5044     12.0126      9.0129     17.4792     16.4703     15.3307     18.3908     16.3190
 39      0.4639      0.6029      0.1561      0.5192      0.7520      1.2255      2.2540      1.1199      0.0000
 40      0.0000      0.9080      1.7147      0.4785      1.1793      1.1064      0.8057      0.6506      1.6313
 41      0.0000      0.7231      0.0000      0.5801      0.3934      0.0000      0.0000      1.1199      1.0383
 42      0.4276      0.7170      4.7714      1.0992      0.0000      3.6657      0.6350      2.2848      0.2816
 43      0.0000      0.9057      1.2708      1.1491      0.9624      0.0083      4.9043      0.7177      0.6797
 44      0.0000      0.7678      1.5633      0.8690      0.5157      2.7089      1.4166      0.0000      2.7019
 45      8.5011      0.9848      2.5520      0.0000      0.9491      4.7210      0.4050      4.3936      0.2786
 46      0.0000      0.5681      0.2975      3.5553      0.0680      0.1866      2.6256      1.4844      0.0000
