###################################################################
## OUTPUT of StarlightChains_v04.for    [Cid@UFSC - 01/Apr/2007] ##
###################################################################

## Some input info
KUG0210-078._37_30.txt                   [arq_obs]
Base.CB07.vall.4m                        [arq_base]
Masks.EmLines.NEW.gm                     [arq_masks]
StCv04.C11.config                        [arq_config]
   66                                    [N_base]
    0                                    [N_YAV_components = # of components with extra extinction!]
    0                                    [i_FitPowerLaw (1/0 = Yes/No)]
-9.99                                    [alpha_PowerLaw]
CCM                                      [red_law_option]
 1.458241                                [q_norm = A(l_norm)/A(V)]

## (Re)Sampling Parameters
 3741.00                                 [l_ini (A)]
 7218.00                                 [l_fin (A)]
    1.00                                 [dl    (A)]     (OBS: dl_cushion =    50.00 A)

## Normalization info
 4020.00                                 [l_norm (A) - for base]
 4010.00                                 [llow_norm (A) - window for f_obs]
 4060.00                                 [lupp_norm (A) - window for f_obs]
1.886922E-17                             [fobs_norm (in input units)]

## S/N
 3691.00                                 [llow_SN (A) - window for S/N]
 7268.00                                 [lupp_SN (A) - window for S/N]
   4.564                                 [S/N in S/N window]
   4.641                                 [S/N in norm. window]
   0.029                                 [S/N_err in S/N window]
   0.030                                 [S/N_err in norm. window]
  1.0000                                 [fscale_chi2]

## etc...
    -2007624                             [idum_orig]
  2423                                   [NOl_eff]
  1811                                   [Nl_eff]
   612    NSIGMA                         [Ntot_cliped & clip_method]
 10221400                                [Nglobal_steps]
   7                                     [N_chains]
   7                                     [NEX0s_base = N_base in EX0s-fits]
 0   0   1        0   2.0   2.083E+04    [Clip-Bug, RC-Crash & Burn-In warning-flags, n_censored_weights, wei_nsig_threshold & wei_limit]
    67     66.573     66.011      0.563  [idt_all, wdt_TotTime, wdt_UsrTime & wdt_SysTime (sec)]

## Synthesis Results - Best model ##

 1.08362E-05                             [chi2/Nl_eff]
     6.52363                             [adev (%)]

   130.00000                             [sum-of-x (%)]
 6.71348E-18                             [Flux_tot (units of input spectrum!)]
 2.18364E-13                             [Mini_tot (???)]
 1.16425E-13                             [Mcor_tot (???)]

  -7.91                                  [v0_min  (km/s)]
  96.75                                  [vd_min  (km/s)]
-0.9648                                  [AV_min  (mag)]
 0.0000                                  [YAV_min (mag)]

# j     x_j(%)      Mini_j(%)     Mcor_j(%)     age_j(yr)     Z_j      (L/M)_j    YAV?  Mstars   component_j        a/Fe...       SSP_chi2r SSP_adev(%)   SSP_AV   SSP_x(%)
  1      0.0000     0.0000E+00    0.0000E+00    1.000000E+06  0.00400  1.094E-02    0   1.0000   age020_m42            0.0000     1.6194E-05     8.2532   2.2674   129.0855
  2      0.0000     0.0000E+00    0.0000E+00    3.160000E+06  0.00400  4.007E-02    0   0.9999   age045_m42            0.0000     1.5925E-05     7.7037   1.6201   133.4320
  3      0.0000     0.0000E+00    0.0000E+00    5.010000E+06  0.00400  2.539E-02    0   0.9488   age055_m42            0.0000     1.5571E-05     7.8706   1.9010   132.3741
  4      0.0000     0.0000E+00    0.0000E+00    6.610000E+06  0.00400  2.620E-02    0   0.9220   age061_m42            0.0000     1.5308E-05     7.5510   1.5453   133.8402
  5      0.0000     0.0000E+00    0.0000E+00    1.000000E+07  0.00400  1.322E-02    0   0.8862   age070_m42            0.0000     1.4084E-05     6.8867   1.2483   138.0587
  6      0.0000     0.0000E+00    0.0000E+00    1.445000E+07  0.00400  7.883E-03    0   0.8571   age078_m42            0.0000     1.4512E-05     7.1251   1.5603   135.3409
  7      0.0000     0.0000E+00    0.0000E+00    2.512000E+07  0.00400  5.251E-03    0   0.8174   age090_m42            0.0000     1.3988E-05     6.7480   1.1269   138.4379
  8      0.0000     0.0000E+00    0.0000E+00    4.000000E+07  0.00400  3.649E-03    0   0.7851   age104_m42            0.0000     1.3836E-05     6.6768   0.9158   138.5624
  9      0.0000     0.0000E+00    0.0000E+00    5.500000E+07  0.00400  3.098E-03    0   0.7629   age110_m42            0.0000     1.4534E-05     6.8851   1.0862   137.2795
 10      0.0000     0.0000E+00    0.0000E+00    1.015200E+08  0.00400  2.228E-03    0   0.7207   age116_m42            0.0000     1.4699E-05     6.9778   1.1173   136.8181
 11      0.0000     0.0000E+00    0.0000E+00    2.861200E+08  0.00400  1.093E-03    0   0.6648   age125_m42            0.0000     1.3925E-05     6.8375   0.5581   140.3424
 12      0.0000     0.0000E+00    0.0000E+00    5.088000E+08  0.00400  6.597E-04    0   0.6365   age130_m42            0.0000     1.3836E-05     6.8369   0.5623   140.5830
 13      0.0000     0.0000E+00    0.0000E+00    1.434000E+09  0.00400  2.132E-04    0   0.5798   age139_m42            0.0000     1.1593E-05     6.1633  -0.3731   141.1765
 14      0.0000     0.0000E+00    0.0000E+00    4.250000E+09  0.00400  5.895E-05    0   0.5377   age158_m42            0.0000     1.0650E-05     6.5712  -0.8204   135.5965
 15      0.0000     0.0000E+00    0.0000E+00    7.500000E+09  0.00400  3.510E-05    0   0.5212   age171_m42            0.0000     1.0644E-05     6.7612  -1.0000   134.2351
 16      0.0000     0.0000E+00    0.0000E+00    1.300000E+10  0.00400  2.005E-05    0   0.5034   age193_m42            0.0000     1.2185E-05     7.2861  -1.0000   128.0236
 17      0.0000     0.0000E+00    0.0000E+00    1.800000E+10  0.00400  1.525E-05    0   0.4967   age213_m42            0.0000     1.2316E-05     7.4611  -1.0000   126.6904
 18      0.0000     0.0000E+00    0.0000E+00    1.000000E+06  0.00800  1.238E-02    0   1.0000   age020_m52            0.0000     1.6147E-05     8.2518   2.2638   129.3376
 19      0.0000     0.0000E+00    0.0000E+00    3.160000E+06  0.00800  3.074E-02    0   0.9966   age045_m52            0.0000     1.6021E-05     8.2139   2.1915   130.2308
 20      0.0000     0.0000E+00    0.0000E+00    5.010000E+06  0.00800  2.668E-02    0   0.9443   age055_m52            0.0000     1.5446E-05     7.8550   1.9755   131.6452
 21      0.0000     0.0000E+00    0.0000E+00    6.610000E+06  0.00800  2.136E-02    0   0.9177   age061_m52            0.0000     1.2476E-05     6.6875   0.7390   140.0956
 22      0.0000     0.0000E+00    0.0000E+00    1.000000E+07  0.00800  1.215E-02    0   0.8827   age070_m52            0.0000     1.4053E-05     6.8338   1.4197   138.3450
 23      0.0000     0.0000E+00    0.0000E+00    1.445000E+07  0.00800  8.717E-03    0   0.8552   age078_m52            0.0000     1.4312E-05     6.9847   1.5338   136.7904
 24      0.0000     0.0000E+00    0.0000E+00    2.512000E+07  0.00800  5.592E-03    0   0.8162   age090_m52            0.0000     1.4024E-05     6.6379   1.2071   139.1418
 25      0.0000     0.0000E+00    0.0000E+00    4.000000E+07  0.00800  3.896E-03    0   0.7841   age104_m52            0.0000     1.4155E-05     6.6839   1.1405   138.7512
 26      0.0000     0.0000E+00    0.0000E+00    1.015200E+08  0.00800  2.148E-03    0   0.7226   age116_m52            0.0000     1.4238E-05     6.8045   1.0956   137.3299
 27      0.0000     0.0000E+00    0.0000E+00    2.861200E+08  0.00800  9.925E-04    0   0.6683   age125_m52            0.0000     1.3762E-05     6.6519   0.6470   140.6354
 28      0.0000     0.0000E+00    0.0000E+00    9.047900E+08  0.00800  3.141E-04    0   0.6138   age135_m52            0.0000     1.2914E-05     6.3722  -0.0724   141.1431
 29      0.0000     0.0000E+00    0.0000E+00    1.434000E+09  0.00800  1.719E-04    0   0.5853   age139_m52            0.0000     1.1031E-05     6.3151  -0.6621   138.8529
 30      0.0000     0.0000E+00    0.0000E+00    2.500000E+09  0.00800  7.872E-05    0   0.5600   age150_m52            0.0000     1.0648E-05     6.6314  -0.9385   135.0443
 31      0.0000     0.0000E+00    0.0000E+00    4.250000E+09  0.00800  4.336E-05    0   0.5426   age158_m52            0.0000     1.0643E-05     6.7225  -0.9601   134.1052
 32      0.0000     0.0000E+00    0.0000E+00    6.250000E+09  0.00800  3.159E-05    0   0.5319   age166_m52            0.0000     1.1728E-05     7.0510  -1.0000   128.4046
 33      0.0000     0.0000E+00    0.0000E+00    1.300000E+10  0.00800  1.361E-05    0   0.5073   age193_m52            0.0000     2.4843E-05    13.6535  -1.0000   111.1786
 34      0.0000     0.0000E+00    0.0000E+00    1.800000E+10  0.00800  9.886E-06    0   0.4990   age213_m52            0.0000     3.0132E-05    15.1335  -1.0000   106.6596
 35      0.0000     0.0000E+00    0.0000E+00    1.000000E+06  0.02000  1.544E-02    0   1.0000   age020_m62            0.0000     1.6171E-05     8.2884   2.2550   129.9028
 36      0.0000     0.0000E+00    0.0000E+00    3.160000E+06  0.02000  3.762E-02    0   0.9858   age045_m62            0.0000     1.6098E-05     8.3521   2.1861   131.4276
 37      0.0000     0.0000E+00    0.0000E+00    5.010000E+06  0.02000  3.296E-02    0   0.9342   age055_m62            0.0000     1.5574E-05     7.8236   1.8736   133.1711
 38      0.0000     0.0000E+00    0.0000E+00    8.710000E+06  0.02000  1.154E-02    0   0.8861   age067_m62            0.0000     1.3125E-05     6.5680   0.8209   146.6896
 39      0.0000     0.0000E+00    0.0000E+00    1.445000E+07  0.02000  7.663E-03    0   0.8472   age078_m62            0.0000     1.3533E-05     6.6660   1.0674   141.7457
 40      0.0000     0.0000E+00    0.0000E+00    2.512000E+07  0.02000  4.532E-03    0   0.8099   age090_m62            0.0000     1.3479E-05     6.6819   1.0634   141.1958
 41      0.0000     0.0000E+00    0.0000E+00    5.500000E+07  0.02000  2.733E-03    0   0.7595   age110_m62            0.0000     1.3500E-05     6.6298   1.1100   138.5692
 42      0.0000     0.0000E+00    0.0000E+00    1.609000E+08  0.02000  1.369E-03    0   0.6985   age120_m62            0.0000     1.4059E-05     6.6882   0.9894   139.5868
 43      0.0000     0.0000E+00    0.0000E+00    2.861200E+08  0.02000  9.013E-04    0   0.6714   age125_m62            0.0000     1.4382E-05     6.5668   0.7729   141.3665
 44      0.0000     0.0000E+00    0.0000E+00    5.088000E+08  0.02000  5.028E-04    0   0.6449   age130_m62            0.0000     1.5004E-05     6.5952   0.4555   140.9460
 45      0.0000     0.0000E+00    0.0000E+00    9.047900E+08  0.02000  2.428E-04    0   0.6179   age135_m62            0.0000     1.2398E-05     6.3344  -0.0990   138.0089
 46      0.0000     0.0000E+00    0.0000E+00    1.434000E+09  0.02000  1.263E-04    0   0.5908   age139_m62            0.0000     1.0705E-05     6.3119  -0.5465   135.9681
 47      0.0000     0.0000E+00    0.0000E+00    2.500000E+09  0.02000  5.985E-05    0   0.5673   age150_m62            0.0000     1.0499E-05     6.7460  -0.9213   134.2687
 48      0.0000     0.0000E+00    0.0000E+00    4.250000E+09  0.02000  3.271E-05    0   0.5468   age158_m62            0.0000     1.2920E-05     7.7190  -1.0000   125.2755
 49      6.9475     1.2081E+01    1.1708E+01    1.000000E+10  0.02000  1.360E-05    0   0.5167   age181_m62            0.0000     2.2151E-05    12.3024  -1.0000   112.0912
 50      0.0000     0.0000E+00    0.0000E+00    1.800000E+10  0.02000  7.124E-06    0   0.5013   age213_m62            0.0000     3.0843E-05    15.0907  -1.0000   103.6344
 51      0.0000     0.0000E+00    0.0000E+00    1.000000E+06  0.05000  2.592E-02    0   0.9998   age020_m72            0.0000     1.6103E-05     8.2974   2.2409   130.2816
 52      0.0000     0.0000E+00    0.0000E+00    3.160000E+06  0.05000  4.845E-02    0   0.9577   age045_m72            0.0000     1.5897E-05     8.2161   2.0947   131.7020
 53      0.0000     0.0000E+00    0.0000E+00    5.010000E+06  0.05000  3.072E-02    0   0.9147   age055_m72            0.0000     1.4308E-05     7.3653   1.6311   137.2476
 54      0.0000     0.0000E+00    0.0000E+00    6.610000E+06  0.05000  1.455E-02    0   0.8877   age061_m72            0.0000     1.5513E-05     8.3758   0.8522   149.6159
 55      0.0000     0.0000E+00    0.0000E+00    1.000000E+07  0.05000  9.074E-03    0   0.8524   age070_m72            0.0000     1.5263E-05     8.0079   1.8220   136.5984
 56      0.0000     0.0000E+00    0.0000E+00    2.512000E+07  0.05000  4.250E-03    0   0.7902   age090_m72            0.0000     1.4816E-05     7.3997   1.5557   136.9744
 57      0.0000     0.0000E+00    0.0000E+00    4.000000E+07  0.05000  3.087E-03    0   0.7618   age104_m72            0.0000     1.4732E-05     7.2808   1.3452   138.3905
 58      0.0000     0.0000E+00    0.0000E+00    1.015200E+08  0.05000  1.700E-03    0   0.7096   age116_m72            0.0000     1.4319E-05     6.7459   1.1232   139.6841
 59      0.0000     0.0000E+00    0.0000E+00    2.861200E+08  0.05000  7.384E-04    0   0.6633   age125_m72            0.0000     1.4325E-05     6.4998   0.6862   140.2385
 60      0.0000     0.0000E+00    0.0000E+00    5.088000E+08  0.05000  3.819E-04    0   0.6372   age130_m72            0.0000     1.3231E-05     6.3048   0.2516   138.7053
 61     76.2326     1.0757E+01    1.2327E+01    9.047900E+08  0.05000  1.676E-04    0   0.6110   age135_m72            0.0000     1.1215E-05     6.5178  -0.4166   134.1011
 62      0.0000     0.0000E+00    0.0000E+00    1.434000E+09  0.05000  8.837E-05    0   0.5874   age139_m72            0.0000     1.0468E-05     6.5894  -0.8778   133.6366
 63      0.0000     0.0000E+00    0.0000E+00    2.500000E+09  0.05000  4.233E-05    0   0.5598   age150_m72            0.0000     1.2487E-05     7.4840  -1.0000   125.5340
 64     46.8199     7.7162E+01    7.5965E+01    6.250000E+09  0.05000  1.435E-05    0   0.5249   age166_m72            0.0000     2.5294E-05    13.5439  -1.0000   108.0548
 65      0.0000     0.0000E+00    0.0000E+00    1.300000E+10  0.05000  6.513E-06    0   0.5036   age193_m72            0.0000     3.8952E-05    17.2250  -1.0000    99.0298
 66      0.0000     0.0000E+00    0.0000E+00    1.800000E+10  0.05000  4.527E-06    0   0.4945   age213_m72            0.0000     4.8562E-05    19.1577  -1.0000    93.2412


## Synthesis Results - Average & Chains ##

# j      x_j: min, <> & last-chain-values for 1 ...  7 chains
  1      0.0000      0.2098      0.0000      0.0325      0.0000      0.0326      0.0431      0.0359      0.0785
  2      0.0000      0.1798      0.0215      0.0000      0.0008      0.0000      0.0653      0.0201      0.0676
  3      0.0000      0.2556      0.0555      0.0102      0.0000      0.0118      0.0000      0.0569      0.0245
  4      0.0000      0.2850      0.0091      0.0441      0.0006      0.0133      0.0000      0.0202      0.0000
  5      0.0000      0.2389      0.0044      0.0685      0.0027      0.0249      0.0306      0.0285      0.0648
  6      0.0000      0.2520      0.0165      0.0393      0.0003      0.0640      0.0745      0.0219      0.0271
  7      0.0000      0.2831      0.0058      0.0625      0.0000      0.0071      0.0257      0.0515      0.1196
  8      0.0000      0.2394      0.0078      0.0503      0.0000      0.0010      0.0268      0.0000      0.0000
  9      0.0000      0.2451      0.0000      0.0139      0.0000      0.0000      0.1863      0.0000      0.0000
 10      0.0000      0.1869      0.0099      0.0081      0.0008      0.0218      0.0419      0.0093      0.0117
 11      0.0000      0.2232      0.0079      0.0098      0.0004      0.0125      0.0000      0.0300      0.1398
 12      0.0000      0.3104      0.0127      0.0000      0.0000      0.0000      0.0000      0.0062      0.0106
 13      0.0000      0.2634      0.0000      0.1473      0.0000      0.0000      0.1478      0.0310      0.1699
 14      0.0000      0.3547      0.0049      0.0357      0.0000      0.0225      0.1637      0.0936      0.0556
 15      0.0000      0.2260      0.0074      0.0041      0.0033      0.0000      0.0065      0.0416      0.0168
 16      0.0000      0.2386      0.0000      0.0290      0.0015      0.0091      0.0345      0.0471      0.0000
 17      0.0000      0.1500      0.0031      0.0147      0.0000      0.0632      0.0601      0.0000      0.0124
 18      0.0000      0.1733      0.0025      0.0525      0.0002      0.0126      0.0000      0.0452      0.0039
 19      0.0000      0.2736      0.0421      0.0204      0.0007      0.1088      0.0312      0.0638      0.0195
 20      0.0000      0.1992      0.0000      0.0208      0.0038      0.0012      0.0248      0.0111      0.0571
 21      0.0000      0.3007      0.0073      0.0202      0.0003      0.0541      0.0000      0.0287      0.0294
 22      0.0000      0.2705      0.0000      0.0499      0.0012      0.0286      0.0000      0.0486      0.0458
 23      0.0000      0.2247      0.0112      0.0191      0.0000      0.0000      0.0000      0.0224      0.0000
 24      0.0000      0.2508      0.0268      0.0206      0.0000      0.0554      0.0395      0.0820      0.0000
 25      0.0000      0.2042      0.0000      0.0091      0.0010      0.1038      0.0511      0.0038      0.0130
 26      0.0000      0.2591      0.0000      0.0067      0.0007      0.0039      0.0649      0.0546      0.1028
 27      0.0000      0.2394      0.0142      0.0073      0.0000      0.0114      0.1871      0.0000      0.0296
 28      0.0000      0.2804      0.0029      0.0148      0.0003      0.0437      0.1000      0.0000      0.0649
 29      0.0000      0.2627      0.0000      0.0155      0.0000      0.0254      0.0860      0.0178      0.0409
 30      0.0000      0.1794      0.0284      0.0267      0.0000      0.0056      0.0013      0.0401      0.0444
 31      0.0000      0.1941      0.0104      0.0251      0.0011      0.0377      0.2121      0.0075      0.0144
 32      0.0000      0.2329      0.0000      0.0342      0.0000      0.0408      0.2834      0.0000      0.1827
 33      0.0000      0.2639      0.0028      0.0806      0.0188      0.0657      0.0499      0.0370      0.0907
 34      0.0000      0.2496      0.0506      0.0790      0.0209      0.0722      0.0430      0.0724      0.1247
 35      0.0000      0.2217      0.0047      0.0331      0.0003      0.0000      0.0060      0.0783      0.0000
 36      0.0000      0.2297      0.0000      0.0325      0.0018      0.0044      0.0472      0.0000      0.1082
 37      0.0000      0.2520      0.0311      0.0199      0.0003      0.0000      0.1502      0.0189      0.0550
 38      0.0000      0.2003      0.0051      0.0179      0.0000      0.0000      0.0348      0.0268      0.0000
 39      0.0000      0.2178      0.0182      0.0233      0.0008      0.0351      0.0324      0.0324      0.0582
 40      0.0000      0.2793      0.0021      0.1183      0.0000      0.0443      0.1135      0.0514      0.1806
 41      0.0000      0.2287      0.0000      0.0120      0.0000      0.0101      0.0263      0.0203      0.0525
 42      0.0000      0.2505      0.0030      0.0000      0.0022      0.0252      0.0435      0.0000      0.0282
 43      0.0000      0.2547      0.0092      0.0456      0.0001      0.0000      0.0661      0.0225      0.0688
 44      0.0000      4.0520     10.3412      3.4327      4.9775      3.4891      2.8376      3.4574      1.9470
 45      0.0000     25.4403      8.4408     31.6432     35.0756     31.4607     29.1630     31.6172     29.6829
 46      0.0000      0.1983      0.0055      0.0503      0.0009      0.0998      0.0676      0.0480      0.0948
