###################################################################
## OUTPUT of StarlightChains_v04.for    [Cid@UFSC - 01/Apr/2007] ##
###################################################################

## Some input info
KUG0210-078._30_37.txt                   [arq_obs]
Base.CB07.vall.4m                        [arq_base]
Masks.EmLines.NEW.gm                     [arq_masks]
StCv04.C11.config                        [arq_config]
   66                                    [N_base]
    0                                    [N_YAV_components = # of components with extra extinction!]
    0                                    [i_FitPowerLaw (1/0 = Yes/No)]
-9.99                                    [alpha_PowerLaw]
CCM                                      [red_law_option]
 1.458241                                [q_norm = A(l_norm)/A(V)]

## (Re)Sampling Parameters
 3741.00                                 [l_ini (A)]
 7218.00                                 [l_fin (A)]
    1.00                                 [dl    (A)]     (OBS: dl_cushion =    50.00 A)

## Normalization info
 4020.00                                 [l_norm (A) - for base]
 4010.00                                 [llow_norm (A) - window for f_obs]
 4060.00                                 [lupp_norm (A) - window for f_obs]
7.973744E-17                             [fobs_norm (in input units)]

## S/N
 3691.00                                 [llow_SN (A) - window for S/N]
 7268.00                                 [lupp_SN (A) - window for S/N]
   4.879                                 [S/N in S/N window]
   3.747                                 [S/N in norm. window]
   0.177                                 [S/N_err in S/N window]
   0.136                                 [S/N_err in norm. window]
  1.0000                                 [fscale_chi2]

## etc...
    -2007438                             [idum_orig]
  2432                                   [NOl_eff]
  2420                                   [Nl_eff]
    12    NSIGMA                         [Ntot_cliped & clip_method]
  3435390                                [Nglobal_steps]
   7                                     [N_chains]
  17                                     [NEX0s_base = N_base in EX0s-fits]
 0   0   1       12   2.0   1.139E+04    [Clip-Bug, RC-Crash & Burn-In warning-flags, n_censored_weights, wei_nsig_threshold & wei_limit]
    56     55.606     54.919      0.687  [idt_all, wdt_TotTime, wdt_UsrTime & wdt_SysTime (sec)]

## Synthesis Results - Best model ##

 4.21917E-04                             [chi2/Nl_eff]
     7.92665                             [adev (%)]

   123.14680                             [sum-of-x (%)]
 3.79794E-17                             [Flux_tot (units of input spectrum!)]
 3.61051E-12                             [Mini_tot (???)]
 1.83779E-12                             [Mcor_tot (???)]

 221.78                                  [v0_min  (km/s)]
 187.62                                  [vd_min  (km/s)]
-0.7073                                  [AV_min  (mag)]
 0.0000                                  [YAV_min (mag)]

# j     x_j(%)      Mini_j(%)     Mcor_j(%)     age_j(yr)     Z_j      (L/M)_j    YAV?  Mstars   component_j        a/Fe...       SSP_chi2r SSP_adev(%)   SSP_AV   SSP_x(%)
  1      0.0000     0.0000E+00    0.0000E+00    1.000000E+06  0.00400  1.094E-02    0   1.0000   age020_m42            0.0000     1.1397E-03    13.7451   3.6470    97.1418
  2      0.0000     0.0000E+00    0.0000E+00    3.160000E+06  0.00400  4.007E-02    0   0.9999   age045_m42            0.0000     9.4243E-04    12.8031   2.8722   106.1601
  3      0.0000     0.0000E+00    0.0000E+00    5.010000E+06  0.00400  2.539E-02    0   0.9488   age055_m42            0.0000     1.0370E-03    13.2596   3.2165   102.4336
  4      0.0000     0.0000E+00    0.0000E+00    6.610000E+06  0.00400  2.620E-02    0   0.9220   age061_m42            0.0000     9.6899E-04    13.0052   2.8005   106.3039
  5      0.0000     0.0000E+00    0.0000E+00    1.000000E+07  0.00400  1.322E-02    0   0.8862   age070_m42            0.0000     1.2167E-03    15.0197   2.5461   107.0938
  6      0.0000     0.0000E+00    0.0000E+00    1.445000E+07  0.00400  7.883E-03    0   0.8571   age078_m42            0.0000     1.2362E-03    14.9431   2.8832   103.8915
  7      0.0000     0.0000E+00    0.0000E+00    2.512000E+07  0.00400  5.251E-03    0   0.8174   age090_m42            0.0000     1.2547E-03    15.3497   2.4168   107.6521
  8      0.0000     0.0000E+00    0.0000E+00    4.000000E+07  0.00400  3.649E-03    0   0.7851   age104_m42            0.0000     1.1959E-03    15.0468   2.1797   109.0980
  9      0.0000     0.0000E+00    0.0000E+00    5.500000E+07  0.00400  3.098E-03    0   0.7629   age110_m42            0.0000     1.0599E-03    14.0458   2.3104   110.2612
 10      0.0000     0.0000E+00    0.0000E+00    1.015200E+08  0.00400  2.228E-03    0   0.7207   age116_m42            0.0000     9.8142E-04    13.4637   2.3149   111.2813
 11      0.0000     0.0000E+00    0.0000E+00    2.861200E+08  0.00400  1.093E-03    0   0.6648   age125_m42            0.0000     1.0518E-03    14.1570   1.7348   114.9031
 12      0.0000     0.0000E+00    0.0000E+00    5.088000E+08  0.00400  6.597E-04    0   0.6365   age130_m42            0.0000     9.2286E-04    13.2125   1.7023   117.1707
 13      0.0000     0.0000E+00    0.0000E+00    1.434000E+09  0.00400  2.132E-04    0   0.5798   age139_m42            0.0000     7.9633E-04    12.5402   0.7240   120.2559
 14      0.0000     0.0000E+00    0.0000E+00    4.250000E+09  0.00400  5.895E-05    0   0.5377   age158_m42            0.0000     6.6628E-04    11.2934   0.2899   115.5103
 15     14.5214     3.5339E+00    3.6186E+00    7.500000E+09  0.00400  3.510E-05    0   0.5212   age171_m42            0.0000     6.2585E-04    10.8187   0.0928   115.2122
 16      0.0000     0.0000E+00    0.0000E+00    1.300000E+10  0.00400  2.005E-05    0   0.5034   age193_m42            0.0000     6.0740E-04    10.4534  -0.0782   114.8768
 17      1.1065     6.1981E-01    6.0482E-01    1.800000E+10  0.00400  1.525E-05    0   0.4967   age213_m42            0.0000     6.2003E-04    10.5770  -0.0966   114.1485
 18      0.0000     0.0000E+00    0.0000E+00    1.000000E+06  0.00800  1.238E-02    0   1.0000   age020_m52            0.0000     1.1362E-03    13.7402   3.6423    97.3848
 19      0.0000     0.0000E+00    0.0000E+00    3.160000E+06  0.00800  3.074E-02    0   0.9966   age045_m52            0.0000     1.1141E-03    13.6395   3.5647    98.3619
 20      0.0000     0.0000E+00    0.0000E+00    5.010000E+06  0.00800  2.668E-02    0   0.9443   age055_m52            0.0000     1.0741E-03    13.4993   3.3075   101.1406
 21      0.0000     0.0000E+00    0.0000E+00    6.610000E+06  0.00800  2.136E-02    0   0.9177   age061_m52            0.0000     1.1828E-03    14.9464   2.0568   107.9928
 22      0.0000     0.0000E+00    0.0000E+00    1.000000E+07  0.00800  1.215E-02    0   0.8827   age070_m52            0.0000     1.3265E-03    15.6846   2.7370   106.1473
 23      0.0000     0.0000E+00    0.0000E+00    1.445000E+07  0.00800  8.717E-03    0   0.8552   age078_m52            0.0000     1.2288E-03    14.9761   2.8448   105.5197
 24      0.0000     0.0000E+00    0.0000E+00    2.512000E+07  0.00800  5.592E-03    0   0.8162   age090_m52            0.0000     1.2665E-03    15.4518   2.4775   109.0266
 25      0.0000     0.0000E+00    0.0000E+00    4.000000E+07  0.00800  3.896E-03    0   0.7841   age104_m52            0.0000     1.1776E-03    14.9146   2.3733   110.6992
 26      0.0000     0.0000E+00    0.0000E+00    1.015200E+08  0.00800  2.148E-03    0   0.7226   age116_m52            0.0000     1.0316E-03    13.9328   2.2898   111.7238
 27      0.0000     0.0000E+00    0.0000E+00    2.861200E+08  0.00800  9.925E-04    0   0.6683   age125_m52            0.0000     9.3087E-04    13.3093   1.7672   118.2701
 28      0.0000     0.0000E+00    0.0000E+00    9.047900E+08  0.00800  3.141E-04    0   0.6138   age135_m52            0.0000     7.3918E-04    11.9258   0.9344   125.2761
 29      0.0000     0.0000E+00    0.0000E+00    1.434000E+09  0.00800  1.719E-04    0   0.5853   age139_m52            0.0000     6.9650E-04    11.6219   0.3644   122.2520
 30      0.0000     0.0000E+00    0.0000E+00    2.500000E+09  0.00800  7.872E-05    0   0.5600   age150_m52            0.0000     5.7485E-04    10.3575   0.0908   119.5603
 31      1.5094     2.9735E-01    3.1698E-01    4.250000E+09  0.00800  4.336E-05    0   0.5426   age158_m52            0.0000     5.7962E-04    10.3632   0.0798   118.2316
 32      0.0000     0.0000E+00    0.0000E+00    6.250000E+09  0.00800  3.159E-05    0   0.5319   age166_m52            0.0000     5.3046E-04     9.6770  -0.1396   119.1589
 33      0.0000     0.0000E+00    0.0000E+00    1.300000E+10  0.00800  1.361E-05    0   0.5073   age193_m52            0.0000     4.9487E-04     9.0107  -0.6305   119.6731
 34      0.0000     0.0000E+00    0.0000E+00    1.800000E+10  0.00800  9.886E-06    0   0.4990   age213_m52            0.0000     4.6443E-04     8.4070  -0.7608   120.2475
 35      0.0000     0.0000E+00    0.0000E+00    1.000000E+06  0.02000  1.544E-02    0   1.0000   age020_m62            0.0000     1.1421E-03    13.7789   3.6404    97.5348
 36      0.0000     0.0000E+00    0.0000E+00    3.160000E+06  0.02000  3.762E-02    0   0.9858   age045_m62            0.0000     1.1419E-03    13.7071   3.5802    98.3841
 37      0.0000     0.0000E+00    0.0000E+00    5.010000E+06  0.02000  3.296E-02    0   0.9342   age055_m62            0.0000     9.8146E-04    12.8865   3.1639   104.3155
 38      0.0000     0.0000E+00    0.0000E+00    8.710000E+06  0.02000  1.154E-02    0   0.8861   age067_m62            0.0000     2.0602E-03    19.9833   2.2446   105.7492
 39      0.0000     0.0000E+00    0.0000E+00    1.445000E+07  0.02000  7.663E-03    0   0.8472   age078_m62            0.0000     1.5156E-03    16.9471   2.3962   107.7200
 40      0.0000     0.0000E+00    0.0000E+00    2.512000E+07  0.02000  4.532E-03    0   0.8099   age090_m62            0.0000     1.5441E-03    17.1103   2.3835   107.5637
 41      0.0000     0.0000E+00    0.0000E+00    5.500000E+07  0.02000  2.733E-03    0   0.7595   age110_m62            0.0000     1.1912E-03    14.9772   2.3615   109.6490
 42      1.3143     8.2006E-03    1.1253E-02    1.609000E+08  0.02000  1.369E-03    0   0.6985   age120_m62            0.0000     1.0040E-03    13.7980   2.1545   115.0951
 43      0.0000     0.0000E+00    0.0000E+00    2.861200E+08  0.02000  9.013E-04    0   0.6714   age125_m62            0.0000     9.2710E-04    13.3074   1.8750   120.0549
 44      0.0000     0.0000E+00    0.0000E+00    5.088000E+08  0.02000  5.028E-04    0   0.6449   age130_m62            0.0000     7.5826E-04    11.8600   1.4620   125.3031
 45      0.0000     0.0000E+00    0.0000E+00    9.047900E+08  0.02000  2.428E-04    0   0.6179   age135_m62            0.0000     6.2564E-04    10.9635   0.8751   124.7607
 46      0.0000     0.0000E+00    0.0000E+00    1.434000E+09  0.02000  1.263E-04    0   0.5908   age139_m62            0.0000     5.8736E-04    10.5946   0.4370   122.7468
 47      0.0000     0.0000E+00    0.0000E+00    2.500000E+09  0.02000  5.985E-05    0   0.5673   age150_m62            0.0000     5.1814E-04     9.6521   0.0607   121.7408
 48      0.0000     0.0000E+00    0.0000E+00    4.250000E+09  0.02000  3.271E-05    0   0.5468   age158_m62            0.0000     4.6255E-04     8.7266  -0.2705   122.1727
 49      0.0000     0.0000E+00    0.0000E+00    1.000000E+10  0.02000  1.360E-05    0   0.5167   age181_m62            0.0000     4.3925E-04     7.9892  -0.6587   123.8080
 50     55.4118     6.6441E+01    6.5434E+01    1.800000E+10  0.02000  7.124E-06    0   0.5013   age213_m62            0.0000     4.3805E-04     7.5678  -0.9022   124.5704
 51      0.0000     0.0000E+00    0.0000E+00    1.000000E+06  0.05000  2.592E-02    0   0.9998   age020_m72            0.0000     1.1645E-03    13.9543   3.6346    97.4522
 52      0.0000     0.0000E+00    0.0000E+00    3.160000E+06  0.05000  4.845E-02    0   0.9577   age045_m72            0.0000     1.0599E-03    13.2147   3.4464   100.4610
 53      0.0000     0.0000E+00    0.0000E+00    5.010000E+06  0.05000  3.072E-02    0   0.9147   age055_m72            0.0000     1.3813E-03    15.6817   2.9749   103.8684
 54      0.0000     0.0000E+00    0.0000E+00    6.610000E+06  0.05000  1.455E-02    0   0.8877   age061_m72            0.0000     2.5390E-03    22.2709   2.2824   105.7033
 55      0.0000     0.0000E+00    0.0000E+00    1.000000E+07  0.05000  9.074E-03    0   0.8524   age070_m72            0.0000     1.4555E-03    15.7464   3.1391   103.8151
 56      0.0000     0.0000E+00    0.0000E+00    2.512000E+07  0.05000  4.250E-03    0   0.7902   age090_m72            0.0000     1.3396E-03    15.4976   2.8279   106.7323
 57      0.0000     0.0000E+00    0.0000E+00    4.000000E+07  0.05000  3.087E-03    0   0.7618   age104_m72            0.0000     1.3572E-03    15.7710   2.5935   108.8471
 58      0.0000     0.0000E+00    0.0000E+00    1.015200E+08  0.05000  1.700E-03    0   0.7096   age116_m72            0.0000     1.0936E-03    14.3817   2.3053   114.0240
 59      0.0000     0.0000E+00    0.0000E+00    2.861200E+08  0.05000  7.384E-04    0   0.6633   age125_m72            0.0000     8.2615E-04    12.5092   1.7206   122.9990
 60      0.0000     0.0000E+00    0.0000E+00    5.088000E+08  0.05000  3.819E-04    0   0.6372   age130_m72            0.0000     6.4752E-04    11.1109   1.2108   126.2236
 61      0.0000     0.0000E+00    0.0000E+00    9.047900E+08  0.05000  1.676E-04    0   0.6110   age135_m72            0.0000     4.8927E-04     9.5821   0.5056   124.8047
 62      0.4738     4.5799E-02    5.2852E-02    1.434000E+09  0.05000  8.837E-05    0   0.5874   age139_m72            0.0000     5.0263E-04     9.4955   0.0437   124.4079
 63      0.0000     0.0000E+00    0.0000E+00    2.500000E+09  0.05000  4.233E-05    0   0.5598   age150_m72            0.0000     4.4372E-04     8.4039  -0.2850   123.9837
 64     48.8096     2.9054E+01    2.9961E+01    6.250000E+09  0.05000  1.435E-05    0   0.5249   age166_m72            0.0000     4.2335E-04     7.7941  -0.7685   123.9970
 65      0.0000     0.0000E+00    0.0000E+00    1.300000E+10  0.05000  6.513E-06    0   0.5036   age193_m72            0.0000     4.6136E-04     8.3136  -1.0000   123.8298
 66      0.0000     0.0000E+00    0.0000E+00    1.800000E+10  0.05000  4.527E-06    0   0.4945   age213_m72            0.0000     5.8796E-04    10.3230  -1.0000   117.5152


## Synthesis Results - Average & Chains ##

# j      x_j: min, <> & last-chain-values for 1 ...  7 chains
  1      0.0000      0.9232      0.0104      0.0417      0.0479      0.1092      0.0254      0.0073      0.0257
  2      0.0000      0.8305      0.0293      0.0127      0.0000      0.1996      0.2193      0.0279      0.0000
  3      0.0000      0.8016      0.0078      0.0122      0.0668      0.0990      0.0154      0.0191      0.0063
  4      0.0000      0.8825      0.0061      0.0000      0.0281      0.0883      0.0000      0.0009      0.0734
  5      0.0000      0.7391      0.0000      0.0791      0.1040      0.0541      0.0123      0.0095      0.0827
  6      0.0000      0.9375      0.0113      0.0480      0.0482      0.0281      0.0983      0.0283      0.1158
  7      0.0000      0.7027      0.0000      0.0249      0.0615      0.0000      0.0000      0.0096      0.0000
  8      0.0000      0.6621      0.0034      0.0151      0.0000      0.0000      0.0309      0.0000      0.0000
  9      0.0000      0.7763      0.0141      0.0128      0.0000      0.0717      0.0068      0.0159      0.0000
 10      0.0000      0.7902      0.0176      0.0268      0.0000      0.1221      0.0000      0.0383      0.0000
 11      0.0000      0.6730      0.0076      0.0210      0.0000      0.1942      0.0156      0.0086      0.0136
 12      0.0000      1.0709      0.0000      0.0533      0.0438      0.0906      0.0000      0.0000      0.0983
 13      0.0000      0.8654      0.0096      0.0142      0.1338      0.2110      0.0117      0.0142      0.0803
 14      0.0000      0.7043      0.0169      0.0000      0.1247      0.0000      0.0293      0.0208      0.0416
 15     14.5214      4.6549      6.4404      6.3964      6.1770      6.0379      6.0134      6.4670      5.6118
 16      0.0000      0.9914      0.1143      0.1795      0.1020      0.1183      0.0292      0.0991      0.4948
 17      1.1065      2.2025      2.6392      2.6106      2.5612      2.6479      2.1923      2.6460      2.3205
 18      0.0000      0.7281      0.0650      0.0805      0.0321      0.0026      0.0748      0.0470      0.1657
 19      0.0000      0.4713      0.0000      0.0311      0.1920      0.0240      0.0047      0.0073      0.0000
 20      0.0000      0.6134      0.0481      0.0080      0.1237      0.0640      0.0276      0.0055      0.0110
 21      0.0000      0.7101      0.0281      0.0948      0.0000      0.0696      0.0000      0.0045      0.8562
 22      0.0000      0.6690      0.0103      0.0097      0.1241      0.1097      0.0000      0.0164      0.2061
 23      0.0000      0.8245      0.0425      0.0000      0.0000      0.0000      0.0068      0.0110      0.0600
 24      0.0000      0.7262      0.0322      0.0162      0.0254      0.0000      0.0326      0.0099      0.0415
 25      0.0000      0.6870      0.0000      0.0152      0.0658      0.0658      0.0085      0.0000      0.0000
 26      0.0000      0.5037      0.0096      0.0000      0.0237      0.0000      0.0954      0.0218      0.0000
 27      0.0000      0.6633      0.0152      0.0490      0.1270      0.0195      0.1254      0.0928      0.1384
 28      0.0000      0.6932      0.0182      0.0000      0.0189      0.1396      0.0000      0.0000      0.0435
 29      0.0000      0.6692      0.0097      0.0138      0.0951      0.0896      0.0972      0.0005      0.2897
 30      0.0000      0.6867      0.0233      0.0000      0.2349      0.1755      0.0388      0.0000      0.3959
 31      1.5094      2.3311      3.0266      2.9523      2.7923      2.5991      2.8007      2.9448      2.8211
 32      0.0000      4.7591      6.9458      6.9283      7.0187      6.8097      6.8455      7.2365      6.5085
 33      0.0000      0.8473      0.6344      0.6323      0.5927      0.6308      0.6313      0.5889      1.1660
 34      0.0000      8.0313     12.0300     12.1068     11.9457     12.0769     12.0474     11.9305     11.9593
 35      0.0000      1.3270      0.6289      0.9704      0.8153      0.7327      0.7685      0.6356      0.8929
 36      0.0000      0.9306      0.0031      0.0214      0.1034      0.0511      0.0124      0.0000      0.0675
 37      0.0000      0.6247      0.0091      0.0101      0.0287      0.0000      0.0266      0.0106      0.0373
 38      0.0000      0.6123      0.0088      0.0012      0.0579      0.0000      0.0016      0.0228      0.0000
 39      0.0000      0.7283      0.0008      0.0079      0.0522      0.0128      0.0405      0.0000      0.0000
 40      0.0000      0.6941      0.0047      0.0100      0.1158      0.1686      0.0151      0.0000      0.0000
 41      0.0000      6.8382      9.0389      8.9188      8.6805      8.7394      9.0001      8.9613      8.6345
 42      1.3143      5.7552      8.0208      8.0590      7.3822      7.6854      7.9717      7.9644      7.3315
 43      0.0000      0.8249      0.0193      0.0237      0.0000      0.0000      0.0627      0.0000      0.0191
 44      0.0000      0.6610      0.0170      0.0322      0.0000      0.1201      0.0609      0.0176      0.0073
 45      0.0000      0.6221      0.0288      0.0746      0.0000      0.0464      0.0215      0.0305      0.0000
 46      0.0000      0.5572      0.0104      0.0057      0.0939      0.0219      0.0000      0.0317      0.0000
