###################################################################
## OUTPUT of StarlightChains_v04.for    [Cid@UFSC - 01/Apr/2007] ##
###################################################################

## Some input info
KUG0210-078._33_19.txt                   [arq_obs]
Base.CB07.vall.4m                        [arq_base]
Masks.EmLines.NEW.gm                     [arq_masks]
StCv04.C11.config                        [arq_config]
   66                                    [N_base]
    0                                    [N_YAV_components = # of components with extra extinction!]
    0                                    [i_FitPowerLaw (1/0 = Yes/No)]
-9.99                                    [alpha_PowerLaw]
CCM                                      [red_law_option]
 1.458241                                [q_norm = A(l_norm)/A(V)]

## (Re)Sampling Parameters
 3741.00                                 [l_ini (A)]
 7218.00                                 [l_fin (A)]
    1.00                                 [dl    (A)]     (OBS: dl_cushion =    50.00 A)

## Normalization info
 4020.00                                 [l_norm (A) - for base]
 4010.00                                 [llow_norm (A) - window for f_obs]
 4060.00                                 [lupp_norm (A) - window for f_obs]
3.388333E-18                             [fobs_norm (in input units)]

## S/N
 3691.00                                 [llow_SN (A) - window for S/N]
 7268.00                                 [lupp_SN (A) - window for S/N]
   2.430                                 [S/N in S/N window]
   1.469                                 [S/N in norm. window]
   0.006                                 [S/N_err in S/N window]
   0.004                                 [S/N_err in norm. window]
  1.0000                                 [fscale_chi2]

## etc...
    -2007496                             [idum_orig]
  2355                                   [NOl_eff]
  2200                                   [Nl_eff]
   155    NSIGMA                         [Ntot_cliped & clip_method]
  5214860                                [Nglobal_steps]
   7                                     [N_chains]
   7                                     [NEX0s_base = N_base in EX0s-fits]
 0   0   1      155   2.0   1.874E+03    [Clip-Bug, RC-Crash & Burn-In warning-flags, n_censored_weights, wei_nsig_threshold & wei_limit]
    45     45.077     44.436      0.641  [idt_all, wdt_TotTime, wdt_UsrTime & wdt_SysTime (sec)]

## Synthesis Results - Best model ##

 2.89041E-05                             [chi2/Nl_eff]
    37.43141                             [adev (%)]

   130.00000                             [sum-of-x (%)]
 4.39879E-16                             [Flux_tot (units of input spectrum!)]
 4.02083E-14                             [Mini_tot (???)]
 4.02083E-14                             [Mcor_tot (???)]

   0.00                                  [v0_min  (km/s)]
   0.04                                  [vd_min  (km/s)]
 3.4278                                  [AV_min  (mag)]
 0.0000                                  [YAV_min (mag)]

# j     x_j(%)      Mini_j(%)     Mcor_j(%)     age_j(yr)     Z_j      (L/M)_j    YAV?  Mstars   component_j        a/Fe...       SSP_chi2r SSP_adev(%)   SSP_AV   SSP_x(%)
  1    130.0000     1.0000E+02    1.0000E+02    1.000000E+06  0.00400  1.094E-02    0   1.0000   age020_m42            0.0000     1.9501E-05    36.2029   2.1664   220.5126
  2      0.0000     0.0000E+00    0.0000E+00    3.160000E+06  0.00400  4.007E-02    0   0.9999   age045_m42            0.0000     1.9387E-05    36.5532   1.5270   227.8671
  3      0.0000     0.0000E+00    0.0000E+00    5.010000E+06  0.00400  2.539E-02    0   0.9488   age055_m42            0.0000     1.9531E-05    36.4143   1.8115   225.3564
  4      0.0000     0.0000E+00    0.0000E+00    6.610000E+06  0.00400  2.620E-02    0   0.9220   age061_m42            0.0000     1.9461E-05    36.6216   1.4676   227.3046
  5      0.0000     0.0000E+00    0.0000E+00    1.000000E+07  0.00400  1.322E-02    0   0.8862   age070_m42            0.0000     1.9686E-05    37.5742   1.2351   229.8020
  6      0.0000     0.0000E+00    0.0000E+00    1.445000E+07  0.00400  7.883E-03    0   0.8571   age078_m42            0.0000     1.9709E-05    37.2246   1.5315   226.3323
  7      0.0000     0.0000E+00    0.0000E+00    2.512000E+07  0.00400  5.251E-03    0   0.8174   age090_m42            0.0000     1.9749E-05    37.8117   1.1241   229.7608
  8      0.0000     0.0000E+00    0.0000E+00    4.000000E+07  0.00400  3.649E-03    0   0.7851   age104_m42            0.0000     1.9685E-05    37.7432   0.9053   230.6416
  9      0.0000     0.0000E+00    0.0000E+00    5.500000E+07  0.00400  3.098E-03    0   0.7629   age110_m42            0.0000     1.9600E-05    37.3865   1.0518   230.4920
 10      0.0000     0.0000E+00    0.0000E+00    1.015200E+08  0.00400  2.228E-03    0   0.7207   age116_m42            0.0000     1.9526E-05    37.1999   1.0710   230.5404
 11      0.0000     0.0000E+00    0.0000E+00    2.861200E+08  0.00400  1.093E-03    0   0.6648   age125_m42            0.0000     1.9525E-05    37.7417   0.5440   233.9544
 12      0.0000     0.0000E+00    0.0000E+00    5.088000E+08  0.00400  6.597E-04    0   0.6365   age130_m42            0.0000     1.9365E-05    37.2874   0.5265   235.8247
 13      0.0000     0.0000E+00    0.0000E+00    1.434000E+09  0.00400  2.132E-04    0   0.5798   age139_m42            0.0000     1.8842E-05    36.6589  -0.4287   238.6804
 14      0.0000     0.0000E+00    0.0000E+00    4.250000E+09  0.00400  5.895E-05    0   0.5377   age158_m42            0.0000     1.8338E-05    35.1435  -0.9330   233.6336
 15      0.0000     0.0000E+00    0.0000E+00    7.500000E+09  0.00400  3.510E-05    0   0.5212   age171_m42            0.0000     1.8236E-05    36.5974  -1.0000   227.1809
 16      0.0000     0.0000E+00    0.0000E+00    1.300000E+10  0.00400  2.005E-05    0   0.5034   age193_m42            0.0000     1.8463E-05    39.4564  -1.0000   218.8064
 17      0.0000     0.0000E+00    0.0000E+00    1.800000E+10  0.00400  1.525E-05    0   0.4967   age213_m42            0.0000     1.8501E-05    40.0312  -1.0000   216.9907
 18      0.0000     0.0000E+00    0.0000E+00    1.000000E+06  0.00800  1.238E-02    0   1.0000   age020_m52            0.0000     1.9518E-05    36.2093   2.1596   221.1331
 19      0.0000     0.0000E+00    0.0000E+00    3.160000E+06  0.00800  3.074E-02    0   0.9966   age045_m52            0.0000     1.9509E-05    36.2159   2.0856   222.7493
 20      0.0000     0.0000E+00    0.0000E+00    5.010000E+06  0.00800  2.668E-02    0   0.9443   age055_m52            0.0000     1.9545E-05    36.3494   1.8846   224.2102
 21      0.0000     0.0000E+00    0.0000E+00    6.610000E+06  0.00800  2.136E-02    0   0.9177   age061_m52            0.0000     1.9393E-05    37.0116   0.7216   233.2949
 22      0.0000     0.0000E+00    0.0000E+00    1.000000E+07  0.00800  1.215E-02    0   0.8827   age070_m52            0.0000     1.9756E-05    37.7420   1.4118   229.9187
 23      0.0000     0.0000E+00    0.0000E+00    1.445000E+07  0.00800  8.717E-03    0   0.8552   age078_m52            0.0000     1.9688E-05    37.2693   1.5055   228.6574
 24      0.0000     0.0000E+00    0.0000E+00    2.512000E+07  0.00800  5.592E-03    0   0.8162   age090_m52            0.0000     1.9730E-05    37.8978   1.1958   231.8872
 25      0.0000     0.0000E+00    0.0000E+00    4.000000E+07  0.00800  3.896E-03    0   0.7841   age104_m52            0.0000     1.9630E-05    37.6811   1.1131   232.6730
 26      0.0000     0.0000E+00    0.0000E+00    1.015200E+08  0.00800  2.148E-03    0   0.7226   age116_m52            0.0000     1.9443E-05    37.1656   1.0456   231.9037
 27      0.0000     0.0000E+00    0.0000E+00    2.861200E+08  0.00800  9.925E-04    0   0.6683   age125_m52            0.0000     1.9334E-05    37.1910   0.5967   237.4567
 28      0.0000     0.0000E+00    0.0000E+00    9.047900E+08  0.00800  3.141E-04    0   0.6138   age135_m52            0.0000     1.8554E-05    35.9536  -0.2078   246.3545
 29      0.0000     0.0000E+00    0.0000E+00    1.434000E+09  0.00800  1.719E-04    0   0.5853   age139_m52            0.0000     1.8435E-05    35.4650  -0.8061   242.8375
 30      0.0000     0.0000E+00    0.0000E+00    2.500000E+09  0.00800  7.872E-05    0   0.5600   age150_m52            0.0000     1.8171E-05    36.1637  -1.0000   234.2147
 31      0.0000     0.0000E+00    0.0000E+00    4.250000E+09  0.00800  4.336E-05    0   0.5426   age158_m52            0.0000     1.8095E-05    36.2761  -1.0000   231.5469
 32      0.0000     0.0000E+00    0.0000E+00    6.250000E+09  0.00800  3.159E-05    0   0.5319   age166_m52            0.0000     1.8340E-05    39.5899  -1.0000   222.2773
 33      0.0000     0.0000E+00    0.0000E+00    1.300000E+10  0.00800  1.361E-05    0   0.5073   age193_m52            0.0000     2.0340E-05    48.8937  -1.0000   197.6759
 34      0.0000     0.0000E+00    0.0000E+00    1.800000E+10  0.00800  9.886E-06    0   0.4990   age213_m52            0.0000     2.1076E-05    50.6695  -1.0000   191.0049
 35      0.0000     0.0000E+00    0.0000E+00    1.000000E+06  0.02000  1.544E-02    0   1.0000   age020_m62            0.0000     1.9510E-05    36.2432   2.1537   221.9037
 36      0.0000     0.0000E+00    0.0000E+00    3.160000E+06  0.02000  3.762E-02    0   0.9858   age045_m62            0.0000     1.9548E-05    36.2210   2.0888   223.9089
 37      0.0000     0.0000E+00    0.0000E+00    5.010000E+06  0.02000  3.296E-02    0   0.9342   age055_m62            0.0000     1.9517E-05    36.4180   1.7864   226.7058
 38      0.0000     0.0000E+00    0.0000E+00    8.710000E+06  0.02000  1.154E-02    0   0.8861   age067_m62            0.0000     2.0296E-05    40.2241   0.9194   235.3697
 39      0.0000     0.0000E+00    0.0000E+00    1.445000E+07  0.02000  7.663E-03    0   0.8472   age078_m62            0.0000     1.9834E-05    38.3962   1.0843   233.7693
 40      0.0000     0.0000E+00    0.0000E+00    2.512000E+07  0.02000  4.532E-03    0   0.8099   age090_m62            0.0000     1.9956E-05    38.7103   1.0939   231.9129
 41      0.0000     0.0000E+00    0.0000E+00    5.500000E+07  0.02000  2.733E-03    0   0.7595   age110_m62            0.0000     1.9656E-05    37.6268   1.0902   231.5539
 42      0.0000     0.0000E+00    0.0000E+00    1.609000E+08  0.02000  1.369E-03    0   0.6985   age120_m62            0.0000     1.9519E-05    37.3858   0.9460   235.3255
 43      0.0000     0.0000E+00    0.0000E+00    2.861200E+08  0.02000  9.013E-04    0   0.6714   age125_m62            0.0000     1.9454E-05    37.3300   0.7162   239.8761
 44      0.0000     0.0000E+00    0.0000E+00    5.088000E+08  0.02000  5.028E-04    0   0.6449   age130_m62            0.0000     1.8994E-05    36.3558   0.3203   246.3225
 45      0.0000     0.0000E+00    0.0000E+00    9.047900E+08  0.02000  2.428E-04    0   0.6179   age135_m62            0.0000     1.8273E-05    35.1198  -0.2968   246.6165
 46      0.0000     0.0000E+00    0.0000E+00    1.434000E+09  0.02000  1.263E-04    0   0.5908   age139_m62            0.0000     1.8087E-05    34.5019  -0.7644   244.6275
 47      0.0000     0.0000E+00    0.0000E+00    2.500000E+09  0.02000  5.985E-05    0   0.5673   age150_m62            0.0000     1.8017E-05    35.9781  -1.0000   236.2439
 48      0.0000     0.0000E+00    0.0000E+00    4.250000E+09  0.02000  3.271E-05    0   0.5468   age158_m62            0.0000     1.8699E-05    41.1014  -1.0000   219.9922
 49      0.0000     0.0000E+00    0.0000E+00    1.000000E+10  0.02000  1.360E-05    0   0.5167   age181_m62            0.0000     2.0405E-05    47.6323  -1.0000   201.3019
 50      0.0000     0.0000E+00    0.0000E+00    1.800000E+10  0.02000  7.124E-06    0   0.5013   age213_m62            0.0000     2.2080E-05    51.3429  -1.0000   188.4574
 51      0.0000     0.0000E+00    0.0000E+00    1.000000E+06  0.05000  2.592E-02    0   0.9998   age020_m72            0.0000     1.9502E-05    36.2108   2.1308   223.1745
 52      0.0000     0.0000E+00    0.0000E+00    3.160000E+06  0.05000  4.845E-02    0   0.9577   age045_m72            0.0000     1.9583E-05    36.2362   1.9984   224.3607
 53      0.0000     0.0000E+00    0.0000E+00    5.010000E+06  0.05000  3.072E-02    0   0.9147   age055_m72            0.0000     1.9698E-05    37.2663   1.5995   229.2622
 54      0.0000     0.0000E+00    0.0000E+00    6.610000E+06  0.05000  1.455E-02    0   0.8877   age061_m72            0.0000     2.0708E-05    41.1085   0.9739   236.7433
 55      0.0000     0.0000E+00    0.0000E+00    1.000000E+07  0.05000  9.074E-03    0   0.8524   age070_m72            0.0000     1.9820E-05    37.4826   1.7782   228.2552
 56      0.0000     0.0000E+00    0.0000E+00    2.512000E+07  0.05000  4.250E-03    0   0.7902   age090_m72            0.0000     1.9832E-05    37.7473   1.5306   228.6601
 57      0.0000     0.0000E+00    0.0000E+00    4.000000E+07  0.05000  3.087E-03    0   0.7618   age104_m72            0.0000     1.9842E-05    38.0892   1.3296   230.5451
 58      0.0000     0.0000E+00    0.0000E+00    1.015200E+08  0.05000  1.700E-03    0   0.7096   age116_m72            0.0000     1.9594E-05    37.6959   1.0936   234.3228
 59      0.0000     0.0000E+00    0.0000E+00    2.861200E+08  0.05000  7.384E-04    0   0.6633   age125_m72            0.0000     1.9132E-05    36.6459   0.5685   243.6498
 60      0.0000     0.0000E+00    0.0000E+00    5.088000E+08  0.05000  3.819E-04    0   0.6372   age130_m72            0.0000     1.8447E-05    35.3598   0.0429   249.3353
 61      0.0000     0.0000E+00    0.0000E+00    9.047900E+08  0.05000  1.676E-04    0   0.6110   age135_m72            0.0000     1.7956E-05    33.9669  -0.7125   248.2707
 62      0.0000     0.0000E+00    0.0000E+00    1.434000E+09  0.05000  8.837E-05    0   0.5874   age139_m72            0.0000     1.7965E-05    35.6127  -1.0000   239.4467
 63      0.0000     0.0000E+00    0.0000E+00    2.500000E+09  0.05000  4.233E-05    0   0.5598   age150_m72            0.0000     1.8744E-05    40.8705  -1.0000   221.9610
 64      0.0000     0.0000E+00    0.0000E+00    6.250000E+09  0.05000  1.435E-05    0   0.5249   age166_m72            0.0000     2.1166E-05    49.4456  -1.0000   195.4605
 65      0.0000     0.0000E+00    0.0000E+00    1.300000E+10  0.05000  6.513E-06    0   0.5036   age193_m72            0.0000     2.3823E-05    54.1444  -1.0000   181.6100
 66      0.0000     0.0000E+00    0.0000E+00    1.800000E+10  0.05000  4.527E-06    0   0.4945   age213_m72            0.0000     2.5644E-05    56.5592  -1.0000   172.0786


## Synthesis Results - Average & Chains ##

# j      x_j: min, <> & last-chain-values for 1 ...  7 chains
  1    130.0000    112.0228     94.0949     77.8566    126.1497     89.7997     84.9514     82.5519     77.5589
  2      0.0000      0.2097      0.0000      0.5916      0.0071      1.4331      0.4274      0.0000      0.0000
  3      0.0000      0.2387      0.0000      0.1332      0.1066      1.8059      0.2392      1.2703      1.7899
  4      0.0000      0.2002      1.1151      0.2969      0.0528      0.1703      0.0000      0.0000      0.5354
  5      0.0000      0.3031      0.4931      0.6549      0.1363      0.6525      0.0000      0.4803      2.0855
  6      0.0000      0.2128      0.8233      0.6398      0.0436      0.2081      0.0000      0.0000      0.0000
  7      0.0000      0.2819      0.0770      0.8605      0.0257      0.0000      0.2822      0.8142      0.0000
  8      0.0000      0.2782      0.0000      0.4751      0.0000      1.5742      1.1830      0.4505      1.1540
  9      0.0000      0.2196      0.1349      0.2343      0.0301      0.4602      1.1931      0.0000      0.8815
 10      0.0000      0.2435      0.0000      0.0000      0.0234      1.2229      0.0000      0.0000      0.4691
 11      0.0000      0.1819      0.0000      1.6983      0.0347      2.6104      0.0000      0.0000      0.4061
 12      0.0000      0.2829      0.5436      1.7894      0.0065      0.0000      2.7124      0.5019      0.4137
 13      0.0000      0.2050      0.8394      0.0000      0.0384      1.9999      0.0000      1.4837      0.0000
 14      0.0000      0.2041      0.3297      0.4701      0.0359      0.0000      0.1402      0.0000      0.6086
 15      0.0000      0.2535      1.0286      1.7586      0.0000      0.0000      1.8129      1.4075      0.5409
 16      0.0000      0.2550      0.9036      0.9455      0.0166      1.1998      0.0000      1.2210      0.7948
 17      0.0000      0.2204      0.1116      0.2168      0.0098      1.1736      0.8867      0.0000      1.1643
 18      0.0000      0.2133      0.3548      0.3556      0.0079      0.3868      0.2897      0.0000      0.7061
 19      0.0000      0.2004      0.0558      0.3754      0.0615      1.2110      0.2547      0.0246      0.9887
 20      0.0000      0.2631      0.3760      0.0000      0.0384      0.8200      1.0250      0.0000      0.2861
 21      0.0000      0.2006      0.2274      0.0211      0.0267      0.0000      0.0000      0.0000      1.1015
 22      0.0000      0.3052      1.0681      2.2687      0.0084      0.0000      1.3418      1.6873      0.4962
 23      0.0000      0.2448      1.2283      0.5214      0.0000      0.3223      0.0000      0.6156      0.0000
 24      0.0000      0.2514      1.5029      0.1082      0.0832      0.0000      1.2681      1.1197      0.7348
 25      0.0000      0.2637      0.0000      1.6064      0.0000      0.0000      0.5282      2.1766      0.7774
 26      0.0000      0.2360      0.0000      0.0000      0.1112      0.9588      1.3053      0.0513      0.4445
 27      0.0000      0.1797      0.6641      1.1904      0.0456      1.5142      0.7955      1.2421      0.0000
 28      0.0000      0.2369      0.6823      0.0000      0.0000      1.2684      2.0960      1.0656      2.8187
 29      0.0000      0.2438      0.4017      1.4403      0.0000      0.0000      0.6589      1.2019      0.2478
 30      0.0000      0.1635      0.3119      1.1214      0.0000      0.4192      0.2330      0.0000      0.5919
 31      0.0000      0.2717      0.4973      1.4176      0.0543      0.5798      1.4471      2.9064      2.9163
 32      0.0000      0.2064      1.0698      1.3065      0.1008      0.5020      0.0849      0.4721      0.0000
 33      0.0000      0.3148      0.0000      1.1872      0.0174      1.0885      1.6628      0.6893      2.3255
 34      0.0000      0.2833      0.0000      0.5296      0.0000      0.0206      0.0981      0.4231      1.2695
 35      0.0000      0.2485      0.8100      1.3177      0.0012      0.0000      0.2571      1.0397      0.0000
 36      0.0000      0.2091      0.0000      0.6574      0.0016      0.0821      0.3611      0.5297      2.0454
 37      0.0000      0.2592      0.7337      0.8656      0.0229      0.1838      0.8781      0.4009      0.0000
 38      0.0000      0.2544      0.0951      1.2658      0.0000      0.7745      0.8571      0.6050      0.2614
 39      0.0000      0.1649      0.0000      0.6809      0.0000      0.0607      0.2559      1.0018      0.0000
 40      0.0000      0.3313      3.2525      1.5340      0.0000      1.0133      0.0000      1.6707      0.2065
 41      0.0000      0.2366      0.2033      0.0000      0.0013      0.1987      0.0795      1.1283      0.0000
 42      0.0000      0.2237      0.9271      0.5429      0.0000      0.3564      0.8351      0.5884      1.3859
 43      0.0000      0.2092      0.4279      0.0225      0.0128      0.1849      0.1295      0.8920      1.5994
 44      0.0000      0.2607      0.0000      0.6763      0.0433      0.7655      0.3682      0.4326      2.7361
 45      0.0000      0.2145      0.5508      0.4035      0.0074      0.0000      0.0000      1.4231      0.6389
 46      0.0000      0.2657      0.7378      0.3266      0.0000      0.0000      2.6532      0.1314      0.0000
