###################################################################
## OUTPUT of StarlightChains_v04.for    [Cid@UFSC - 01/Apr/2007] ##
###################################################################

## Some input info
KUG0210-078._51_43.txt                   [arq_obs]
Base.CB07.vall.4m                        [arq_base]
Masks.EmLines.NEW.gm                     [arq_masks]
StCv04.C11.config                        [arq_config]
   66                                    [N_base]
    0                                    [N_YAV_components = # of components with extra extinction!]
    0                                    [i_FitPowerLaw (1/0 = Yes/No)]
-9.99                                    [alpha_PowerLaw]
CCM                                      [red_law_option]
 1.458241                                [q_norm = A(l_norm)/A(V)]

## (Re)Sampling Parameters
 3741.00                                 [l_ini (A)]
 7218.00                                 [l_fin (A)]
    1.00                                 [dl    (A)]     (OBS: dl_cushion =    50.00 A)

## Normalization info
 4020.00                                 [l_norm (A) - for base]
 4010.00                                 [llow_norm (A) - window for f_obs]
 4060.00                                 [lupp_norm (A) - window for f_obs]
3.079202E-18                             [fobs_norm (in input units)]

## S/N
 3691.00                                 [llow_SN (A) - window for S/N]
 7268.00                                 [lupp_SN (A) - window for S/N]
   2.787                                 [S/N in S/N window]
   1.541                                 [S/N in norm. window]
   0.006                                 [S/N_err in S/N window]
   0.003                                 [S/N_err in norm. window]
  1.0000                                 [fscale_chi2]

## etc...
    -2007972                             [idum_orig]
  2311                                   [NOl_eff]
  2242                                   [Nl_eff]
    69    NSIGMA                         [Ntot_cliped & clip_method]
  5683860                                [Nglobal_steps]
   7                                     [N_chains]
   7                                     [NEX0s_base = N_base in EX0s-fits]
 0   0   1       69   2.0   1.122E+03    [Clip-Bug, RC-Crash & Burn-In warning-flags, n_censored_weights, wei_nsig_threshold & wei_limit]
    52     52.262     51.746      0.516  [idt_all, wdt_TotTime, wdt_UsrTime & wdt_SysTime (sec)]

## Synthesis Results - Best model ##

 2.29711E-05                             [chi2/Nl_eff]
    32.40885                             [adev (%)]

   130.00000                             [sum-of-x (%)]
 4.60256E-16                             [Flux_tot (units of input spectrum!)]
 4.20710E-14                             [Mini_tot (???)]
 4.20710E-14                             [Mcor_tot (???)]

 379.74                                  [v0_min  (km/s)]
   0.00                                  [vd_min  (km/s)]
 3.5327                                  [AV_min  (mag)]
 0.0000                                  [YAV_min (mag)]

# j     x_j(%)      Mini_j(%)     Mcor_j(%)     age_j(yr)     Z_j      (L/M)_j    YAV?  Mstars   component_j        a/Fe...       SSP_chi2r SSP_adev(%)   SSP_AV   SSP_x(%)
  1    130.0000     1.0000E+02    1.0000E+02    1.000000E+06  0.00400  1.094E-02    0   1.0000   age020_m42            0.0000     1.3871E-05    30.1540   2.2646   221.6207
  2      0.0000     0.0000E+00    0.0000E+00    3.160000E+06  0.00400  4.007E-02    0   0.9999   age045_m42            0.0000     1.3936E-05    30.7633   1.5919   232.2682
  3      0.0000     0.0000E+00    0.0000E+00    5.010000E+06  0.00400  2.539E-02    0   0.9488   age055_m42            0.0000     1.3894E-05    30.5072   1.8951   227.9870
  4      0.0000     0.0000E+00    0.0000E+00    6.610000E+06  0.00400  2.620E-02    0   0.9220   age061_m42            0.0000     1.3960E-05    30.8853   1.5315   231.7558
  5      0.0000     0.0000E+00    0.0000E+00    1.000000E+07  0.00400  1.322E-02    0   0.8862   age070_m42            0.0000     1.4019E-05    31.9244   1.3022   233.7160
  6      0.0000     0.0000E+00    0.0000E+00    1.445000E+07  0.00400  7.883E-03    0   0.8571   age078_m42            0.0000     1.3925E-05    31.5351   1.6046   229.6332
  7      0.0000     0.0000E+00    0.0000E+00    2.512000E+07  0.00400  5.251E-03    0   0.8174   age090_m42            0.0000     1.3991E-05    32.1770   1.1820   234.4246
  8      0.0000     0.0000E+00    0.0000E+00    4.000000E+07  0.00400  3.649E-03    0   0.7851   age104_m42            0.0000     1.3976E-05    32.1676   0.9564   236.1530
  9      0.0000     0.0000E+00    0.0000E+00    5.500000E+07  0.00400  3.098E-03    0   0.7629   age110_m42            0.0000     1.4030E-05    31.8240   1.0990   236.5533
 10      0.0000     0.0000E+00    0.0000E+00    1.015200E+08  0.00400  2.228E-03    0   0.7207   age116_m42            0.0000     1.4121E-05    31.6273   1.1145   236.9176
 11      0.0000     0.0000E+00    0.0000E+00    2.861200E+08  0.00400  1.093E-03    0   0.6648   age125_m42            0.0000     1.4286E-05    32.5908   0.5691   241.6688
 12      0.0000     0.0000E+00    0.0000E+00    5.088000E+08  0.00400  6.597E-04    0   0.6365   age130_m42            0.0000     1.4352E-05    32.1578   0.5417   244.4602
 13      0.0000     0.0000E+00    0.0000E+00    1.434000E+09  0.00400  2.132E-04    0   0.5798   age139_m42            0.0000     1.4375E-05    31.7216  -0.4482   249.6823
 14      0.0000     0.0000E+00    0.0000E+00    4.250000E+09  0.00400  5.895E-05    0   0.5377   age158_m42            0.0000     1.4494E-05    30.8896  -0.9656   244.4883
 15      0.0000     0.0000E+00    0.0000E+00    7.500000E+09  0.00400  3.510E-05    0   0.5212   age171_m42            0.0000     1.4806E-05    31.2584  -1.0000   236.7755
 16      0.0000     0.0000E+00    0.0000E+00    1.300000E+10  0.00400  2.005E-05    0   0.5034   age193_m42            0.0000     1.5306E-05    32.7656  -1.0000   228.4251
 17      0.0000     0.0000E+00    0.0000E+00    1.800000E+10  0.00400  1.525E-05    0   0.4967   age213_m42            0.0000     1.5298E-05    33.1275  -1.0000   226.6051
 18      0.0000     0.0000E+00    0.0000E+00    1.000000E+06  0.00800  1.238E-02    0   1.0000   age020_m52            0.0000     1.3871E-05    30.0426   2.2587   222.1308
 19      0.0000     0.0000E+00    0.0000E+00    3.160000E+06  0.00800  3.074E-02    0   0.9966   age045_m52            0.0000     1.3865E-05    30.0044   2.1870   223.6569
 20      0.0000     0.0000E+00    0.0000E+00    5.010000E+06  0.00800  2.668E-02    0   0.9443   age055_m52            0.0000     1.3872E-05    30.3304   1.9705   226.4174
 21      0.0000     0.0000E+00    0.0000E+00    6.610000E+06  0.00800  2.136E-02    0   0.9177   age061_m52            0.0000     1.3939E-05    31.5564   0.7737   238.2645
 22      0.0000     0.0000E+00    0.0000E+00    1.000000E+07  0.00800  1.215E-02    0   0.8827   age070_m52            0.0000     1.3992E-05    32.1319   1.4804   233.3908
 23      0.0000     0.0000E+00    0.0000E+00    1.445000E+07  0.00800  8.717E-03    0   0.8552   age078_m52            0.0000     1.3952E-05    31.6636   1.5795   232.1513
 24      0.0000     0.0000E+00    0.0000E+00    2.512000E+07  0.00800  5.592E-03    0   0.8162   age090_m52            0.0000     1.4004E-05    32.3668   1.2506   236.8302
 25      0.0000     0.0000E+00    0.0000E+00    4.000000E+07  0.00800  3.896E-03    0   0.7841   age104_m52            0.0000     1.3991E-05    32.3129   1.1611   238.4188
 26      0.0000     0.0000E+00    0.0000E+00    1.015200E+08  0.00800  2.148E-03    0   0.7226   age116_m52            0.0000     1.4057E-05    31.8865   1.0902   238.0809
 27      0.0000     0.0000E+00    0.0000E+00    2.861200E+08  0.00800  9.925E-04    0   0.6683   age125_m52            0.0000     1.4355E-05    32.1711   0.6143   246.3240
 28      0.0000     0.0000E+00    0.0000E+00    9.047900E+08  0.00800  3.141E-04    0   0.6138   age135_m52            0.0000     1.4533E-05    31.8634  -0.2341   258.8959
 29      0.0000     0.0000E+00    0.0000E+00    1.434000E+09  0.00800  1.719E-04    0   0.5853   age139_m52            0.0000     1.4506E-05    31.6098  -0.8376   254.3829
 30      0.0000     0.0000E+00    0.0000E+00    2.500000E+09  0.00800  7.872E-05    0   0.5600   age150_m52            0.0000     1.4817E-05    31.2374  -1.0000   244.2003
 31      0.0000     0.0000E+00    0.0000E+00    4.250000E+09  0.00800  4.336E-05    0   0.5426   age158_m52            0.0000     1.4895E-05    31.2503  -1.0000   241.4321
 32      0.0000     0.0000E+00    0.0000E+00    6.250000E+09  0.00800  3.159E-05    0   0.5319   age166_m52            0.0000     1.5593E-05    32.9858  -1.0000   232.1786
 33      0.0000     0.0000E+00    0.0000E+00    1.300000E+10  0.00800  1.361E-05    0   0.5073   age193_m52            0.0000     1.7936E-05    40.3902  -1.0000   207.0948
 34      0.0000     0.0000E+00    0.0000E+00    1.800000E+10  0.00800  9.886E-06    0   0.4990   age213_m52            0.0000     1.8967E-05    41.8889  -1.0000   199.9750
 35      0.0000     0.0000E+00    0.0000E+00    1.000000E+06  0.02000  1.544E-02    0   1.0000   age020_m62            0.0000     1.3884E-05    29.9714   2.2528   222.7673
 36      0.0000     0.0000E+00    0.0000E+00    3.160000E+06  0.02000  3.762E-02    0   0.9858   age045_m62            0.0000     1.3901E-05    30.0153   2.1907   224.6977
 37      0.0000     0.0000E+00    0.0000E+00    5.010000E+06  0.02000  3.296E-02    0   0.9342   age055_m62            0.0000     1.3923E-05    30.4623   1.8604   230.2406
 38      0.0000     0.0000E+00    0.0000E+00    8.710000E+06  0.02000  1.154E-02    0   0.8861   age067_m62            0.0000     1.4273E-05    34.8121   0.9957   237.1401
 39      0.0000     0.0000E+00    0.0000E+00    1.445000E+07  0.02000  7.663E-03    0   0.8472   age078_m62            0.0000     1.4029E-05    33.1410   1.1464   237.7398
 40      0.0000     0.0000E+00    0.0000E+00    2.512000E+07  0.02000  4.532E-03    0   0.8099   age090_m62            0.0000     1.4056E-05    33.3959   1.1515   235.9504
 41      0.0000     0.0000E+00    0.0000E+00    5.500000E+07  0.02000  2.733E-03    0   0.7595   age110_m62            0.0000     1.4026E-05    32.1953   1.1382   236.8891
 42      0.0000     0.0000E+00    0.0000E+00    1.609000E+08  0.02000  1.369E-03    0   0.6985   age120_m62            0.0000     1.4265E-05    32.0487   0.9857   242.2058
 43      0.0000     0.0000E+00    0.0000E+00    2.861200E+08  0.02000  9.013E-04    0   0.6714   age125_m62            0.0000     1.4434E-05    32.0636   0.7368   248.7823
 44      0.0000     0.0000E+00    0.0000E+00    5.088000E+08  0.02000  5.028E-04    0   0.6449   age130_m62            0.0000     1.4500E-05    31.5589   0.3119   258.0106
 45      0.0000     0.0000E+00    0.0000E+00    9.047900E+08  0.02000  2.428E-04    0   0.6179   age135_m62            0.0000     1.4487E-05    31.2146  -0.3262   259.0815
 46      0.0000     0.0000E+00    0.0000E+00    1.434000E+09  0.02000  1.263E-04    0   0.5908   age139_m62            0.0000     1.4642E-05    30.9537  -0.8003   256.5900
 47      0.0000     0.0000E+00    0.0000E+00    2.500000E+09  0.02000  5.985E-05    0   0.5673   age150_m62            0.0000     1.5141E-05    30.9903  -1.0000   246.4370
 48      0.0000     0.0000E+00    0.0000E+00    4.250000E+09  0.02000  3.271E-05    0   0.5468   age158_m62            0.0000     1.6365E-05    33.9267  -1.0000   229.8837
 49      0.0000     0.0000E+00    0.0000E+00    1.000000E+10  0.02000  1.360E-05    0   0.5167   age181_m62            0.0000     1.8627E-05    39.1891  -1.0000   210.2891
 50      0.0000     0.0000E+00    0.0000E+00    1.800000E+10  0.02000  7.124E-06    0   0.5013   age213_m62            0.0000     2.0464E-05    42.3476  -1.0000   196.8101
 51      0.0000     0.0000E+00    0.0000E+00    1.000000E+06  0.05000  2.592E-02    0   0.9998   age020_m72            0.0000     1.3893E-05    29.8288   2.2446   222.9121
 52      0.0000     0.0000E+00    0.0000E+00    3.160000E+06  0.05000  4.845E-02    0   0.9577   age045_m72            0.0000     1.3895E-05    30.1265   2.0888   226.2404
 53      0.0000     0.0000E+00    0.0000E+00    5.010000E+06  0.05000  3.072E-02    0   0.9147   age055_m72            0.0000     1.3990E-05    32.1104   1.6749   231.9043
 54      0.0000     0.0000E+00    0.0000E+00    6.610000E+06  0.05000  1.455E-02    0   0.8877   age061_m72            0.0000     1.4592E-05    37.1019   1.0524   237.8177
 55      0.0000     0.0000E+00    0.0000E+00    1.000000E+07  0.05000  9.074E-03    0   0.8524   age070_m72            0.0000     1.4073E-05    32.7886   1.8477   231.1735
 56      0.0000     0.0000E+00    0.0000E+00    2.512000E+07  0.05000  4.250E-03    0   0.7902   age090_m72            0.0000     1.4043E-05    32.8013   1.5891   232.8025
 57      0.0000     0.0000E+00    0.0000E+00    4.000000E+07  0.05000  3.087E-03    0   0.7618   age104_m72            0.0000     1.4137E-05    33.2584   1.3844   235.0790
 58      0.0000     0.0000E+00    0.0000E+00    1.015200E+08  0.05000  1.700E-03    0   0.7096   age116_m72            0.0000     1.4262E-05    32.4666   1.1396   240.4402
 59      0.0000     0.0000E+00    0.0000E+00    2.861200E+08  0.05000  7.384E-04    0   0.6633   age125_m72            0.0000     1.4435E-05    31.7779   0.5809   253.6035
 60      0.0000     0.0000E+00    0.0000E+00    5.088000E+08  0.05000  3.819E-04    0   0.6372   age130_m72            0.0000     1.4413E-05    31.0645  -0.0002   262.4859
 61      0.0000     0.0000E+00    0.0000E+00    9.047900E+08  0.05000  1.676E-04    0   0.6110   age135_m72            0.0000     1.4830E-05    30.6661  -0.7546   260.9184
 62      0.0000     0.0000E+00    0.0000E+00    1.434000E+09  0.05000  8.837E-05    0   0.5874   age139_m72            0.0000     1.5303E-05    30.9898  -1.0000   250.0147
 63      0.0000     0.0000E+00    0.0000E+00    2.500000E+09  0.05000  4.233E-05    0   0.5598   age150_m72            0.0000     1.6522E-05    33.8786  -1.0000   232.0037
 64      0.0000     0.0000E+00    0.0000E+00    6.250000E+09  0.05000  1.435E-05    0   0.5249   age166_m72            0.0000     1.9275E-05    40.8539  -1.0000   204.4477
 65      0.0000     0.0000E+00    0.0000E+00    1.300000E+10  0.05000  6.513E-06    0   0.5036   age193_m72            0.0000     2.1946E-05    44.9206  -1.0000   189.9079
 66      0.0000     0.0000E+00    0.0000E+00    1.800000E+10  0.05000  4.527E-06    0   0.4945   age213_m72            0.0000     2.3713E-05    47.0659  -1.0000   179.8322


## Synthesis Results - Average & Chains ##

# j      x_j: min, <> & last-chain-values for 1 ...  7 chains
  1    130.0000      3.7422      4.6962      2.8992      4.9747      0.3519      5.4290      6.0734      4.0472
  2      0.0000      0.2196      0.1142      0.0208      0.0196      0.0068      0.0000      0.0326      0.0428
  3      0.0000      0.2852      0.1005      0.0207      0.0823      0.0075      0.0000      0.0000      0.0748
  4      0.0000      0.2382      0.0367      0.0868      0.0792      0.0019      0.0570      0.0337      0.0000
  5      0.0000      0.2697      0.0075      0.0924      0.0622      0.0106      0.0664      0.0399      0.0000
  6      0.0000      0.2139      0.0238      0.0000      0.0000      0.0000      0.0438      0.0165      0.0818
  7      0.0000      0.3258      0.0718      0.0031      0.0000      0.0000      0.0156      0.0066      0.0000
  8      0.0000      0.2274      0.1424      0.0793      0.0000      0.0000      0.0299      0.0190      0.0513
  9      0.0000      0.2087      0.0000      0.0506      0.0570      0.0106      0.0132      0.0008      0.0601
 10      0.0000      0.2598      0.0645      0.0000      0.0417      0.0260      0.0588      0.0230      0.0000
 11      0.0000      0.2654      0.0000      0.0691      0.0683      0.0147      0.0760      0.0261      0.0000
 12      0.0000      0.1695      0.0368      0.0458      0.1217      0.0000      0.0339      0.0067      0.0000
 13      0.0000      0.2218      0.0000      0.0024      0.0000      0.0266      0.2799      0.0298      0.0199
 14      0.0000      0.1855      0.0067      0.0047      0.0011      0.0104      0.0106      0.0073      0.0000
 15      0.0000      0.2902      0.2223      0.0000      0.0000      0.0091      0.1128      0.0202      0.0055
 16      0.0000      0.2765      0.0576      0.0165      0.1689      0.0000      0.0732      0.0000      0.0025
 17      0.0000      0.3260      0.0437      0.0267      0.0121      0.0228      0.1333      0.0000      0.0000
 18      0.0000      0.3926      0.2602      0.0437      0.2307      0.8157      0.2362      0.0203      0.0731
 19      0.0000      0.2305      0.1192      0.1120      0.0000      0.0005      0.0722      0.0120      0.0382
 20      0.0000      0.1925      0.0000      0.0000      0.0603      0.0001      0.0749      0.0270      0.0252
 21      0.0000      0.2255      0.0000      0.1764      0.0714      0.0081      0.0000      0.0110      0.0635
 22      0.0000      0.2310      0.0272      0.0000      0.0643      0.0110      0.2194      0.0196      0.0000
 23      0.0000      0.2635      0.0902      0.1393      0.1139      0.0273      0.0023      0.0000      0.1019
 24      0.0000      0.3273      0.0000      0.0000      0.0794      0.0254      0.0224      0.0047      0.0000
 25      0.0000      0.2824      0.0391      0.0247      0.0962      0.0279      0.0405      0.0000      0.0582
 26      0.0000      0.2272      0.0214      0.0841      0.0020      0.0000      0.0000      0.0046      0.0000
 27      0.0000      0.3401      0.0755      0.0710      0.1717      0.0011      0.0000      0.0005      0.1552
 28      0.0000      0.2305      0.0861      0.0601      0.0000      0.0000      0.0000      0.0000      0.0000
 29      0.0000      0.2725      0.0551      0.0000      0.0499      0.0328      0.1062      0.0000      0.0331
 30      0.0000      0.1381      0.0596      0.0537      0.0000      0.0036      0.0000      0.0135      0.0000
 31      0.0000      0.2310      0.0909      0.0000      0.0000      0.0084      0.0100      0.0017      0.0462
 32      0.0000      0.2730      0.0000      0.0000      0.1702      0.0223      0.0517      0.0093      0.0000
 33      0.0000      0.1621      0.0000      0.0071      0.0957      0.0231      0.0026      0.0193      0.0000
 34      0.0000      2.3790      2.8941      2.8718      2.8841      0.1879      2.8512      3.7320      2.8517
 35      0.0000      0.2575      0.0555      0.0445      0.0577      0.0081      0.0000      0.0051      0.0298
 36      0.0000      0.2458      0.0667      0.0000      0.0309      0.0440      0.0680      0.0340      0.0563
 37      0.0000      0.1855      0.0000      0.1078      0.0329      0.0269      0.0833      0.0000      0.0518
 38      0.0000      0.2343      0.0394      0.0477      0.0000      0.0000      0.0107      0.0000      0.0246
 39      0.0000      0.2987      0.0144      0.0299      0.0134      0.0036      0.0000      0.0207      0.0675
 40      0.0000      0.2325      0.0232      0.0000      0.0000      0.0100      0.0865      0.0171      0.0000
 41      0.0000      0.2784      0.0007      0.0576      0.0054      0.0000      0.1343      0.0313      0.0608
 42      0.0000      0.1953      0.0484      0.0315      0.0663      0.0000      0.0850      0.0000      0.0000
 43      0.0000      0.2079      0.0000      0.0152      0.0373      0.0052      0.0260      0.0000      0.0000
 44      0.0000      0.2653      0.0955      0.0000      0.0308      0.0128      0.0000      0.0028      0.0822
 45      0.0000      0.2204      0.1537      0.0000      0.0000      0.0000      0.0658      0.0050      0.0093
 46      0.0000      0.3257      0.0126      0.0052      0.0238      0.0036      0.0190      0.0148      0.1366
