###################################################################
## OUTPUT of StarlightChains_v04.for    [Cid@UFSC - 01/Apr/2007] ##
###################################################################

## Some input info
KUG0210-078._41_46.txt                   [arq_obs]
Base.CB07.vall.4m                        [arq_base]
Masks.EmLines.NEW.gm                     [arq_masks]
StCv04.C11.config                        [arq_config]
   66                                    [N_base]
    0                                    [N_YAV_components = # of components with extra extinction!]
    0                                    [i_FitPowerLaw (1/0 = Yes/No)]
-9.99                                    [alpha_PowerLaw]
CCM                                      [red_law_option]
 1.458241                                [q_norm = A(l_norm)/A(V)]

## (Re)Sampling Parameters
 3741.00                                 [l_ini (A)]
 7218.00                                 [l_fin (A)]
    1.00                                 [dl    (A)]     (OBS: dl_cushion =    50.00 A)

## Normalization info
 4020.00                                 [l_norm (A) - for base]
 4010.00                                 [llow_norm (A) - window for f_obs]
 4060.00                                 [lupp_norm (A) - window for f_obs]
3.892192E-18                             [fobs_norm (in input units)]

## S/N
 3691.00                                 [llow_SN (A) - window for S/N]
 7268.00                                 [lupp_SN (A) - window for S/N]
   3.782                                 [S/N in S/N window]
   2.066                                 [S/N in norm. window]
   0.009                                 [S/N_err in S/N window]
   0.005                                 [S/N_err in norm. window]
  1.0000                                 [fscale_chi2]

## etc...
    -2007758                             [idum_orig]
  2347                                   [NOl_eff]
  2119                                   [Nl_eff]
   228    NSIGMA                         [Ntot_cliped & clip_method]
 10580920                                [Nglobal_steps]
   7                                     [N_chains]
  43                                     [NEX0s_base = N_base in EX0s-fits]
 0   0   1      228   2.0   2.642E+03    [Clip-Bug, RC-Crash & Burn-In warning-flags, n_censored_weights, wei_nsig_threshold & wei_limit]
   215    208.505    204.689      3.816  [idt_all, wdt_TotTime, wdt_UsrTime & wdt_SysTime (sec)]

## Synthesis Results - Best model ##

 1.44283E-05                             [chi2/Nl_eff]
    16.76178                             [adev (%)]

   130.00000                             [sum-of-x (%)]
 3.16280E-16                             [Flux_tot (units of input spectrum!)]
 7.80860E-14                             [Mini_tot (???)]
 5.68520E-14                             [Mcor_tot (???)]

-403.15                                  [v0_min  (km/s)]
 142.39                                  [vd_min  (km/s)]
 3.0789                                  [AV_min  (mag)]
 0.0000                                  [YAV_min (mag)]

# j     x_j(%)      Mini_j(%)     Mcor_j(%)     age_j(yr)     Z_j      (L/M)_j    YAV?  Mstars   component_j        a/Fe...       SSP_chi2r SSP_adev(%)   SSP_AV   SSP_x(%)
  1      7.0674     2.0128E+00    2.7646E+00    1.000000E+06  0.00400  1.094E-02    0   1.0000   age020_m42            0.0000     9.5806E-06    15.9588   2.7931   192.8606
  2      3.1295     2.4334E-01    3.3419E-01    3.160000E+06  0.00400  4.007E-02    0   0.9999   age045_m42            0.0000     9.3516E-06    15.4623   2.1441   199.3022
  3      0.0000     0.0000E+00    0.0000E+00    5.010000E+06  0.00400  2.539E-02    0   0.9488   age055_m42            0.0000     9.4589E-06    15.6405   2.4309   197.3484
  4      0.0000     0.0000E+00    0.0000E+00    6.610000E+06  0.00400  2.620E-02    0   0.9220   age061_m42            0.0000     9.3823E-06    15.3225   2.0783   199.2539
  5      0.0000     0.0000E+00    0.0000E+00    1.000000E+07  0.00400  1.322E-02    0   0.8862   age070_m42            0.0000     9.3219E-06    14.6950   1.7955   204.3790
  6     10.5077     4.1531E+00    4.8891E+00    1.445000E+07  0.00400  7.883E-03    0   0.8571   age078_m42            0.0000     9.3898E-06    14.8777   2.1043   200.7754
  7      0.0000     0.0000E+00    0.0000E+00    2.512000E+07  0.00400  5.251E-03    0   0.8174   age090_m42            0.0000     9.3190E-06    14.5760   1.6749   204.8892
  8      0.0000     0.0000E+00    0.0000E+00    4.000000E+07  0.00400  3.649E-03    0   0.7851   age104_m42            0.0000     9.3058E-06    14.5536   1.4620   205.2059
  9      3.0823     3.0999E+00    3.2482E+00    5.500000E+07  0.00400  3.098E-03    0   0.7629   age110_m42            0.0000     9.2737E-06    14.7443   1.6233   204.1327
 10      0.0000     0.0000E+00    0.0000E+00    1.015200E+08  0.00400  2.228E-03    0   0.7207   age116_m42            0.0000     9.2739E-06    14.8434   1.6534   203.4325
 11      0.0000     0.0000E+00    0.0000E+00    2.861200E+08  0.00400  1.093E-03    0   0.6648   age125_m42            0.0000     9.2675E-06    14.6850   1.1089   207.1725
 12      6.7323     3.1796E+01    2.7797E+01    5.088000E+08  0.00400  6.597E-04    0   0.6365   age130_m42            0.0000     9.2285E-06    14.7822   1.1100   207.4855
 13      0.0000     0.0000E+00    0.0000E+00    1.434000E+09  0.00400  2.132E-04    0   0.5798   age139_m42            0.0000     9.3400E-06    14.5328   0.1774   207.7996
 14      0.0000     0.0000E+00    0.0000E+00    4.250000E+09  0.00400  5.895E-05    0   0.5377   age158_m42            0.0000     9.6367E-06    14.8717  -0.2726   199.7937
 15      0.0000     0.0000E+00    0.0000E+00    7.500000E+09  0.00400  3.510E-05    0   0.5212   age171_m42            0.0000     9.7438E-06    15.0269  -0.4556   197.7096
 16      0.0000     0.0000E+00    0.0000E+00    1.300000E+10  0.00400  2.005E-05    0   0.5034   age193_m42            0.0000     9.8707E-06    15.2237  -0.6204   196.2903
 17      0.0000     0.0000E+00    0.0000E+00    1.800000E+10  0.00400  1.525E-05    0   0.4967   age213_m42            0.0000     9.8629E-06    15.1822  -0.6467   195.6805
 18      0.0000     0.0000E+00    0.0000E+00    1.000000E+06  0.00800  1.238E-02    0   1.0000   age020_m52            0.0000     9.5681E-06    15.9701   2.7886   193.3057
 19      6.9764     7.0710E-01    9.6790E-01    3.160000E+06  0.00800  3.074E-02    0   0.9966   age045_m52            0.0000     9.5526E-06    15.9813   2.7146   194.7159
 20     13.0253     1.5211E+00    1.9729E+00    5.010000E+06  0.00800  2.668E-02    0   0.9443   age055_m52            0.0000     9.5000E-06    15.6588   2.5018   196.5808
 21      0.0000     0.0000E+00    0.0000E+00    6.610000E+06  0.00800  2.136E-02    0   0.9177   age061_m52            0.0000     9.3556E-06    14.6476   1.2949   206.5897
 22      3.4670     8.8907E-01    1.0779E+00    1.000000E+07  0.00800  1.215E-02    0   0.8827   age070_m52            0.0000     9.3297E-06    14.6619   1.9645   205.0523
 23      4.2722     1.5270E+00    1.7936E+00    1.445000E+07  0.00800  8.717E-03    0   0.8552   age078_m52            0.0000     9.3667E-06    14.8118   2.0760   203.0459
 24      3.2429     1.8068E+00    2.0256E+00    2.512000E+07  0.00800  5.592E-03    0   0.8162   age090_m52            0.0000     9.3012E-06    14.5503   1.7430   206.9304
 25      0.0000     0.0000E+00    0.0000E+00    4.000000E+07  0.00800  3.896E-03    0   0.7841   age104_m52            0.0000     9.2828E-06    14.5865   1.6712   206.8629
 26      0.0000     0.0000E+00    0.0000E+00    1.015200E+08  0.00800  2.148E-03    0   0.7226   age116_m52            0.0000     9.3163E-06    14.7058   1.6252   204.7731
 27      0.0000     0.0000E+00    0.0000E+00    2.861200E+08  0.00800  9.925E-04    0   0.6683   age125_m52            0.0000     9.2297E-06    14.6920   1.1752   209.4679
 28      0.0000     0.0000E+00    0.0000E+00    9.047900E+08  0.00800  3.141E-04    0   0.6138   age135_m52            0.0000     9.1303E-06    14.6957   0.4197   213.2731
 29      0.2607     4.7245E+00    3.7981E+00    1.434000E+09  0.00800  1.719E-04    0   0.5853   age139_m52            0.0000     9.4404E-06    14.7649  -0.1697   209.2476
 30      0.0000     0.0000E+00    0.0000E+00    2.500000E+09  0.00800  7.872E-05    0   0.5600   age150_m52            0.0000     9.6265E-06    15.0888  -0.4377   203.1109
 31      0.0000     0.0000E+00    0.0000E+00    4.250000E+09  0.00800  4.336E-05    0   0.5426   age158_m52            0.0000     9.6654E-06    15.1016  -0.4516   201.0723
 32      0.0000     0.0000E+00    0.0000E+00    6.250000E+09  0.00800  3.159E-05    0   0.5319   age166_m52            0.0000     9.8341E-06    15.3209  -0.6455   199.9265
 33      0.0000     0.0000E+00    0.0000E+00    1.300000E+10  0.00800  1.361E-05    0   0.5073   age193_m52            0.0000     1.0141E-05    15.2795  -1.0000   191.9493
 34      0.0000     0.0000E+00    0.0000E+00    1.800000E+10  0.00800  9.886E-06    0   0.4990   age213_m52            0.0000     1.0418E-05    15.4410  -1.0000   184.9514
 35      2.1772     4.3935E-01    6.0344E-01    1.000000E+06  0.02000  1.544E-02    0   1.0000   age020_m62            0.0000     9.5671E-06    16.0047   2.7799   194.0882
 36      0.0000     0.0000E+00    0.0000E+00    3.160000E+06  0.02000  3.762E-02    0   0.9858   age045_m62            0.0000     9.5486E-06    16.0909   2.7155   196.0162
 37      0.0000     0.0000E+00    0.0000E+00    5.010000E+06  0.02000  3.296E-02    0   0.9342   age055_m62            0.0000     9.4585E-06    15.6618   2.3999   198.9095
 38      0.0000     0.0000E+00    0.0000E+00    8.710000E+06  0.02000  1.154E-02    0   0.8861   age067_m62            0.0000     9.4135E-06    14.4232   1.3881   214.8809
 39      2.3055     9.3740E-01    1.0908E+00    1.445000E+07  0.02000  7.663E-03    0   0.8472   age078_m62            0.0000     9.3418E-06    14.5353   1.6097   209.9939
 40      1.9091     1.3125E+00    1.4600E+00    2.512000E+07  0.02000  4.532E-03    0   0.8099   age090_m62            0.0000     9.4039E-06    14.5454   1.6083   208.8707
 41     24.5454     2.7982E+01    2.9190E+01    5.500000E+07  0.02000  2.733E-03    0   0.7595   age110_m62            0.0000     9.3684E-06    14.5825   1.6453   206.0832
 42      0.0000     0.0000E+00    0.0000E+00    1.609000E+08  0.02000  1.369E-03    0   0.6985   age120_m62            0.0000     9.2769E-06    14.6750   1.5137   208.5747
 43      0.9454     3.2681E+00    3.0137E+00    2.861200E+08  0.02000  9.013E-04    0   0.6714   age125_m62            0.0000     9.1766E-06    14.6558   1.2876   212.1589
 44      0.0000     0.0000E+00    0.0000E+00    5.088000E+08  0.02000  5.028E-04    0   0.6449   age130_m62            0.0000     9.0503E-06    14.8594   0.9336   214.7918
 45      0.3886     4.9868E+00    4.2322E+00    9.047900E+08  0.02000  2.428E-04    0   0.6179   age135_m62            0.0000     9.2332E-06    14.8588   0.3658   211.2036
 46      0.0528     1.3018E+00    1.0564E+00    1.434000E+09  0.02000  1.263E-04    0   0.5908   age139_m62            0.0000     9.4396E-06    14.9217  -0.0782   207.6918
 47      0.0000     0.0000E+00    0.0000E+00    2.500000E+09  0.02000  5.985E-05    0   0.5673   age150_m62            0.0000     9.6871E-06    15.3303  -0.4528   204.8513
 48      0.0000     0.0000E+00    0.0000E+00    4.250000E+09  0.02000  3.271E-05    0   0.5468   age158_m62            0.0000     1.0031E-05    15.7224  -0.7460   201.5492
 49      0.0000     0.0000E+00    0.0000E+00    1.000000E+10  0.02000  1.360E-05    0   0.5167   age181_m62            0.0000     1.0421E-05    15.7352  -1.0000   194.7366
 50      0.0000     0.0000E+00    0.0000E+00    1.800000E+10  0.02000  7.124E-06    0   0.5013   age213_m62            0.0000     1.0979E-05    15.7927  -1.0000   181.6920
 51     23.5517     2.8310E+00    3.8876E+00    1.000000E+06  0.05000  2.592E-02    0   0.9998   age020_m72            0.0000     9.5476E-06    16.0094   2.7649   194.7261
 52      8.5352     5.4888E-01    7.2199E-01    3.160000E+06  0.05000  4.845E-02    0   0.9577   age045_m72            0.0000     9.5832E-06    16.0223   2.6223   196.5437
 53      0.0000     0.0000E+00    0.0000E+00    5.010000E+06  0.05000  3.072E-02    0   0.9147   age055_m72            0.0000     9.4106E-06    15.0936   2.1633   203.9929
 54      0.0000     0.0000E+00    0.0000E+00    6.610000E+06  0.05000  1.455E-02    0   0.8877   age061_m72            0.0000     9.7249E-06    15.9980   1.4022   218.8514
 55      0.0000     0.0000E+00    0.0000E+00    1.000000E+07  0.05000  9.074E-03    0   0.8524   age070_m72            0.0000     9.5302E-06    15.8724   2.3327   203.6622
 56      0.0000     0.0000E+00    0.0000E+00    2.512000E+07  0.05000  4.250E-03    0   0.7902   age090_m72            0.0000     9.4799E-06    15.1824   2.0806   204.0307
 57      3.8253     3.8609E+00    4.0397E+00    4.000000E+07  0.05000  3.087E-03    0   0.7618   age104_m72            0.0000     9.4629E-06    15.0737   1.8663   206.2735
 58      0.0000     0.0000E+00    0.0000E+00    1.015200E+08  0.05000  1.700E-03    0   0.7096   age116_m72            0.0000     9.3195E-06    14.6742   1.6520   208.2336
 59      0.0000     0.0000E+00    0.0000E+00    2.861200E+08  0.05000  7.384E-04    0   0.6633   age125_m72            0.0000     9.1029E-06    14.6951   1.1707   213.2188
 60      0.0000     0.0000E+00    0.0000E+00    5.088000E+08  0.05000  3.819E-04    0   0.6372   age130_m72            0.0000     9.0876E-06    14.8420   0.6956   214.4257
 61      0.0000     0.0000E+00    0.0000E+00    9.047900E+08  0.05000  1.676E-04    0   0.6110   age135_m72            0.0000     9.4539E-06    15.3468   0.0052   209.0806
 62      0.0000     0.0000E+00    0.0000E+00    1.434000E+09  0.05000  8.837E-05    0   0.5874   age139_m72            0.0000     9.6934E-06    15.3280  -0.4408   206.6354
 63      0.0000     0.0000E+00    0.0000E+00    2.500000E+09  0.05000  4.233E-05    0   0.5598   age150_m72            0.0000     1.0044E-05    15.9043  -0.7508   203.3879
 64      0.0000     0.0000E+00    0.0000E+00    6.250000E+09  0.05000  1.435E-05    0   0.5249   age166_m72            0.0000     1.0594E-05    15.6843  -1.0000   188.7287
 65      0.0001     5.0087E-02    3.4644E-02    1.300000E+10  0.05000  6.513E-06    0   0.5036   age193_m72            0.0000     1.1660E-05    16.5418  -1.0000   174.9134
 66      0.0000     0.0000E+00    0.0000E+00    1.800000E+10  0.05000  4.527E-06    0   0.4945   age213_m72            0.0000     1.2531E-05    17.6299  -1.0000   165.4848


## Synthesis Results - Average & Chains ##

# j      x_j: min, <> & last-chain-values for 1 ...  7 chains
  1      7.0674      0.3271      0.0502      0.0000      0.6727      0.3008      0.0000      0.5482      0.8011
  2      3.1295      0.4979      0.7175      0.1626      0.8099      0.1100      0.5728      1.1024      0.3692
  3      0.0000      0.2970      0.0893      0.2903      0.2136      0.4096      0.3113      0.0000      0.3080
  4      0.0000      0.5282      0.0957      0.4592      1.8011      0.0904      0.0000      0.0000      0.3561
  5      0.0000      0.4495      0.3640      0.4479      0.1118      0.2905      0.8286      0.0000      0.7616
  6     10.5077      0.3829      0.0943      0.0060      0.4819      0.0000      0.0779      0.0000      0.3501
  7      0.0000      0.4465      0.2935      0.5570      0.6637      0.1378      0.4481      0.4914      1.1077
  8      0.0000      0.5748      0.1983      0.2031      0.8262      0.1068      0.7812      0.2984      0.3110
  9      3.0823      0.5352      0.0000      0.1813      0.6562      0.0000      0.4344      1.3842      0.0000
 10      0.0000      0.4693      0.3781      0.4505      0.1980      0.0000      0.0000      0.6157      0.4731
 11      0.0000      0.4457      0.0000      0.3107      0.0000      0.3699      0.1406      0.4812      0.3457
 12      6.7323      0.4182      0.1732      0.0000      0.4828      0.3145      0.4106      2.2302      1.3009
 13      0.0000      0.4392      0.3025      0.0000      0.0729      0.0023      0.5041      0.0000      0.9624
 14      0.0000      0.5526      0.2486      0.2359      0.9299      0.0000      0.0000      0.3736      0.8031
 15      0.0000      0.4647      0.0555      0.2710      0.4099      0.0188      0.4392      0.9474      0.0000
 16      0.0000      0.4082      0.1776      0.0000      0.0726      0.0000      0.0000      0.4168      0.6778
 17      0.0000      0.5144      0.4771      0.0755      0.5706      0.2035      0.4499      1.1708      0.0000
 18      0.0000      0.4723      0.1952      0.5311      0.1106      0.3365      0.6130      0.0000      0.5662
 19      6.9764      0.4101      0.2585      0.2032      0.7287      0.0640      0.1359      0.1600      0.2674
 20     13.0253      0.6123      0.3162      0.2308      1.0915      0.2345      1.1906      0.4036      1.3181
 21      0.0000      0.4519      0.6333      0.0982      0.1475      0.0996      0.3866      0.0000      0.2019
 22      3.4670      0.5370      0.3388      0.1113      0.8394      0.2489      0.3385      0.2892      0.7857
 23      4.2722      0.3765      0.2976      0.0000      0.2969      0.0395      0.1759      0.7401      0.0724
 24      3.2429      0.4889      0.0000      0.3889      0.3695      0.0000      0.1651      0.0108      1.0670
 25      0.0000      0.4354      0.4367      0.0399      0.0000      0.3664      0.3281      0.0000      0.0381
 26      0.0000      0.4671      0.2998      0.0000      0.0000      0.1743      0.5847      0.5913      0.1554
 27      0.0000      0.3369      0.1739      0.0000      0.2650      0.0000      0.0000      0.2895      0.5769
 28      0.0000      0.3595      0.0000      0.0530      0.0937      0.2365      0.3117      0.5606      0.4535
 29      0.2607      0.6103      0.2871      0.0351      0.7758      0.1174      0.0000      0.6261      0.0000
 30      0.0000      0.5183      0.2832      0.2503      1.2767      0.1583      0.0000      0.3734      0.8678
 31      0.0000      0.4046      0.0000      0.1506      0.0000      0.1466      0.2858      0.0183      0.5111
 32      0.0000      0.4776      0.3071      0.1491      0.5069      0.1048      0.0000      0.7737      0.3575
 33      0.0000      0.5886      0.2699      0.2030      0.6193      0.0000      0.3926      0.0137      0.0000
 34      0.0000      0.5389      0.2314      0.0089      0.7039      0.3792      0.6268      0.4343      0.4465
 35      2.1772      1.5370      2.2854      2.2330      1.2409      0.5493      2.2175      1.2713      1.9775
 36      0.0000      0.4473      0.2488      0.3082      0.4147      0.0000      0.3382      0.7773      0.3232
 37      0.0000      0.3335      0.0345      0.0000      0.1397      0.2546      0.0000      0.5048      0.6028
 38      0.0000      0.5380      0.8875      0.0000      0.3920      0.0000      0.4414      0.0000      0.0000
 39      2.3055      0.4766      0.0000      0.0971      0.2846      0.0000      0.0000      0.4851      0.8239
 40      1.9091      0.4506      0.3433      0.2419      0.9936      0.0805      0.0000      0.1272      0.0775
 41     24.5454      0.4642      0.2207      0.1399      0.9087      0.3511      1.0062      0.4809      0.7529
 42      0.0000      0.4401      0.0000      0.1548      0.4542      0.0920      0.9992      0.1485      0.6218
 43      0.9454      0.5168      0.0000      0.3063      0.3646      0.0000      0.5761      0.4287      0.5199
 44      0.0000      0.5322      0.1008      0.0000      0.7559      0.0296      1.0790      0.0000      0.1098
 45      0.3886      0.4897      0.6265      0.6235      1.0345      0.0986      0.1181      0.3622      0.4826
 46      0.0528      0.2980      0.2396      0.1469      0.8287      0.0000      0.0000      0.0609      0.0000
