###################################################################
## OUTPUT of StarlightChains_v04.for    [Cid@UFSC - 01/Apr/2007] ##
###################################################################

## Some input info
KUG0210-078._27_42.txt                   [arq_obs]
Base.CB07.vall.4m                        [arq_base]
Masks.EmLines.NEW.gm                     [arq_masks]
StCv04.C11.config                        [arq_config]
   66                                    [N_base]
    0                                    [N_YAV_components = # of components with extra extinction!]
    0                                    [i_FitPowerLaw (1/0 = Yes/No)]
-9.99                                    [alpha_PowerLaw]
CCM                                      [red_law_option]
 1.458241                                [q_norm = A(l_norm)/A(V)]

## (Re)Sampling Parameters
 3741.00                                 [l_ini (A)]
 7218.00                                 [l_fin (A)]
    1.00                                 [dl    (A)]     (OBS: dl_cushion =    50.00 A)

## Normalization info
 4020.00                                 [l_norm (A) - for base]
 4010.00                                 [llow_norm (A) - window for f_obs]
 4060.00                                 [lupp_norm (A) - window for f_obs]
7.495232E-18                             [fobs_norm (in input units)]

## S/N
 3691.00                                 [llow_SN (A) - window for S/N]
 7268.00                                 [lupp_SN (A) - window for S/N]
   4.370                                 [S/N in S/N window]
   3.384                                 [S/N in norm. window]
   0.013                                 [S/N_err in S/N window]
   0.010                                 [S/N_err in norm. window]
  1.0000                                 [fscale_chi2]

## etc...
    -2007362                             [idum_orig]
  2415                                   [NOl_eff]
  2042                                   [Nl_eff]
   373    NSIGMA                         [Ntot_cliped & clip_method]
 10562160                                [Nglobal_steps]
   7                                     [N_chains]
   7                                     [NEX0s_base = N_base in EX0s-fits]
 0   0   1      373   2.0   6.473E+03    [Clip-Bug, RC-Crash & Burn-In warning-flags, n_censored_weights, wei_nsig_threshold & wei_limit]
    73     72.728     71.911      0.817  [idt_all, wdt_TotTime, wdt_UsrTime & wdt_SysTime (sec)]

## Synthesis Results - Best model ##

 4.11811E-06                             [chi2/Nl_eff]
     9.47298                             [adev (%)]

   130.00000                             [sum-of-x (%)]
 2.56081E-18                             [Flux_tot (units of input spectrum!)]
 2.74757E-13                             [Mini_tot (???)]
 1.39183E-13                             [Mcor_tot (???)]

-213.18                                  [v0_min  (km/s)]
 251.09                                  [vd_min  (km/s)]
-0.9949                                  [AV_min  (mag)]
 0.0000                                  [YAV_min (mag)]

# j     x_j(%)      Mini_j(%)     Mcor_j(%)     age_j(yr)     Z_j      (L/M)_j    YAV?  Mstars   component_j        a/Fe...       SSP_chi2r SSP_adev(%)   SSP_AV   SSP_x(%)
  1      0.0000     0.0000E+00    0.0000E+00    1.000000E+06  0.00400  1.094E-02    0   1.0000   age020_m42            0.0000     4.0742E-06     9.7002   2.6607   144.7377
  2      0.0000     0.0000E+00    0.0000E+00    3.160000E+06  0.00400  4.007E-02    0   0.9999   age045_m42            0.0000     4.1212E-06     9.6131   2.0029   150.2778
  3      0.0000     0.0000E+00    0.0000E+00    5.010000E+06  0.00400  2.539E-02    0   0.9488   age055_m42            0.0000     4.0425E-06     9.5707   2.2898   148.7422
  4      0.0000     0.0000E+00    0.0000E+00    6.610000E+06  0.00400  2.620E-02    0   0.9220   age061_m42            0.0000     4.0680E-06     9.5401   1.9276   150.8542
  5      0.0000     0.0000E+00    0.0000E+00    1.000000E+07  0.00400  1.322E-02    0   0.8862   age070_m42            0.0000     4.0627E-06     9.5706   1.6179   156.7299
  6      0.0000     0.0000E+00    0.0000E+00    1.445000E+07  0.00400  7.883E-03    0   0.8571   age078_m42            0.0000     4.0511E-06     9.5388   1.9335   153.3940
  7      0.0000     0.0000E+00    0.0000E+00    2.512000E+07  0.00400  5.251E-03    0   0.8174   age090_m42            0.0000     4.1014E-06     9.6462   1.4894   157.6798
  8      0.0000     0.0000E+00    0.0000E+00    4.000000E+07  0.00400  3.649E-03    0   0.7851   age104_m42            0.0000     4.1003E-06     9.6380   1.2757   157.9829
  9      0.0000     0.0000E+00    0.0000E+00    5.500000E+07  0.00400  3.098E-03    0   0.7629   age110_m42            0.0000     4.1226E-06     9.6120   1.4538   155.9765
 10      0.0000     0.0000E+00    0.0000E+00    1.015200E+08  0.00400  2.228E-03    0   0.7207   age116_m42            0.0000     4.1175E-06     9.5889   1.4877   155.1370
 11      0.0000     0.0000E+00    0.0000E+00    2.861200E+08  0.00400  1.093E-03    0   0.6648   age125_m42            0.0000     4.1236E-06     9.7736   0.9166   159.9820
 12      0.0000     0.0000E+00    0.0000E+00    5.088000E+08  0.00400  6.597E-04    0   0.6365   age130_m42            0.0000     4.0710E-06     9.6216   0.9304   159.3582
 13      0.0000     0.0000E+00    0.0000E+00    1.434000E+09  0.00400  2.132E-04    0   0.5798   age139_m42            0.0000     3.8265E-06     9.3591  -0.0107   160.3206
 14      0.0000     0.0000E+00    0.0000E+00    4.250000E+09  0.00400  5.895E-05    0   0.5377   age158_m42            0.0000     3.5721E-06     9.1238  -0.4482   153.3562
 15      0.0000     0.0000E+00    0.0000E+00    7.500000E+09  0.00400  3.510E-05    0   0.5212   age171_m42            0.0000     3.5322E-06     9.0930  -0.6285   151.5961
 16      0.0000     0.0000E+00    0.0000E+00    1.300000E+10  0.00400  2.005E-05    0   0.5034   age193_m42            0.0000     3.5299E-06     9.0976  -0.7910   150.3709
 17      0.0000     0.0000E+00    0.0000E+00    1.800000E+10  0.00400  1.525E-05    0   0.4967   age213_m42            0.0000     3.5211E-06     9.1011  -0.8177   149.9714
 18      0.0000     0.0000E+00    0.0000E+00    1.000000E+06  0.00800  1.238E-02    0   1.0000   age020_m52            0.0000     4.0710E-06     9.6969   2.6579   144.9656
 19      0.0000     0.0000E+00    0.0000E+00    3.160000E+06  0.00800  3.074E-02    0   0.9966   age045_m52            0.0000     4.0532E-06     9.6814   2.5876   145.8667
 20      0.0000     0.0000E+00    0.0000E+00    5.010000E+06  0.00800  2.668E-02    0   0.9443   age055_m52            0.0000     4.0241E-06     9.5605   2.3643   147.9544
 21      0.0000     0.0000E+00    0.0000E+00    6.610000E+06  0.00800  2.136E-02    0   0.9177   age061_m52            0.0000     3.8593E-06     9.3686   1.1148   158.6212
 22      0.0000     0.0000E+00    0.0000E+00    1.000000E+07  0.00800  1.215E-02    0   0.8827   age070_m52            0.0000     4.0962E-06     9.6484   1.7805   157.6309
 23      0.0000     0.0000E+00    0.0000E+00    1.445000E+07  0.00800  8.717E-03    0   0.8552   age078_m52            0.0000     4.0529E-06     9.5465   1.9033   155.2636
 24      0.0000     0.0000E+00    0.0000E+00    2.512000E+07  0.00800  5.592E-03    0   0.8162   age090_m52            0.0000     4.1343E-06     9.7218   1.5589   159.1782
 25      0.0000     0.0000E+00    0.0000E+00    4.000000E+07  0.00800  3.896E-03    0   0.7841   age104_m52            0.0000     4.1387E-06     9.7188   1.4900   158.8929
 26      0.0000     0.0000E+00    0.0000E+00    1.015200E+08  0.00800  2.148E-03    0   0.7226   age116_m52            0.0000     4.0815E-06     9.5954   1.4507   156.8036
 27      0.0000     0.0000E+00    0.0000E+00    2.861200E+08  0.00800  9.925E-04    0   0.6683   age125_m52            0.0000     4.0706E-06     9.6165   1.0002   160.5445
 28      0.0000     0.0000E+00    0.0000E+00    9.047900E+08  0.00800  3.141E-04    0   0.6138   age135_m52            0.0000     3.9244E-06     9.5027   0.2676   161.9667
 29      0.0000     0.0000E+00    0.0000E+00    1.434000E+09  0.00800  1.719E-04    0   0.5853   age139_m52            0.0000     3.6660E-06     9.3290  -0.3332   159.8412
 30      0.0000     0.0000E+00    0.0000E+00    2.500000E+09  0.00800  7.872E-05    0   0.5600   age150_m52            0.0000     3.5458E-06     9.1311  -0.5807   153.8234
 31      0.0000     0.0000E+00    0.0000E+00    4.250000E+09  0.00800  4.336E-05    0   0.5426   age158_m52            0.0000     3.5180E-06     9.0980  -0.5972   152.4308
 32      0.0000     0.0000E+00    0.0000E+00    6.250000E+09  0.00800  3.159E-05    0   0.5319   age166_m52            0.0000     3.5146E-06     9.1171  -0.7848   151.2225
 33      0.0000     0.0000E+00    0.0000E+00    1.300000E+10  0.00800  1.361E-05    0   0.5073   age193_m52            0.0000     3.8261E-06     9.8128  -1.0000   137.4106
 34      0.0000     0.0000E+00    0.0000E+00    1.800000E+10  0.00800  9.886E-06    0   0.4990   age213_m52            0.0000     4.1284E-06    10.3287  -1.0000   131.2572
 35      0.0000     0.0000E+00    0.0000E+00    1.000000E+06  0.02000  1.544E-02    0   1.0000   age020_m62            0.0000     4.0709E-06     9.6999   2.6511   145.4634
 36      0.0000     0.0000E+00    0.0000E+00    3.160000E+06  0.02000  3.762E-02    0   0.9858   age045_m62            0.0000     4.0544E-06     9.6784   2.5913   146.6609
 37      0.0000     0.0000E+00    0.0000E+00    5.010000E+06  0.02000  3.296E-02    0   0.9342   age055_m62            0.0000     4.0507E-06     9.5629   2.2638   149.6330
 38      0.0000     0.0000E+00    0.0000E+00    8.710000E+06  0.02000  1.154E-02    0   0.8861   age067_m62            0.0000     4.4345E-06    10.6424   1.1501   169.5816
 39      0.0000     0.0000E+00    0.0000E+00    1.445000E+07  0.02000  7.663E-03    0   0.8472   age078_m62            0.0000     4.1689E-06     9.9641   1.4101   162.7717
 40      0.0000     0.0000E+00    0.0000E+00    2.512000E+07  0.02000  4.532E-03    0   0.8099   age090_m62            0.0000     4.2138E-06    10.1025   1.4022   162.4108
 41      0.0000     0.0000E+00    0.0000E+00    5.500000E+07  0.02000  2.733E-03    0   0.7595   age110_m62            0.0000     4.0390E-06     9.6040   1.4620   158.4764
 42      0.0000     0.0000E+00    0.0000E+00    1.609000E+08  0.02000  1.369E-03    0   0.6985   age120_m62            0.0000     4.0728E-06     9.5813   1.3438   159.4606
 43      0.0000     0.0000E+00    0.0000E+00    2.861200E+08  0.02000  9.013E-04    0   0.6714   age125_m62            0.0000     4.1133E-06     9.5996   1.1241   161.7357
 44      0.0000     0.0000E+00    0.0000E+00    5.088000E+08  0.02000  5.028E-04    0   0.6449   age130_m62            0.0000     4.0973E-06     9.5359   0.8006   161.6599
 45      0.0000     0.0000E+00    0.0000E+00    9.047900E+08  0.02000  2.428E-04    0   0.6179   age135_m62            0.0000     3.7689E-06     9.2839   0.2311   159.1736
 46      0.0000     0.0000E+00    0.0000E+00    1.434000E+09  0.02000  1.263E-04    0   0.5908   age139_m62            0.0000     3.5897E-06     9.1406  -0.2128   156.6442
 47      0.0000     0.0000E+00    0.0000E+00    2.500000E+09  0.02000  5.985E-05    0   0.5673   age150_m62            0.0000     3.5057E-06     9.1061  -0.5693   153.4489
 48      0.0000     0.0000E+00    0.0000E+00    4.250000E+09  0.02000  3.271E-05    0   0.5468   age158_m62            0.0000     3.5309E-06     9.1866  -0.8546   150.5361
 49     62.8531     3.3134E+01    3.3797E+01    1.000000E+10  0.02000  1.360E-05    0   0.5167   age181_m62            0.0000     3.7535E-06     9.4705  -1.0000   139.2511
 50     65.7471     6.6167E+01    6.5479E+01    1.800000E+10  0.02000  7.124E-06    0   0.5013   age213_m62            0.0000     4.3161E-06    10.4398  -1.0000   127.8485
 51      0.0000     0.0000E+00    0.0000E+00    1.000000E+06  0.05000  2.592E-02    0   0.9998   age020_m72            0.0000     4.0663E-06     9.7040   2.6393   145.7592
 52      0.0000     0.0000E+00    0.0000E+00    3.160000E+06  0.05000  4.845E-02    0   0.9577   age045_m72            0.0000     4.0488E-06     9.6523   2.4953   147.2462
 53      0.0000     0.0000E+00    0.0000E+00    5.010000E+06  0.05000  3.072E-02    0   0.9147   age055_m72            0.0000     4.0799E-06     9.7947   1.9942   155.8905
 54      0.0000     0.0000E+00    0.0000E+00    6.610000E+06  0.05000  1.455E-02    0   0.8877   age061_m72            0.0000     5.2188E-06    12.5342   1.1442   174.7171
 55      0.0000     0.0000E+00    0.0000E+00    1.000000E+07  0.05000  9.074E-03    0   0.8524   age070_m72            0.0000     4.3090E-06    10.4995   2.1605   155.9113
 56      0.0000     0.0000E+00    0.0000E+00    2.512000E+07  0.05000  4.250E-03    0   0.7902   age090_m72            0.0000     4.2424E-06    10.1693   1.8979   156.8703
 57      0.0000     0.0000E+00    0.0000E+00    4.000000E+07  0.05000  3.087E-03    0   0.7618   age104_m72            0.0000     4.3089E-06    10.3315   1.6763   159.2178
 58      0.0000     0.0000E+00    0.0000E+00    1.015200E+08  0.05000  1.700E-03    0   0.7096   age116_m72            0.0000     4.1607E-06     9.7697   1.4708   159.9990
 59      0.0000     0.0000E+00    0.0000E+00    2.861200E+08  0.05000  7.384E-04    0   0.6633   age125_m72            0.0000     4.0656E-06     9.5745   1.0262   161.2856
 60      0.0000     0.0000E+00    0.0000E+00    5.088000E+08  0.05000  3.819E-04    0   0.6372   age130_m72            0.0000     3.8646E-06     9.3790   0.5773   160.4323
 61      0.0000     0.0000E+00    0.0000E+00    9.047900E+08  0.05000  1.676E-04    0   0.6110   age135_m72            0.0000     3.5784E-06     9.1990  -0.0942   155.3906
 62      0.0000     0.0000E+00    0.0000E+00    1.434000E+09  0.05000  8.837E-05    0   0.5874   age139_m72            0.0000     3.5236E-06     9.1432  -0.5546   154.6342
 63      0.0000     0.0000E+00    0.0000E+00    2.500000E+09  0.05000  4.233E-05    0   0.5598   age150_m72            0.0000     3.5417E-06     9.2455  -0.8393   150.6754
 64      1.3999     6.9940E-01    7.2471E-01    6.250000E+09  0.05000  1.435E-05    0   0.5249   age166_m72            0.0000     3.9821E-06     9.9145  -1.0000   133.8858
 65      0.0000     0.0000E+00    0.0000E+00    1.300000E+10  0.05000  6.513E-06    0   0.5036   age193_m72            0.0000     5.0543E-06    11.6991  -1.0000   121.6335
 66      0.0000     0.0000E+00    0.0000E+00    1.800000E+10  0.05000  4.527E-06    0   0.4945   age213_m72            0.0000     5.9453E-06    13.0142  -1.0000   113.9518


## Synthesis Results - Average & Chains ##

# j      x_j: min, <> & last-chain-values for 1 ...  7 chains
  1      0.0000      0.3031      0.0107      0.0000      0.0443      0.0003      0.0103      0.0509      0.0195
  2      0.0000      0.2140      0.0000      0.0716      0.0000      0.0011      0.0083      0.0306      0.0000
  3      0.0000      0.2383      0.0000      0.0000      0.0235      0.0043      0.0130      0.0467      0.0543
  4      0.0000      0.2049      0.0218      0.0889      0.0019      0.0018      0.0147      0.0263      0.0254
  5      0.0000      0.2267      0.0295      0.0000      0.0000      0.0199      0.0152      0.0374      0.0000
  6      0.0000      0.3665      0.0064      0.4975      0.0285      0.0045      0.1242      0.0000      0.0396
  7      0.0000      0.1992      0.0000      0.0000      0.0065      0.0000      0.0274      0.0604      0.0097
  8      0.0000      0.2534      0.0373      0.2854      0.0171      0.0048      0.0184      0.0200      0.0000
  9      0.0000      0.3067      0.0000      0.2760      0.0536      0.0219      0.0000      0.0035      0.0731
 10      0.0000      0.3098      0.0151      0.1151      0.0183      0.0000      0.0172      0.0257      0.0326
 11      0.0000      0.1741      0.0109      0.0000      0.0403      0.0216      0.0272      0.0007      0.0193
 12      0.0000     26.0195     30.8665     26.8577     31.4478     28.8996     34.0371     28.8802     24.1200
 13      0.0000      9.6350     10.4551     10.1111      7.5542     11.3181      7.4231     11.1066     16.0266
 14      0.0000      0.2221      0.0313      0.0735      0.0081      0.0271      0.0321      0.0065      0.0267
 15      0.0000      0.2164      0.0221      0.2419      0.0068      0.0108      0.0132      0.0173      0.0211
 16      0.0000      0.2500      0.0068      0.1103      0.0346      0.0309      0.0303      0.0000      0.0231
 17      0.0000      0.2206      0.0603      0.0746      0.0066      0.0299      0.0229      0.0155      0.0303
 18      0.0000      0.2040      0.0119      0.2381      0.0000      0.0387      0.0285      0.0063      0.0586
 19      0.0000      0.2617      0.0165      0.1648      0.0000      0.0070      0.0000      0.0107      0.0119
 20      0.0000      0.2355      0.0168      0.1728      0.0207      0.0155      0.0032      0.0014      0.0224
 21      0.0000      0.3176      0.0076      0.3303      0.0212      0.0197      0.0488      0.0276      0.0471
 22      0.0000      0.2543      0.0000      0.0878      0.0300      0.0063      0.0379      0.0107      0.0359
 23      0.0000      0.2338      0.0094      0.1130      0.0000      0.0248      0.0176      0.0191      0.0227
 24      0.0000      0.2455      0.0251      0.0134      0.0063      0.0120      0.0444      0.0136      0.0163
 25      0.0000      0.3024      0.0038      0.1631      0.0000      0.0140      0.0038      0.0376      0.0536
 26      0.0000      0.2720      0.0004      0.0000      0.0000      0.0193      0.0465      0.0351      0.0062
 27      0.0000      1.0905      0.1593      1.1502      0.4112      1.2219      2.3416      1.2410      1.2099
 28      0.0000      0.3090      0.0020      0.0127      0.0184      0.0063      0.0312      0.0096      0.0330
 29      0.0000      0.2505      0.0000      0.2479      0.0364      0.0217      0.0225      0.0201      0.0381
 30      0.0000      0.2975      0.0245      0.0085      0.0137      0.0032      0.0551      0.0110      0.0187
 31      0.0000      0.2609      0.0097      0.2110      0.0140      0.0106      0.0000      0.0337      0.0023
 32      0.0000      0.2411      0.0083      0.0000      0.0080      0.0482      0.0228      0.0272      0.0023
 33      0.0000      0.2038      0.0000      0.5365      0.0203      0.0327      0.0291      0.0104      0.0063
 34      0.0000      0.1693      0.0134      0.1322      0.0172      0.0164      0.0604      0.0092      0.0013
 35      0.0000      0.2514      0.0122      0.1554      0.0149      0.0172      0.0183      0.0242      0.0042
 36      0.0000      0.2766      0.0284      0.0025      0.0015      0.0129      0.0000      0.0000      0.0269
 37      0.0000      0.2069      0.0128      0.0000      0.0000      0.0311      0.0196      0.0078      0.0210
 38      0.0000      0.2158      0.0306      0.0000      0.0149      0.0304      0.0280      0.0278      0.0041
 39      0.0000      0.2012      0.0000      0.0555      0.0221      0.0118      0.0513      0.0167      0.0156
 40      0.0000      0.2906      0.0108      0.1216      0.0000      0.0000      0.0169      0.0164      0.0255
 41      0.0000      0.2455      0.0102      0.1077      0.0000      0.0435      0.0386      0.0047      0.0000
 42      0.0000      0.3060      0.0238      0.0512      0.0071      0.0127      0.0081      0.0241      0.0043
 43      0.0000      9.3112      9.7883      9.5085     11.2218     10.5702      4.8589     10.6438     10.6399
 44      0.0000      0.2380      0.0174      0.0000      0.0000      0.0097      0.0049      0.0362      0.0077
 45      0.0000      0.3229      0.0074      0.0000      0.0088      0.0162      0.0468      0.0095      0.0211
 46      0.0000      0.2476      0.0069      0.1161      0.0163      0.0394      0.0121      0.0116      0.0000
