###################################################################
## OUTPUT of StarlightChains_v04.for    [Cid@UFSC - 01/Apr/2007] ##
###################################################################

## Some input info
KUG0210-078._32_26.txt                   [arq_obs]
Base.CB07.vall.4m                        [arq_base]
Masks.EmLines.NEW.gm                     [arq_masks]
StCv04.C11.config                        [arq_config]
   66                                    [N_base]
    0                                    [N_YAV_components = # of components with extra extinction!]
    0                                    [i_FitPowerLaw (1/0 = Yes/No)]
-9.99                                    [alpha_PowerLaw]
CCM                                      [red_law_option]
 1.458241                                [q_norm = A(l_norm)/A(V)]

## (Re)Sampling Parameters
 3741.00                                 [l_ini (A)]
 7218.00                                 [l_fin (A)]
    1.00                                 [dl    (A)]     (OBS: dl_cushion =    50.00 A)

## Normalization info
 4020.00                                 [l_norm (A) - for base]
 4010.00                                 [llow_norm (A) - window for f_obs]
 4060.00                                 [lupp_norm (A) - window for f_obs]
2.664880E-17                             [fobs_norm (in input units)]

## S/N
 3691.00                                 [llow_SN (A) - window for S/N]
 7268.00                                 [lupp_SN (A) - window for S/N]
   5.343                                 [S/N in S/N window]
   7.304                                 [S/N in norm. window]
   0.031                                 [S/N_err in S/N window]
   0.042                                 [S/N_err in norm. window]
  1.0000                                 [fscale_chi2]

## etc...
    -2007474                             [idum_orig]
  2432                                   [NOl_eff]
  2107                                   [Nl_eff]
   325    NSIGMA                         [Ntot_cliped & clip_method]
 15581160                                [Nglobal_steps]
   7                                     [N_chains]
  47                                     [NEX0s_base = N_base in EX0s-fits]
 0   0   1      325   2.0   2.136E+04    [Clip-Bug, RC-Crash & Burn-In warning-flags, n_censored_weights, wei_nsig_threshold & wei_limit]
   126    125.442    124.324      1.118  [idt_all, wdt_TotTime, wdt_UsrTime & wdt_SysTime (sec)]

## Synthesis Results - Best model ##

 8.46961E-06                             [chi2/Nl_eff]
     6.59761                             [adev (%)]

    90.41793                             [sum-of-x (%)]
 1.25457E-17                             [Flux_tot (units of input spectrum!)]
 6.86313E-13                             [Mini_tot (???)]
 3.46820E-13                             [Mcor_tot (???)]

  79.67                                  [v0_min  (km/s)]
 199.11                                  [vd_min  (km/s)]
-0.4859                                  [AV_min  (mag)]
 0.0000                                  [YAV_min (mag)]

# j     x_j(%)      Mini_j(%)     Mcor_j(%)     age_j(yr)     Z_j      (L/M)_j    YAV?  Mstars   component_j        a/Fe...       SSP_chi2r SSP_adev(%)   SSP_AV   SSP_x(%)
  1      0.0000     0.0000E+00    0.0000E+00    1.000000E+06  0.00400  1.094E-02    0   1.0000   age020_m42            0.0000     1.2839E-05     8.4100   2.6489    78.4183
  2      0.0000     0.0000E+00    0.0000E+00    3.160000E+06  0.00400  4.007E-02    0   0.9999   age045_m42            0.0000     1.2209E-05     8.0115   2.0007    81.1210
  3      0.0000     0.0000E+00    0.0000E+00    5.010000E+06  0.00400  2.539E-02    0   0.9488   age055_m42            0.0000     1.2300E-05     8.1115   2.2838    80.4042
  4      7.1715     5.5339E-03    1.0097E-02    6.610000E+06  0.00400  2.620E-02    0   0.9220   age061_m42            0.0000     1.1927E-05     7.8864   1.9253    81.4205
  5      0.0000     0.0000E+00    0.0000E+00    1.000000E+07  0.00400  1.322E-02    0   0.8862   age070_m42            0.0000     1.1234E-05     7.4513   1.6207    84.4054
  6      0.0000     0.0000E+00    0.0000E+00    1.445000E+07  0.00400  7.883E-03    0   0.8571   age078_m42            0.0000     1.1529E-05     7.5883   1.9312    82.7553
  7      0.0000     0.0000E+00    0.0000E+00    2.512000E+07  0.00400  5.251E-03    0   0.8174   age090_m42            0.0000     1.1225E-05     7.4262   1.4936    84.8729
  8      0.0000     0.0000E+00    0.0000E+00    4.000000E+07  0.00400  3.649E-03    0   0.7851   age104_m42            0.0000     1.1022E-05     7.3763   1.2794    85.0742
  9      0.0000     0.0000E+00    0.0000E+00    5.500000E+07  0.00400  3.098E-03    0   0.7629   age110_m42            0.0000     1.1258E-05     7.4866   1.4561    84.0294
 10      5.4933     4.9847E-02    7.1090E-02    1.015200E+08  0.00400  2.228E-03    0   0.7207   age116_m42            0.0000     1.1365E-05     7.5447   1.4914    83.5382
 11      0.0000     0.0000E+00    0.0000E+00    2.861200E+08  0.00400  1.093E-03    0   0.6648   age125_m42            0.0000     1.1099E-05     7.3678   0.9259    85.9174
 12      0.0000     0.0000E+00    0.0000E+00    5.088000E+08  0.00400  6.597E-04    0   0.6365   age130_m42            0.0000     1.0846E-05     7.3204   0.9409    85.5760
 13      5.4670     5.1842E-01    5.9482E-01    1.434000E+09  0.00400  2.132E-04    0   0.5798   age139_m42            0.0000     9.3431E-06     6.8729  -0.0015    86.3135
 14      0.0000     0.0000E+00    0.0000E+00    4.250000E+09  0.00400  5.895E-05    0   0.5377   age158_m42            0.0000     9.0130E-06     6.9592  -0.4551    83.2485
 15      0.0000     0.0000E+00    0.0000E+00    7.500000E+09  0.00400  3.510E-05    0   0.5212   age171_m42            0.0000     9.0058E-06     7.0029  -0.6381    82.4078
 16      0.0000     0.0000E+00    0.0000E+00    1.300000E+10  0.00400  2.005E-05    0   0.5034   age193_m42            0.0000     9.1241E-06     7.0866  -0.8018    81.8017
 17      1.2987     1.7218E+00    1.6923E+00    1.800000E+10  0.00400  1.525E-05    0   0.4967   age213_m42            0.0000     9.1387E-06     7.0739  -0.8282    81.5831
 18      0.0076     1.2467E-05    2.4670E-05    1.000000E+06  0.00800  1.238E-02    0   1.0000   age020_m52            0.0000     1.2826E-05     8.4066   2.6461    78.5461
 19      0.3793     2.4943E-04    4.9192E-04    3.160000E+06  0.00800  3.074E-02    0   0.9966   age045_m52            0.0000     1.2767E-05     8.4015   2.5743    79.0775
 20      0.0000     0.0000E+00    0.0000E+00    5.010000E+06  0.00800  2.668E-02    0   0.9443   age055_m52            0.0000     1.2266E-05     8.1325   2.3555    80.0679
 21      0.0000     0.0000E+00    0.0000E+00    6.610000E+06  0.00800  2.136E-02    0   0.9177   age061_m52            0.0000     1.0205E-05     7.2342   1.1145    85.6324
 22      1.1202     1.8640E-03    3.2560E-03    1.000000E+07  0.00800  1.215E-02    0   0.8827   age070_m52            0.0000     1.1303E-05     7.4185   1.7841    84.8357
 23      0.0000     0.0000E+00    0.0000E+00    1.445000E+07  0.00800  8.717E-03    0   0.8552   age078_m52            0.0000     1.1360E-05     7.4960   1.9033    83.6977
 24      0.0000     0.0000E+00    0.0000E+00    2.512000E+07  0.00800  5.592E-03    0   0.8162   age090_m52            0.0000     1.1164E-05     7.3567   1.5625    85.6779
 25      0.0000     0.0000E+00    0.0000E+00    4.000000E+07  0.00800  3.896E-03    0   0.7841   age104_m52            0.0000     1.1119E-05     7.3616   1.4936    85.5379
 26      0.0000     0.0000E+00    0.0000E+00    1.015200E+08  0.00800  2.148E-03    0   0.7226   age116_m52            0.0000     1.1082E-05     7.4226   1.4530    84.4811
 27      0.0000     0.0000E+00    0.0000E+00    2.861200E+08  0.00800  9.925E-04    0   0.6683   age125_m52            0.0000     1.0620E-05     7.2837   1.0049    86.4187
 28      0.0000     0.0000E+00    0.0000E+00    9.047900E+08  0.00800  3.141E-04    0   0.6138   age135_m52            0.0000     9.5826E-06     6.9774   0.2632    87.6612
 29      0.0000     0.0000E+00    0.0000E+00    1.434000E+09  0.00800  1.719E-04    0   0.5853   age139_m52            0.0000     8.8191E-06     6.7446  -0.3440    86.8528
 30      0.0000     0.0000E+00    0.0000E+00    2.500000E+09  0.00800  7.872E-05    0   0.5600   age150_m52            0.0000     8.7899E-06     6.8883  -0.6037    84.1113
 31      0.0000     0.0000E+00    0.0000E+00    4.250000E+09  0.00800  4.336E-05    0   0.5426   age158_m52            0.0000     8.8647E-06     6.9319  -0.6192    83.3251
 32      0.0000     0.0000E+00    0.0000E+00    6.250000E+09  0.00800  3.159E-05    0   0.5319   age166_m52            0.0000     9.0694E-06     7.0613  -0.8120    82.8702
 33      0.0000     0.0000E+00    0.0000E+00    1.300000E+10  0.00800  1.361E-05    0   0.5073   age193_m52            0.0000     1.1674E-05     7.6821  -1.0000    74.8481
 34      0.0000     0.0000E+00    0.0000E+00    1.800000E+10  0.00800  9.886E-06    0   0.4990   age213_m52            0.0000     1.3951E-05     8.3641  -1.0000    71.5610
 35      0.0000     0.0000E+00    0.0000E+00    1.000000E+06  0.02000  1.544E-02    0   1.0000   age020_m62            0.0000     1.2850E-05     8.4164   2.6401    78.7955
 36      0.0000     0.0000E+00    0.0000E+00    3.160000E+06  0.02000  3.762E-02    0   0.9858   age045_m62            0.0000     1.2834E-05     8.4509   2.5780    79.4973
 37      0.0000     0.0000E+00    0.0000E+00    5.010000E+06  0.02000  3.296E-02    0   0.9342   age055_m62            0.0000     1.2204E-05     8.0940   2.2564    80.9211
 38      0.0032     5.6933E-06    9.9830E-06    8.710000E+06  0.02000  1.154E-02    0   0.8861   age067_m62            0.0000     1.1973E-05     7.6464   1.1647    90.7931
 39      0.0000     0.0000E+00    0.0000E+00    1.445000E+07  0.02000  7.663E-03    0   0.8472   age078_m62            0.0000     1.1116E-05     7.3283   1.4146    87.5523
 40      0.0000     0.0000E+00    0.0000E+00    2.512000E+07  0.02000  4.532E-03    0   0.8099   age090_m62            0.0000     1.1289E-05     7.3902   1.4078    87.3083
 41      1.0432     7.7167E-03    1.1598E-02    5.500000E+07  0.02000  2.733E-03    0   0.7595   age110_m62            0.0000     1.0803E-05     7.2686   1.4648    85.3671
 42      0.0011     1.5915E-05    2.1999E-05    1.609000E+08  0.02000  1.369E-03    0   0.6985   age120_m62            0.0000     1.0825E-05     7.3355   1.3460    85.9259
 43      0.0000     0.0000E+00    0.0000E+00    2.861200E+08  0.02000  9.013E-04    0   0.6714   age125_m62            0.0000     1.0632E-05     7.2766   1.1267    87.1781
 44      0.0000     0.0000E+00    0.0000E+00    5.088000E+08  0.02000  5.028E-04    0   0.6449   age130_m62            0.0000     1.0283E-05     7.2428   0.7947    87.5264
 45      0.0000     0.0000E+00    0.0000E+00    9.047900E+08  0.02000  2.428E-04    0   0.6179   age135_m62            0.0000     9.1800E-06     6.9515   0.2145    86.6762
 46      0.0000     0.0000E+00    0.0000E+00    1.434000E+09  0.02000  1.263E-04    0   0.5908   age139_m62            0.0000     8.7076E-06     6.8461  -0.2392    85.7413
 47      0.0000     0.0000E+00    0.0000E+00    2.500000E+09  0.02000  5.985E-05    0   0.5673   age150_m62            0.0000     9.0246E-06     7.0583  -0.6053    84.4239
 48      0.0000     0.0000E+00    0.0000E+00    4.250000E+09  0.02000  3.271E-05    0   0.5468   age158_m62            0.0000     9.7490E-06     7.3978  -0.8970    83.0849
 49      6.4315     9.5608E+00    9.7758E+00    1.000000E+10  0.02000  1.360E-05    0   0.5167   age181_m62            0.0000     1.2411E-05     7.6788  -1.0000    76.0116
 50      0.0000     0.0000E+00    0.0000E+00    1.800000E+10  0.02000  7.124E-06    0   0.5013   age213_m62            0.0000     1.7140E-05     8.8449  -1.0000    69.8807
 51     13.0614     1.0188E-02    2.0156E-02    1.000000E+06  0.05000  2.592E-02    0   0.9998   age020_m72            0.0000     1.2921E-05     8.4270   2.6246    79.0651
 52      0.0000     0.0000E+00    0.0000E+00    3.160000E+06  0.05000  4.845E-02    0   0.9577   age045_m72            0.0000     1.2706E-05     8.3890   2.4834    79.7812
 53      1.4606     9.6124E-04    1.7399E-03    5.010000E+06  0.05000  3.072E-02    0   0.9147   age055_m72            0.0000     1.1626E-05     7.6757   1.9874    84.1819
 54      3.6563     5.0804E-03    8.9245E-03    6.610000E+06  0.05000  1.455E-02    0   0.8877   age061_m72            0.0000     1.5886E-05     9.4980   1.1565    93.3174
 55      0.0879     1.9587E-04    3.3039E-04    1.000000E+07  0.05000  9.074E-03    0   0.8524   age070_m72            0.0000     1.3067E-05     8.6183   2.1478    84.2345
 56      7.8456     3.7321E-02    5.8359E-02    2.512000E+07  0.05000  4.250E-03    0   0.7902   age090_m72            0.0000     1.2149E-05     7.8960   1.8928    84.5914
 57      0.0000     0.0000E+00    0.0000E+00    4.000000E+07  0.05000  3.087E-03    0   0.7618   age104_m72            0.0000     1.2138E-05     7.8318   1.6763    85.6982
 58      0.0000     0.0000E+00    0.0000E+00    1.015200E+08  0.05000  1.700E-03    0   0.7096   age116_m72            0.0000     1.1198E-05     7.3770   1.4762    86.0559
 59      0.0000     0.0000E+00    0.0000E+00    2.861200E+08  0.05000  7.384E-04    0   0.6633   age125_m72            0.0000     1.0263E-05     7.1577   1.0227    87.2055
 60      0.0000     0.0000E+00    0.0000E+00    5.088000E+08  0.05000  3.819E-04    0   0.6372   age130_m72            0.0000     9.3741E-06     7.0316   0.5609    87.3533
 61      1.3007     1.5690E-01    1.8971E-01    9.047900E+08  0.05000  1.676E-04    0   0.6110   age135_m72            0.0000     8.9710E-06     7.1124  -0.1308    85.4774
 62      9.1600     2.0956E+00    2.4359E+00    1.434000E+09  0.05000  8.837E-05    0   0.5874   age139_m72            0.0000     8.8902E-06     6.9934  -0.5929    85.1592
 63      0.0000     0.0000E+00    0.0000E+00    2.500000E+09  0.05000  4.233E-05    0   0.5598   age150_m72            0.0000     1.0021E-05     7.4877  -0.8919    83.5423
 64      0.0000     0.0000E+00    0.0000E+00    6.250000E+09  0.05000  1.435E-05    0   0.5249   age166_m72            0.0000     1.4211E-05     8.1345  -1.0000    73.1519
 65     20.3663     6.3219E+01    6.3002E+01    1.300000E+10  0.05000  6.513E-06    0   0.5036   age193_m72            0.0000     2.2589E-05    10.3257  -1.0000    66.5302
 66      5.0624     2.2608E+01    2.2123E+01    1.800000E+10  0.05000  4.527E-06    0   0.4945   age213_m72            0.0000     2.9011E-05    11.9120  -1.0000    62.3281


## Synthesis Results - Average & Chains ##

# j      x_j: min, <> & last-chain-values for 1 ...  7 chains
  1      0.0000      0.2218      0.4592      0.2467      0.1857      2.2522      1.3004      1.4716      0.0000
  2      0.0000      0.2362      1.0938      0.0000      0.0000      0.4372      0.2216      1.1954      0.6256
  3      0.0000      1.1381      1.0442      0.6462      1.9928      1.1507      2.2708      1.1017      1.3093
  4      7.1715      0.2562      0.9619      0.0000      1.3213      0.0000      0.8364      1.0879      0.1409
  5      0.0000      0.2320      0.6173      0.1550      0.0000      0.0000      0.3275      0.9200      0.7797
  6      0.0000      0.2205      0.1567      0.3718      0.1451      0.0000      0.0000      0.0000      0.0000
  7      0.0000      0.7467      2.0000      1.2539      1.7875      0.5376      0.0191      0.0058      0.9398
  8      0.0000      0.7351      0.9311      1.2463      1.6204      0.7068      0.7062      0.2469      1.9506
  9      0.0000      0.1992      0.0000      0.0000      0.7369      0.0000      0.5996      1.6600      1.2944
 10      5.4933      0.1870      0.1442      1.1286      0.0000      0.0000      0.4009      2.4175      0.0000
 11      0.0000      0.2281      1.3621      0.2977      1.2513      0.0113      0.5604      0.9365      0.0000
 12      0.0000     13.1439      8.6206      8.4824      7.5543     13.3689     10.7155      5.0771     10.6090
 13      5.4670      0.2621      0.0000      1.1354      0.4620      1.0314      0.4690      1.5471      0.0000
 14      0.0000      0.2102      0.1953      0.1452      0.2901      0.0000      0.0000      0.4469      0.0000
 15      0.0000      0.1970      0.0000      1.5862      0.4638      0.4654      0.0000      1.0276      0.1999
 16      0.0000      0.1709      1.6650      0.0000      1.2680      0.0245      0.0751      0.0000      0.2652
 17      1.2987      0.2524      0.0471      0.0168      0.7301      0.0000      0.5908      1.8812      0.8316
 18      0.0076      0.1775      1.1441      1.3020      0.9806      0.0000      0.2308      0.4690      0.1633
 19      0.3793      0.1576      0.0000      0.0000      1.4700      0.0846      0.3908      0.5028      0.2919
 20      0.0000      0.1868      0.9712      0.6172      0.2454      0.4948      1.1902      0.0188      0.3694
 21      0.0000      0.2438      0.0000      0.0000      0.2143      0.3337      1.0389      1.9692      0.7052
 22      1.1202      0.7744      1.2259      1.3250      2.2513      0.6487      1.4464      0.9479      0.3643
 23      0.0000      0.3029      1.1380      0.8134      0.9849      0.0000      1.6797      0.2963      0.7998
 24      0.0000      0.2587      0.3804      1.6404      1.3464      0.5859      0.4834      0.0000      0.5584
 25      0.0000      2.6757      3.3639      1.5618      2.6811      0.0651      1.8301      3.7253      2.9577
 26      0.0000      0.5857      0.7702      0.0962      0.3398      2.6169      0.1761      1.1481      1.9249
 27      0.0000      0.2170      0.4712      1.0847      1.0829      1.0139      0.0000      0.0000      0.8024
 28      0.0000      0.1885      0.5622      0.7825      0.6183      0.0000      0.0000      0.0000      0.5477
 29      0.0000      4.3430      4.4199      3.6828      3.8454      3.4089      4.3100      2.8894      2.3311
 30      0.0000      0.2390      0.3695      0.0381      0.0000      1.0855      0.0000      0.3178      0.0000
 31      0.0000      0.2327      0.0000      1.7335      0.5553      0.1305      0.8626      1.2257      0.0617
 32      0.0000      0.2033      0.0000      0.0000      0.8254      1.9379      0.0530      1.9300      1.0849
 33      0.0000      0.3029      0.9568      0.0202      1.2970      2.3611      1.8510      1.3404      0.4211
 34      0.0000      0.2120      0.3189      0.6881      0.0000      0.3372      1.2938      0.8914      0.2171
 35      0.0000      0.2476      0.0000      1.2502      0.0000      0.2642      0.5098      1.0811      0.9216
 36      0.0000      0.2540      0.8030      0.2139      0.4723      0.4434      0.0000      0.9195      0.4947
 37      0.0000      0.2066      0.8043      1.0451      2.5853      0.0000      0.4622      0.4194      0.4847
 38      0.0032      0.2256      0.0000      0.0000      0.0000      2.3099      1.1147      1.2150      0.8380
 39      0.0000      0.2975      1.4505      0.3267      0.0000      1.5951      1.1804      0.0000      0.0000
 40      0.0000      0.9095      2.0977      0.9436      0.9624      0.4565      1.3849      0.4295      0.4896
 41      1.0432      0.2127      0.0764      0.9135      0.0801      0.6747      0.0000      2.6472      0.1457
 42      0.0011      0.2337      0.0000      0.4516      1.2254      1.4642      0.1306      0.8591      0.2058
 43      0.0000      0.1995      0.1292      0.4459      0.0000      0.0000      0.7126      0.5714      1.5190
 44      0.0000      0.2597      0.5033      0.8453      0.0000      0.4928      1.3383      0.6355      0.1551
 45      0.0000      0.1773      0.0000      0.0145      0.0000      1.2918      1.1107      0.0000      0.0782
 46      0.0000      0.2750      0.0000      3.2455      0.6769      1.7165      0.0000      1.0494      0.9778
