###################################################################
## OUTPUT of StarlightChains_v04.for    [Cid@UFSC - 01/Apr/2007] ##
###################################################################

## Some input info
KUG0210-078._33_27.txt                   [arq_obs]
Base.CB07.vall.4m                        [arq_base]
Masks.EmLines.NEW.gm                     [arq_masks]
StCv04.C11.config                        [arq_config]
   66                                    [N_base]
    0                                    [N_YAV_components = # of components with extra extinction!]
    0                                    [i_FitPowerLaw (1/0 = Yes/No)]
-9.99                                    [alpha_PowerLaw]
CCM                                      [red_law_option]
 1.458241                                [q_norm = A(l_norm)/A(V)]

## (Re)Sampling Parameters
 3741.00                                 [l_ini (A)]
 7218.00                                 [l_fin (A)]
    1.00                                 [dl    (A)]     (OBS: dl_cushion =    50.00 A)

## Normalization info
 4020.00                                 [l_norm (A) - for base]
 4010.00                                 [llow_norm (A) - window for f_obs]
 4060.00                                 [lupp_norm (A) - window for f_obs]
2.366540E-17                             [fobs_norm (in input units)]

## S/N
 3691.00                                 [llow_SN (A) - window for S/N]
 7268.00                                 [lupp_SN (A) - window for S/N]
   4.925                                 [S/N in S/N window]
   5.153                                 [S/N in norm. window]
   0.031                                 [S/N_err in S/N window]
   0.032                                 [S/N_err in norm. window]
  1.0000                                 [fscale_chi2]

## etc...
    -2007502                             [idum_orig]
  2432                                   [NOl_eff]
  2090                                   [Nl_eff]
   342    NSIGMA                         [Ntot_cliped & clip_method]
 10475360                                [Nglobal_steps]
   7                                     [N_chains]
  32                                     [NEX0s_base = N_base in EX0s-fits]
 0   0   1      342   2.0   1.948E+04    [Clip-Bug, RC-Crash & Burn-In warning-flags, n_censored_weights, wei_nsig_threshold & wei_limit]
    52     52.007     51.477      0.531  [idt_all, wdt_TotTime, wdt_UsrTime & wdt_SysTime (sec)]

## Synthesis Results - Best model ##

 6.26582E-06                             [chi2/Nl_eff]
     4.28779                             [adev (%)]

   125.82121                             [sum-of-x (%)]
 7.77269E-18                             [Flux_tot (units of input spectrum!)]
 5.69921E-13                             [Mini_tot (???)]
 2.86585E-13                             [Mcor_tot (???)]

  44.85                                  [v0_min  (km/s)]
 228.00                                  [vd_min  (km/s)]
-1.0000                                  [AV_min  (mag)]
 0.0000                                  [YAV_min (mag)]

# j     x_j(%)      Mini_j(%)     Mcor_j(%)     age_j(yr)     Z_j      (L/M)_j    YAV?  Mstars   component_j        a/Fe...       SSP_chi2r SSP_adev(%)   SSP_AV   SSP_x(%)
  1      2.8604     2.8341E-03    5.6361E-03    1.000000E+06  0.00400  1.094E-02    0   1.0000   age020_m42            0.0000     1.2401E-05     5.7064   2.4944   112.5072
  2      0.7793     2.1080E-04    4.1917E-04    3.160000E+06  0.00400  4.007E-02    0   0.9999   age045_m42            0.0000     1.2589E-05     5.6373   1.8626   115.7385
  3      0.0000     0.0000E+00    0.0000E+00    5.010000E+06  0.00400  2.539E-02    0   0.9488   age055_m42            0.0000     1.2286E-05     5.5793   2.1390   114.9811
  4      0.0000     0.0000E+00    0.0000E+00    6.610000E+06  0.00400  2.620E-02    0   0.9220   age061_m42            0.0000     1.2297E-05     5.6090   1.7892   116.0841
  5      0.0000     0.0000E+00    0.0000E+00    1.000000E+07  0.00400  1.322E-02    0   0.8862   age070_m42            0.0000     1.2273E-05     5.9087   1.4996   119.7197
  6      0.0000     0.0000E+00    0.0000E+00    1.445000E+07  0.00400  7.883E-03    0   0.8571   age078_m42            0.0000     1.2321E-05     5.8249   1.8056   117.5806
  7      0.0000     0.0000E+00    0.0000E+00    2.512000E+07  0.00400  5.251E-03    0   0.8174   age090_m42            0.0000     1.2494E-05     6.1139   1.3785   120.1468
  8      0.0000     0.0000E+00    0.0000E+00    4.000000E+07  0.00400  3.649E-03    0   0.7851   age104_m42            0.0000     1.2255E-05     6.0526   1.1642   120.4176
  9      0.0000     0.0000E+00    0.0000E+00    5.500000E+07  0.00400  3.098E-03    0   0.7629   age110_m42            0.0000     1.2367E-05     5.8909   1.3361   119.1508
 10      1.1923     5.8006E-03    8.3136E-03    1.015200E+08  0.00400  2.228E-03    0   0.7207   age116_m42            0.0000     1.2372E-05     5.7907   1.3675   118.6074
 11      0.0000     0.0000E+00    0.0000E+00    2.861200E+08  0.00400  1.093E-03    0   0.6648   age125_m42            0.0000     1.2674E-05     6.2896   0.8158   121.4074
 12      0.0000     0.0000E+00    0.0000E+00    5.088000E+08  0.00400  6.597E-04    0   0.6365   age130_m42            0.0000     1.2177E-05     5.9248   0.8254   121.1402
 13      0.0000     0.0000E+00    0.0000E+00    1.434000E+09  0.00400  2.132E-04    0   0.5798   age139_m42            0.0000     9.7031E-06     5.2406  -0.1228   122.4142
 14      0.0000     0.0000E+00    0.0000E+00    4.250000E+09  0.00400  5.895E-05    0   0.5377   age158_m42            0.0000     7.7839E-06     4.5150  -0.5979   118.9239
 15      3.3159     1.0240E+00    1.0614E+00    7.500000E+09  0.00400  3.510E-05    0   0.5212   age171_m42            0.0000     7.3733E-06     4.3731  -0.7876   117.9887
 16      0.0000     0.0000E+00    0.0000E+00    1.300000E+10  0.00400  2.005E-05    0   0.5034   age193_m42            0.0000     7.2220E-06     4.3386  -0.9562   117.3275
 17      0.0000     0.0000E+00    0.0000E+00    1.800000E+10  0.00400  1.525E-05    0   0.4967   age213_m42            0.0000     7.2621E-06     4.3581  -0.9830   117.0218
 18      0.0000     0.0000E+00    0.0000E+00    1.000000E+06  0.00800  1.238E-02    0   1.0000   age020_m52            0.0000     1.2374E-05     5.6980   2.4908   112.7167
 19      0.0000     0.0000E+00    0.0000E+00    3.160000E+06  0.00800  3.074E-02    0   0.9966   age045_m52            0.0000     1.2271E-05     5.6490   2.4205   113.4298
 20      1.6210     6.5856E-04    1.2367E-03    5.010000E+06  0.00800  2.668E-02    0   0.9443   age055_m52            0.0000     1.2060E-05     5.5265   2.2085   114.5840
 21      0.0000     0.0000E+00    0.0000E+00    6.610000E+06  0.00800  2.136E-02    0   0.9177   age061_m52            0.0000     1.0414E-05     5.3983   0.9880   121.6722
 22      0.0000     0.0000E+00    0.0000E+00    1.000000E+07  0.00800  1.215E-02    0   0.8827   age070_m52            0.0000     1.2499E-05     6.1135   1.6676   120.1558
 23      0.3166     3.9364E-04    6.6946E-04    1.445000E+07  0.00800  8.717E-03    0   0.8552   age078_m52            0.0000     1.2238E-05     5.8231   1.7796   118.8310
 24      2.8111     5.4490E-03    8.8445E-03    2.512000E+07  0.00800  5.592E-03    0   0.8162   age090_m52            0.0000     1.2576E-05     6.2136   1.4502   121.1767
 25      0.0000     0.0000E+00    0.0000E+00    4.000000E+07  0.00800  3.896E-03    0   0.7841   age104_m52            0.0000     1.2501E-05     6.1882   1.3807   121.0026
 26      0.1219     6.1493E-04    8.8366E-04    1.015200E+08  0.00800  2.148E-03    0   0.7226   age116_m52            0.0000     1.2115E-05     5.9204   1.3342   119.7413
 27      0.0000     0.0000E+00    0.0000E+00    2.861200E+08  0.00800  9.925E-04    0   0.6683   age125_m52            0.0000     1.1649E-05     5.8740   0.8892   122.3648
 28      0.0000     0.0000E+00    0.0000E+00    9.047900E+08  0.00800  3.141E-04    0   0.6138   age135_m52            0.0000     9.6951E-06     5.3691   0.1388   124.5124
 29      0.0000     0.0000E+00    0.0000E+00    1.434000E+09  0.00800  1.719E-04    0   0.5853   age139_m52            0.0000     8.0085E-06     4.9551  -0.4764   123.6893
 30      0.0000     0.0000E+00    0.0000E+00    2.500000E+09  0.00800  7.872E-05    0   0.5600   age150_m52            0.0000     6.8832E-06     4.3245  -0.7573   120.6357
 31      0.0000     0.0000E+00    0.0000E+00    4.250000E+09  0.00800  4.336E-05    0   0.5426   age158_m52            0.0000     6.8540E-06     4.3186  -0.7747   119.5760
 32      3.1089     1.0667E+00    1.1284E+00    6.250000E+09  0.00800  3.159E-05    0   0.5319   age166_m52            0.0000     6.5999E-06     4.2773  -0.9761   119.2744
 33      0.0000     0.0000E+00    0.0000E+00    1.300000E+10  0.00800  1.361E-05    0   0.5073   age193_m52            0.0000     1.3447E-05     9.0219  -1.0000   103.5392
 34      2.8493     3.1241E+00    3.1002E+00    1.800000E+10  0.00800  9.886E-06    0   0.4990   age213_m52            0.0000     1.7313E-05    10.4811  -1.0000    99.2538
 35      6.6037     4.6360E-03    9.2194E-03    1.000000E+06  0.02000  1.544E-02    0   1.0000   age020_m62            0.0000     1.2375E-05     5.6980   2.4848   113.0778
 36      0.0000     0.0000E+00    0.0000E+00    3.160000E+06  0.02000  3.762E-02    0   0.9858   age045_m62            0.0000     1.2291E-05     5.6849   2.4236   114.0576
 37      0.0000     0.0000E+00    0.0000E+00    5.010000E+06  0.02000  3.296E-02    0   0.9342   age055_m62            0.0000     1.2136E-05     5.5294   2.1116   115.7115
 38      0.0000     0.0000E+00    0.0000E+00    8.710000E+06  0.02000  1.154E-02    0   0.8861   age067_m62            0.0000     1.4663E-05     7.9519   1.0792   127.2392
 39      1.7787     2.5160E-03    4.2389E-03    1.445000E+07  0.02000  7.663E-03    0   0.8472   age078_m62            0.0000     1.2831E-05     6.6779   1.3104   123.4876
 40      0.0000     0.0000E+00    0.0000E+00    2.512000E+07  0.02000  4.532E-03    0   0.8099   age090_m62            0.0000     1.3215E-05     6.9197   1.3068   123.0135
 41      0.0000     0.0000E+00    0.0000E+00    5.500000E+07  0.02000  2.733E-03    0   0.7595   age110_m62            0.0000     1.1931E-05     6.0048   1.3488   120.8811
 42      0.0000     0.0000E+00    0.0000E+00    1.609000E+08  0.02000  1.369E-03    0   0.6985   age120_m62            0.0000     1.1820E-05     5.8602   1.2277   121.7843
 43      0.0000     0.0000E+00    0.0000E+00    2.861200E+08  0.02000  9.013E-04    0   0.6714   age125_m62            0.0000     1.1610E-05     5.7576   1.0081   123.5696
 44      0.0000     0.0000E+00    0.0000E+00    5.088000E+08  0.02000  5.028E-04    0   0.6449   age130_m62            0.0000     1.0734E-05     5.3749   0.6682   124.4125
 45      6.1231     2.7335E-01    3.3589E-01    9.047900E+08  0.02000  2.428E-04    0   0.6179   age135_m62            0.0000     8.3410E-06     4.7704   0.0771   123.6528
 46      0.0000     0.0000E+00    0.0000E+00    1.434000E+09  0.02000  1.263E-04    0   0.5908   age139_m62            0.0000     6.9919E-06     4.4137  -0.3874   122.7553
 47      0.0000     0.0000E+00    0.0000E+00    2.500000E+09  0.02000  5.985E-05    0   0.5673   age150_m62            0.0000     6.3876E-06     4.2326  -0.7721   121.6332
 48      0.0000     0.0000E+00    0.0000E+00    4.250000E+09  0.02000  3.271E-05    0   0.5468   age158_m62            0.0000     6.6675E-06     4.2845  -1.0000   117.7056
 49      0.0000     0.0000E+00    0.0000E+00    1.000000E+10  0.02000  1.360E-05    0   0.5167   age181_m62            0.0000     1.3243E-05     8.0748  -1.0000   105.1624
 50      0.0000     0.0000E+00    0.0000E+00    1.800000E+10  0.02000  7.124E-06    0   0.5013   age213_m62            0.0000     2.1700E-05    11.1412  -1.0000    97.1539
 51      0.1534     6.4153E-05    1.2755E-04    1.000000E+06  0.05000  2.592E-02    0   0.9998   age020_m72            0.0000     1.2402E-05     5.7041   2.4693   113.4631
 52      0.0000     0.0000E+00    0.0000E+00    3.160000E+06  0.05000  4.845E-02    0   0.9577   age045_m72            0.0000     1.2282E-05     5.6380   2.3304   114.4024
 53      0.0000     0.0000E+00    0.0000E+00    5.010000E+06  0.05000  3.072E-02    0   0.9147   age055_m72            0.0000     1.2587E-05     6.3027   1.8691   119.3402
 54      0.0000     0.0000E+00    0.0000E+00    6.610000E+06  0.05000  1.455E-02    0   0.8877   age061_m72            0.0000     1.9655E-05    10.4388   1.0953   129.7839
 55      0.0000     0.0000E+00    0.0000E+00    1.000000E+07  0.05000  9.074E-03    0   0.8524   age070_m72            0.0000     1.4222E-05     7.2866   2.0391   119.1000
 56      6.1743     1.5747E-02    2.4746E-02    2.512000E+07  0.05000  4.250E-03    0   0.7902   age090_m72            0.0000     1.3708E-05     6.8715   1.7850   119.5119
 57      0.0000     0.0000E+00    0.0000E+00    4.000000E+07  0.05000  3.087E-03    0   0.7618   age104_m72            0.0000     1.4010E-05     7.1259   1.5744   120.8259
 58      0.0000     0.0000E+00    0.0000E+00    1.015200E+08  0.05000  1.700E-03    0   0.7096   age116_m72            0.0000     1.2643E-05     6.2567   1.3635   121.7276
 59      5.3001     7.7803E-02    1.0263E-01    2.861200E+08  0.05000  7.384E-04    0   0.6633   age125_m72            0.0000     1.0823E-05     5.5266   0.8980   123.8580
 60      0.0000     0.0000E+00    0.0000E+00    5.088000E+08  0.05000  3.819E-04    0   0.6372   age130_m72            0.0000     8.7290E-06     4.8586   0.4227   124.6518
 61     14.7270     9.5245E-01    1.1573E+00    9.047900E+08  0.05000  1.676E-04    0   0.6110   age135_m72            0.0000     6.5516E-06     4.2978  -0.2939   122.9797
 62     15.7369     1.9303E+00    2.2548E+00    1.434000E+09  0.05000  8.837E-05    0   0.5874   age139_m72            0.0000     6.1811E-06     4.2581  -0.7577   122.6055
 63      0.0000     0.0000E+00    0.0000E+00    2.500000E+09  0.05000  4.233E-05    0   0.5598   age150_m72            0.0000     6.7509E-06     4.3487  -1.0000   118.5709
 64     17.5708     1.3272E+01    1.3854E+01    6.250000E+09  0.05000  1.435E-05    0   0.5249   age166_m72            0.0000     1.6694E-05     9.5368  -1.0000   101.4315
 65      0.0000     0.0000E+00    0.0000E+00    1.300000E+10  0.05000  6.513E-06    0   0.5036   age193_m72            0.0000     3.0954E-05    13.7267  -1.0000    92.8364
 66     32.6767     7.8240E+01    7.6941E+01    1.800000E+10  0.05000  4.527E-06    0   0.4945   age213_m72            0.0000     4.1470E-05    15.9802  -1.0000    87.2451


## Synthesis Results - Average & Chains ##

# j      x_j: min, <> & last-chain-values for 1 ...  7 chains
  1      2.8604      0.2883      0.0000      0.0972      0.4657      0.3463      0.0000      0.0000      0.0395
  2      0.7793      0.2241      0.1476      0.6253      0.0037      0.4934      0.2209      0.0824      0.0726
  3      0.0000      0.2434      0.2906      0.0000      0.2550      0.1692      0.3740      0.1286      0.8644
  4      0.0000      0.2614      0.0134      0.3176      0.2850      0.0920      0.0819      0.1883      0.5238
  5      0.0000      0.1960      0.0000      0.4456      0.0000      0.0000      0.0671      0.4496      0.1982
  6      0.0000      0.2651      0.8256      0.5980      0.1786      0.0350      0.1633      0.5107      0.2617
  7      0.0000      0.2178      0.1145      0.0962      0.1821      0.0570      0.1472      0.0000      0.3132
  8      0.0000      0.2812      0.3417      0.4254      0.1452      0.6566      0.3818      0.2040      0.0000
  9      0.0000      0.2276      0.8482      0.2433      0.3641      0.1168      0.2135      0.0034      0.0000
 10      1.1923      0.2002      0.1670      0.0319      0.0786      0.2105      0.3017      0.5932      0.6885
 11      0.0000      0.2027      0.2331      0.3362      0.0488      0.3537      0.3474      0.0691      0.0493
 12      0.0000      3.0123      2.3750      3.0877      3.2532      3.3113      3.1304      2.8033      2.9635
 13      0.0000     18.2188     17.7894     18.9298     20.6291     18.5481     18.8679     18.7450     18.6278
 14      0.0000      0.2377      0.1112      0.1322      0.1014      0.0146      0.7814      0.4324      0.1537
 15      3.3159      0.3096      0.6125      0.3858      0.1786      0.3379      0.3626      0.0848      0.3423
 16      0.0000      0.2577      0.0000      0.7053      0.1569      0.1053      0.0000      0.3189      0.4430
 17      0.0000      0.2263      0.4819      0.4727      0.0347      0.0000      0.0285      0.5812      0.0000
 18      0.0000      0.1871      0.0895      0.1709      0.4600      0.0000      0.0899      0.5667      0.0334
 19      0.0000      0.2444      0.0000      0.0000      0.1363      0.1166      0.0000      0.0355      0.3609
 20      1.6210      0.2474      0.3235      0.3255      0.1945      0.6758      0.6866      0.0939      0.1269
 21      0.0000      0.1891      0.0000      0.1156      0.2511      0.8319      0.3694      0.0926      0.0000
 22      0.0000      0.2075      0.5387      0.4186      0.1613      0.0982      0.0325      0.0000      0.0000
 23      0.3166      0.1893      0.0000      0.0331      0.0264      0.4212      0.3215      0.3593      0.5570
 24      2.8111      0.3390      0.6727      0.0062      0.0317      0.5160      1.1918      0.2313      0.6939
 25      0.0000      0.2589      0.0000      0.1359      0.2839      0.0000      0.3295      0.2588      0.0000
 26      0.1219      0.2416      0.0600      0.1698      0.0615      1.1289      0.9151      0.2369      0.1796
 27      0.0000      0.1984      0.3195      0.1194      0.2650      0.0489      0.0684      0.4335      0.0917
 28      0.0000      0.1894      0.3948      0.2194      0.0000      0.0872      0.0000      0.1476      0.5009
 29      0.0000      0.2618      0.4918      0.4920      0.1668      0.2147      0.4393      0.0000      0.7893
 30      0.0000      0.2329      0.1405      0.0450      0.1703      0.0801      0.0000      0.2013      0.3093
 31      0.0000      0.2284      0.1174      0.2935      0.2728      0.5125      0.0000      0.2897      0.2486
 32      3.1089      0.1681      0.0477      0.0000      0.0146      0.6010      0.0279      0.0000      0.4269
 33      0.0000      0.2572      0.0000      0.0916      0.1666      0.0562      0.2649      0.1534      0.2291
 34      2.8493     18.5355     17.6518     17.3968     18.9301     17.7358     18.4087     18.2851     18.8500
 35      6.6037      0.1657      0.0708      0.1497      0.0404      0.3578      0.4274      0.0000      0.0000
 36      0.0000      0.1914      1.1333      0.0359      0.3138      0.0000      0.2410      0.0000      0.0765
 37      0.0000      0.2107      0.2539      0.0797      0.0932      0.0000      0.2472      0.1460      0.2047
 38      0.0000      0.2550      0.5280      0.1966      0.4967      0.1770      0.1115      0.6054      0.3622
 39      1.7787      0.2655      0.6706      0.2109      0.3525      0.2457      0.0000      0.7062      0.0000
 40      0.0000      0.3036      1.2546      0.5009      0.2524      0.0071      0.0000      0.0000      0.2554
 41      0.0000      0.2525      0.4544      0.0835      0.0250      0.4450      0.0000      0.7081      0.4099
 42      0.0000      0.3035      0.0000      0.0000      0.4008      0.3955      0.5778      0.3533      0.7042
 43      0.0000      0.2160      0.0000      0.1603      0.3289      0.5197      0.1751      0.2446      0.5155
 44      0.0000      0.3735      0.5188      0.4426      0.4650      0.0000      0.1361      0.6978      0.9037
 45      6.1231      0.2884      0.0737      0.1341      0.0330      0.6300      0.2110      0.3255      0.1189
 46      0.0000      0.3252      0.2390      0.6175      0.1871      0.0000      0.2198      0.0000      0.5030
