###################################################################
## OUTPUT of StarlightChains_v04.for    [Cid@UFSC - 01/Apr/2007] ##
###################################################################

## Some input info
KUG0210-078._33_30.txt                   [arq_obs]
Base.CB07.vall.4m                        [arq_base]
Masks.EmLines.NEW.gm                     [arq_masks]
StCv04.C11.config                        [arq_config]
   66                                    [N_base]
    0                                    [N_YAV_components = # of components with extra extinction!]
    0                                    [i_FitPowerLaw (1/0 = Yes/No)]
-9.99                                    [alpha_PowerLaw]
CCM                                      [red_law_option]
 1.458241                                [q_norm = A(l_norm)/A(V)]

## (Re)Sampling Parameters
 3741.00                                 [l_ini (A)]
 7218.00                                 [l_fin (A)]
    1.00                                 [dl    (A)]     (OBS: dl_cushion =    50.00 A)

## Normalization info
 4020.00                                 [l_norm (A) - for base]
 4010.00                                 [llow_norm (A) - window for f_obs]
 4060.00                                 [lupp_norm (A) - window for f_obs]
6.369819E-17                             [fobs_norm (in input units)]

## S/N
 3691.00                                 [llow_SN (A) - window for S/N]
 7268.00                                 [lupp_SN (A) - window for S/N]
   4.699                                 [S/N in S/N window]
   4.207                                 [S/N in norm. window]
   0.112                                 [S/N_err in S/N window]
   0.100                                 [S/N_err in norm. window]
  1.0000                                 [fscale_chi2]

## etc...
    -2007505                             [idum_orig]
  2432                                   [NOl_eff]
  2100                                   [Nl_eff]
   332    NSIGMA                         [Ntot_cliped & clip_method]
 10276770                                [Nglobal_steps]
   7                                     [N_chains]
   9                                     [NEX0s_base = N_base in EX0s-fits]
 0   0   1      332   2.0   5.162E+04    [Clip-Bug, RC-Crash & Burn-In warning-flags, n_censored_weights, wei_nsig_threshold & wei_limit]
   107    105.008    103.881      1.128  [idt_all, wdt_TotTime, wdt_UsrTime & wdt_SysTime (sec)]

## Synthesis Results - Best model ##

 4.44104E-05                             [chi2/Nl_eff]
     4.66444                             [adev (%)]

   113.10234                             [sum-of-x (%)]
 1.88573E-17                             [Flux_tot (units of input spectrum!)]
 2.49170E-12                             [Mini_tot (???)]
 1.25101E-12                             [Mcor_tot (???)]

 -27.02                                  [v0_min  (km/s)]
 163.71                                  [vd_min  (km/s)]
-0.9980                                  [AV_min  (mag)]
 0.0000                                  [YAV_min (mag)]

# j     x_j(%)      Mini_j(%)     Mcor_j(%)     age_j(yr)     Z_j      (L/M)_j    YAV?  Mstars   component_j        a/Fe...       SSP_chi2r SSP_adev(%)   SSP_AV   SSP_x(%)
  1      0.0000     0.0000E+00    0.0000E+00    1.000000E+06  0.00400  1.094E-02    0   1.0000   age020_m42            0.0000     1.6032E-04     8.2304   3.1332   105.5590
  2      0.0000     0.0000E+00    0.0000E+00    3.160000E+06  0.00400  4.007E-02    0   0.9999   age045_m42            0.0000     1.8593E-04     9.1605   2.4826   109.2101
  3      0.0000     0.0000E+00    0.0000E+00    5.010000E+06  0.00400  2.539E-02    0   0.9488   age055_m42            0.0000     1.7268E-04     8.7596   2.7685   108.1095
  4      0.0000     0.0000E+00    0.0000E+00    6.610000E+06  0.00400  2.620E-02    0   0.9220   age061_m42            0.0000     1.8715E-04     9.3077   2.4145   109.2097
  5      0.0000     0.0000E+00    0.0000E+00    1.000000E+07  0.00400  1.322E-02    0   0.8862   age070_m42            0.0000     2.1996E-04    10.5939   2.1441   111.2829
  6      0.0000     0.0000E+00    0.0000E+00    1.445000E+07  0.00400  7.883E-03    0   0.8571   age078_m42            0.0000     2.0848E-04    10.1642   2.4465   109.5975
  7      0.0000     0.0000E+00    0.0000E+00    2.512000E+07  0.00400  5.251E-03    0   0.8174   age090_m42            0.0000     2.3139E-04    10.9732   2.0230   111.5472
  8      0.0000     0.0000E+00    0.0000E+00    4.000000E+07  0.00400  3.649E-03    0   0.7851   age104_m42            0.0000     2.2945E-04    10.9563   1.8065   111.8990
  9      0.0000     0.0000E+00    0.0000E+00    5.500000E+07  0.00400  3.098E-03    0   0.7629   age110_m42            0.0000     2.2032E-04    10.5085   1.9645   111.5262
 10      0.0000     0.0000E+00    0.0000E+00    1.015200E+08  0.00400  2.228E-03    0   0.7207   age116_m42            0.0000     2.1421E-04    10.2411   1.9919   111.3157
 11      0.0000     0.0000E+00    0.0000E+00    2.861200E+08  0.00400  1.093E-03    0   0.6648   age125_m42            0.0000     2.3351E-04    11.0345   1.4580   113.0698
 12      0.0000     0.0000E+00    0.0000E+00    5.088000E+08  0.00400  6.597E-04    0   0.6365   age130_m42            0.0000     2.1640E-04    10.4433   1.4552   113.5496
 13      0.0000     0.0000E+00    0.0000E+00    1.434000E+09  0.00400  2.132E-04    0   0.5798   age139_m42            0.0000     1.7823E-04     9.8770   0.5070   114.6249
 14      0.0000     0.0000E+00    0.0000E+00    4.250000E+09  0.00400  5.895E-05    0   0.5377   age158_m42            0.0000     1.1802E-04     8.1231   0.0376   111.3501
 15      0.0000     0.0000E+00    0.0000E+00    7.500000E+09  0.00400  3.510E-05    0   0.5212   age171_m42            0.0000     1.0298E-04     7.5651  -0.1531   110.6300
 16      0.0000     0.0000E+00    0.0000E+00    1.300000E+10  0.00400  2.005E-05    0   0.5034   age193_m42            0.0000     9.2802E-05     7.0952  -0.3193   109.9997
 17      0.0000     0.0000E+00    0.0000E+00    1.800000E+10  0.00400  1.525E-05    0   0.4967   age213_m42            0.0000     9.3043E-05     7.1441  -0.3443   109.6494
 18      0.0000     0.0000E+00    0.0000E+00    1.000000E+06  0.00800  1.238E-02    0   1.0000   age020_m52            0.0000     1.5947E-04     8.1981   3.1273   105.8502
 19      0.0000     0.0000E+00    0.0000E+00    3.160000E+06  0.00800  3.074E-02    0   0.9966   age045_m52            0.0000     1.5832E-04     8.1951   3.0540   106.6338
 20      0.0000     0.0000E+00    0.0000E+00    5.010000E+06  0.00800  2.668E-02    0   0.9443   age055_m52            0.0000     1.6756E-04     8.6330   2.8403   107.6674
 21      0.0000     0.0000E+00    0.0000E+00    6.610000E+06  0.00800  2.136E-02    0   0.9177   age061_m52            0.0000     1.9083E-04    10.0707   1.6407   112.6873
 22      0.0000     0.0000E+00    0.0000E+00    1.000000E+07  0.00800  1.215E-02    0   0.8827   age070_m52            0.0000     2.2600E-04    10.8310   2.3140   111.6133
 23      0.0000     0.0000E+00    0.0000E+00    1.445000E+07  0.00800  8.717E-03    0   0.8552   age078_m52            0.0000     2.1056E-04    10.3012   2.4205   110.7409
 24      0.0000     0.0000E+00    0.0000E+00    2.512000E+07  0.00800  5.592E-03    0   0.8162   age090_m52            0.0000     2.3380E-04    11.0956   2.0916   112.6897
 25      0.0000     0.0000E+00    0.0000E+00    4.000000E+07  0.00800  3.896E-03    0   0.7841   age104_m52            0.0000     2.3042E-04    10.9876   2.0162   112.8763
 26      0.0000     0.0000E+00    0.0000E+00    1.015200E+08  0.00800  2.148E-03    0   0.7226   age116_m52            0.0000     2.1428E-04    10.4943   1.9645   112.0625
 27      0.0000     0.0000E+00    0.0000E+00    2.861200E+08  0.00800  9.925E-04    0   0.6683   age125_m52            0.0000     2.1401E-04    10.4408   1.5233   114.4773
 28      0.0000     0.0000E+00    0.0000E+00    9.047900E+08  0.00800  3.141E-04    0   0.6138   age135_m52            0.0000     1.7694E-04     9.6566   0.7526   117.6811
 29      0.0000     0.0000E+00    0.0000E+00    1.434000E+09  0.00800  1.719E-04    0   0.5853   age139_m52            0.0000     1.3688E-04     8.8496   0.1611   115.8666
 30      0.0000     0.0000E+00    0.0000E+00    2.500000E+09  0.00800  7.872E-05    0   0.5600   age150_m52            0.0000     9.6608E-05     7.4479  -0.1290   113.4988
 31      0.0000     0.0000E+00    0.0000E+00    4.250000E+09  0.00800  4.336E-05    0   0.5426   age158_m52            0.0000     9.3464E-05     7.3195  -0.1490   112.6184
 32      0.0000     0.0000E+00    0.0000E+00    6.250000E+09  0.00800  3.159E-05    0   0.5319   age166_m52            0.0000     7.8831E-05     6.7047  -0.3478   112.3600
 33      0.0000     0.0000E+00    0.0000E+00    1.300000E+10  0.00800  1.361E-05    0   0.5073   age193_m52            0.0000     6.3501E-05     5.9988  -0.8158   111.4665
 34      0.0000     0.0000E+00    0.0000E+00    1.800000E+10  0.00800  9.886E-06    0   0.4990   age213_m52            0.0000     5.4330E-05     5.4423  -0.9276   110.9868
 35      0.0000     0.0000E+00    0.0000E+00    1.000000E+06  0.02000  1.544E-02    0   1.0000   age020_m62            0.0000     1.5852E-04     8.1636   3.1208   106.2208
 36      0.0000     0.0000E+00    0.0000E+00    3.160000E+06  0.02000  3.762E-02    0   0.9858   age045_m62            0.0000     1.5694E-04     8.1204   3.0576   107.2419
 37      0.0000     0.0000E+00    0.0000E+00    5.010000E+06  0.02000  3.296E-02    0   0.9342   age055_m62            0.0000     1.7195E-04     8.7302   2.7398   108.8846
 38      0.0000     0.0000E+00    0.0000E+00    8.710000E+06  0.02000  1.154E-02    0   0.8861   age067_m62            0.0000     3.1440E-04    13.4946   1.7641   115.6204
 39      0.0000     0.0000E+00    0.0000E+00    1.445000E+07  0.02000  7.663E-03    0   0.8472   age078_m62            0.0000     2.4865E-04    11.6864   1.9727   113.8494
 40      0.0000     0.0000E+00    0.0000E+00    2.512000E+07  0.02000  4.532E-03    0   0.8099   age090_m62            0.0000     2.5777E-04    11.9481   1.9727   113.2021
 41      0.0000     0.0000E+00    0.0000E+00    5.500000E+07  0.02000  2.733E-03    0   0.7595   age110_m62            0.0000     2.1998E-04    10.7943   1.9942   112.3194
 42      0.0000     0.0000E+00    0.0000E+00    1.609000E+08  0.02000  1.369E-03    0   0.6985   age120_m62            0.0000     2.1667E-04    10.5322   1.8626   113.7388
 43      0.0000     0.0000E+00    0.0000E+00    2.861200E+08  0.02000  9.013E-04    0   0.6714   age125_m62            0.0000     2.1931E-04    10.5224   1.6343   115.8110
 44      0.0000     0.0000E+00    0.0000E+00    5.088000E+08  0.02000  5.028E-04    0   0.6449   age130_m62            0.0000     1.9924E-04     9.7875   1.2726   117.8956
 45      0.0000     0.0000E+00    0.0000E+00    9.047900E+08  0.02000  2.428E-04    0   0.6179   age135_m62            0.0000     1.4128E-04     8.6931   0.6812   117.3677
 46      0.0000     0.0000E+00    0.0000E+00    1.434000E+09  0.02000  1.263E-04    0   0.5908   age139_m62            0.0000     1.0877E-04     7.9219   0.2261   116.1006
 47      0.0000     0.0000E+00    0.0000E+00    2.500000E+09  0.02000  5.985E-05    0   0.5673   age150_m62            0.0000     7.9340E-05     6.7696  -0.1533   114.9636
 48      5.4357     1.1120E+00    1.2110E+00    4.250000E+09  0.02000  3.271E-05    0   0.5468   age158_m62            0.0000     5.9266E-05     5.8137  -0.4614   113.9674
 49      0.0000     0.0000E+00    0.0000E+00    1.000000E+10  0.02000  1.360E-05    0   0.5167   age181_m62            0.0000     4.8060E-05     5.1136  -0.8139   113.5097
 50    104.7994     9.8435E+01    9.8284E+01    1.800000E+10  0.02000  7.124E-06    0   0.5013   age213_m62            0.0000     4.4975E-05     4.8250  -1.0000   111.9196
 51      0.0000     0.0000E+00    0.0000E+00    1.000000E+06  0.05000  2.592E-02    0   0.9998   age020_m72            0.0000     1.5746E-04     8.1278   3.1054   106.6049
 52      0.0000     0.0000E+00    0.0000E+00    3.160000E+06  0.05000  4.845E-02    0   0.9577   age045_m72            0.0000     1.5927E-04     8.2476   2.9622   107.6292
 53      0.0000     0.0000E+00    0.0000E+00    5.010000E+06  0.05000  3.072E-02    0   0.9147   age055_m72            0.0000     2.0588E-04    10.2460   2.5278   110.8995
 54      0.0000     0.0000E+00    0.0000E+00    6.610000E+06  0.05000  1.455E-02    0   0.8877   age061_m72            0.0000     3.7239E-04    14.8247   1.8335   116.4635
 55      0.0000     0.0000E+00    0.0000E+00    1.000000E+07  0.05000  9.074E-03    0   0.8524   age070_m72            0.0000     2.0912E-04    10.2294   2.7265   110.2609
 56      0.0000     0.0000E+00    0.0000E+00    2.512000E+07  0.05000  4.250E-03    0   0.7902   age090_m72            0.0000     2.2764E-04    10.8507   2.4493   110.8993
 57      0.0000     0.0000E+00    0.0000E+00    4.000000E+07  0.05000  3.087E-03    0   0.7618   age104_m72            0.0000     2.4264E-04    11.3361   2.2395   111.9229
 58      0.0000     0.0000E+00    0.0000E+00    1.015200E+08  0.05000  1.700E-03    0   0.7096   age116_m72            0.0000     2.3129E-04    10.9629   2.0052   113.4138
 59      0.0000     0.0000E+00    0.0000E+00    2.861200E+08  0.05000  7.384E-04    0   0.6633   age125_m72            0.0000     2.0438E-04    10.1074   1.5069   117.0355
 60      0.0000     0.0000E+00    0.0000E+00    5.088000E+08  0.05000  3.819E-04    0   0.6372   age130_m72            0.0000     1.5827E-04     9.0210   1.0135   118.8128
 61      0.0000     0.0000E+00    0.0000E+00    9.047900E+08  0.05000  1.676E-04    0   0.6110   age135_m72            0.0000     9.2865E-05     7.1876   0.2988   117.3509
 62      0.0000     0.0000E+00    0.0000E+00    1.434000E+09  0.05000  8.837E-05    0   0.5874   age139_m72            0.0000     7.8213E-05     6.7365  -0.1526   116.5684
 63      2.8673     4.5325E-01    5.0537E-01    2.500000E+09  0.05000  4.233E-05    0   0.5598   age150_m72            0.0000     5.5003E-05     5.5434  -0.4678   115.1630
 64      0.0000     0.0000E+00    0.0000E+00    6.250000E+09  0.05000  1.435E-05    0   0.5249   age166_m72            0.0000     4.5880E-05     4.8630  -0.9184   113.3619
 65      0.0000     0.0000E+00    0.0000E+00    1.300000E+10  0.05000  6.513E-06    0   0.5036   age193_m72            0.0000     7.1316E-05     6.4407  -1.0000   108.2707
 66      0.0000     0.0000E+00    0.0000E+00    1.800000E+10  0.05000  4.527E-06    0   0.4945   age213_m72            0.0000     1.3244E-04     8.7353  -1.0000   102.9547


## Synthesis Results - Average & Chains ##

# j      x_j: min, <> & last-chain-values for 1 ...  7 chains
  1      0.0000      0.3317      0.1158      0.0975      0.0080      0.0000      0.0018      0.0393      0.0000
  2      0.0000      0.2736      0.0421      0.0000      0.0190      0.1206      0.0000      0.0311      0.0068
  3      0.0000      0.2617      0.0000      0.0000      0.0159      0.0000      0.0181      0.0000      0.0183
  4      0.0000      0.3056      0.0407      0.1302      0.0039      0.1692      0.0220      0.0242      0.0273
  5      0.0000      0.4307      0.0000      0.0339      0.0085      0.3011      0.0261      0.0492      0.1869
  6      0.0000      0.3265      0.0470      0.0450      0.0000      0.4587      0.0000      0.0472      0.0146
  7      0.0000      0.3173      0.0215      0.0587      0.0057      0.0000      0.0000      0.0604      0.0116
  8      0.0000      0.3947      0.0423      0.0000      0.0013      0.1453      0.0093      0.0248      0.0000
  9      0.0000      0.4655      0.0176      0.0698      0.0343      0.3137      0.0000      0.0000      0.0178
 10      0.0000      0.4170      0.0000      0.0913      0.0005      0.0000      0.0000      0.0000      0.0804
 11      0.0000      0.3731      0.0364      0.0968      0.0000      0.0000      0.1140      0.0535      0.0874
 12      0.0000      0.3475      0.0002      0.0000      0.0166      0.4386      0.0000      0.0349      0.0470
 13      0.0000      0.3882      0.1417      0.0957      0.0310      0.1388      0.0061      0.0241      0.0296
 14      0.0000      0.3245      0.0000      0.1050      0.0103      0.2235      0.0508      0.0606      0.0000
 15      0.0000      0.4945      0.0457      0.0089      0.0003      0.5818      0.0406      0.0040      0.0176
 16      0.0000      0.3606      0.1191      0.0014      0.0107      0.5584      0.0018      0.1437      0.0334
 17      0.0000      0.5119      0.0179      0.0147      0.0020      0.1899      0.0299      0.0486      0.0000
 18      0.0000      0.3434      0.0670      0.0432      0.0135      0.0000      0.0571      0.0889      0.0000
 19      0.0000      0.4489      0.0492      0.0307      0.0193      0.7028      0.0473      0.0030      0.0552
 20      0.0000      0.2260      0.0156      0.0986      0.0064      0.0000      0.0481      0.0000      0.0060
 21      0.0000      0.3960      0.0051      0.1590      0.0017      0.0828      0.0269      0.0000      0.0000
 22      0.0000      0.3246      0.0112      0.0000      0.0019      0.0000      0.0022      0.0887      0.0452
 23      0.0000      0.3798      0.0000      0.1711      0.0000      0.4279      0.0045      0.1386      0.0156
 24      0.0000      0.3214      0.0166      0.0393      0.0000      0.1674      0.0000      0.0000      0.0016
 25      0.0000      0.4368      0.0017      0.0235      0.0057      0.6570      0.0000      0.0133      0.0091
 26      0.0000      0.4628      0.0276      0.0000      0.0000      0.2347      0.0000      0.0342      0.0000
 27      0.0000      0.4100      0.0773      0.0000      0.0175      0.6681      0.0000      0.0251      0.0150
 28      0.0000      0.3418      0.0469      0.0127      0.0045      0.1681      0.0000      0.0000      0.0000
 29      0.0000      0.3928      0.1098      0.0000      0.0105      0.1119      0.1857      0.0436      0.0224
 30      0.0000      0.3158      0.1807      0.0058      0.0000      0.3549      0.1191      0.0596      0.0244
 31      0.0000      0.3422      0.0365      0.1043      0.0000      0.2901      0.0080      0.0785      0.0052
 32      0.0000      0.4770      0.0422      0.1075      0.0154      2.0984      0.0003      0.0433      0.0000
 33      0.0000      0.3205      0.0184      0.1414      0.0019      0.3861      0.0338      0.0102      0.0011
 34      0.0000      0.4077      0.0000      0.0317      0.0092      0.4009      0.0992      0.0449      0.0000
 35      0.0000      0.4930      0.0836      0.0000      0.0079      0.7191      0.0000      0.0118      0.0367
 36      0.0000      0.3929      0.0997      0.0653      0.0000      0.2603      0.0000      0.0000      0.0803
 37      0.0000      0.2691      0.0546      0.0000      0.0067      0.2516      0.0582      0.0528      0.0458
 38      0.0000      0.4551      0.0315      0.0021      0.0248      0.0000      0.0435      0.0044      0.0396
 39      0.0000      0.3295      0.0264      0.0261      0.0066      0.1145      0.0813      0.0086      0.0000
 40      0.0000      0.3009      0.0000      0.0000      0.0000      0.1092      0.0563      0.0204      0.0044
 41      0.0000      0.3695      0.0089      0.1151      0.0076      0.1459      0.0197      0.0296      0.0589
 42      0.0000      0.4384      0.0335      0.0600      0.0242      0.0000      0.0501      0.0543      0.0000
 43      0.0000      0.4335      0.0159      0.0206      0.0070      0.2394      0.0000      0.1092      0.0093
 44      0.0000     17.7039     19.9582     13.8886     36.5975     17.6212     17.4725     18.3789     20.5756
 45      0.0000      1.9260      1.2134      1.1659      5.4016      2.0127      1.2153      1.3715      0.8054
 46      0.0000      0.3659      0.0965      0.0285      0.0000      0.4118      0.0346      0.0616      0.0144
