###################################################################
## OUTPUT of StarlightChains_v04.for    [Cid@UFSC - 01/Apr/2007] ##
###################################################################

## Some input info
KUG0210-078._22_29.txt                   [arq_obs]
Base.CB07.vall.4m                        [arq_base]
Masks.EmLines.NEW.gm                     [arq_masks]
StCv04.C11.config                        [arq_config]
   66                                    [N_base]
    0                                    [N_YAV_components = # of components with extra extinction!]
    0                                    [i_FitPowerLaw (1/0 = Yes/No)]
-9.99                                    [alpha_PowerLaw]
CCM                                      [red_law_option]
 1.458241                                [q_norm = A(l_norm)/A(V)]

## (Re)Sampling Parameters
 3741.00                                 [l_ini (A)]
 7218.00                                 [l_fin (A)]
    1.00                                 [dl    (A)]     (OBS: dl_cushion =    50.00 A)

## Normalization info
 4020.00                                 [l_norm (A) - for base]
 4010.00                                 [llow_norm (A) - window for f_obs]
 4060.00                                 [lupp_norm (A) - window for f_obs]
6.279075E-18                             [fobs_norm (in input units)]

## S/N
 3691.00                                 [llow_SN (A) - window for S/N]
 7268.00                                 [lupp_SN (A) - window for S/N]
   3.480                                 [S/N in S/N window]
   2.217                                 [S/N in norm. window]
   0.016                                 [S/N_err in S/N window]
   0.010                                 [S/N_err in norm. window]
  1.0000                                 [fscale_chi2]

## etc...
    -2007245                             [idum_orig]
  2381                                   [NOl_eff]
  1898                                   [Nl_eff]
   483    NSIGMA                         [Ntot_cliped & clip_method]
 24559150                                [Nglobal_steps]
   7                                     [N_chains]
   7                                     [NEX0s_base = N_base in EX0s-fits]
 0   0   0        0   2.0   6.226E+03    [Clip-Bug, RC-Crash & Burn-In warning-flags, n_censored_weights, wei_nsig_threshold & wei_limit]
   254    251.827    250.077      1.750  [idt_all, wdt_TotTime, wdt_UsrTime & wdt_SysTime (sec)]

## Synthesis Results - Best model ##

 1.64874E-04                             [chi2/Nl_eff]
    19.09659                             [adev (%)]

   130.00000                             [sum-of-x (%)]
 2.87575E-16                             [Flux_tot (units of input spectrum!)]
 9.42660E-13                             [Mini_tot (???)]
 4.78875E-13                             [Mcor_tot (???)]

 252.10                                  [v0_min  (km/s)]
  41.22                                  [vd_min  (km/s)]
 2.6520                                  [AV_min  (mag)]
 0.0000                                  [YAV_min (mag)]

# j     x_j(%)      Mini_j(%)     Mcor_j(%)     age_j(yr)     Z_j      (L/M)_j    YAV?  Mstars   component_j        a/Fe...       SSP_chi2r SSP_adev(%)   SSP_AV   SSP_x(%)
  1     15.5580     3.3372E-01    6.5693E-01    1.000000E+06  0.00400  1.094E-02    0   1.0000   age020_m42            0.0000     3.6829E-05    28.3622   1.1789   295.1716
  2      0.0000     0.0000E+00    0.0000E+00    3.160000E+06  0.00400  4.007E-02    0   0.9999   age045_m42            0.0000     3.3700E-05    26.6310   0.6171   298.5280
  3      0.0000     0.0000E+00    0.0000E+00    5.010000E+06  0.00400  2.539E-02    0   0.9488   age055_m42            0.0000     3.5629E-05    27.4908   0.8528   299.8637
  4      0.0000     0.0000E+00    0.0000E+00    6.610000E+06  0.00400  2.620E-02    0   0.9220   age061_m42            0.0000     3.3555E-05    26.4245   0.5521   298.9200
  5      0.0000     0.0000E+00    0.0000E+00    1.000000E+07  0.00400  1.322E-02    0   0.8862   age070_m42            0.0000     3.2163E-05    24.9431   0.3142   304.6626
  6      0.0000     0.0000E+00    0.0000E+00    1.445000E+07  0.00400  7.883E-03    0   0.8571   age078_m42            0.0000     3.3129E-05    25.5968   0.5993   300.7009
  7      0.0000     0.0000E+00    0.0000E+00    2.512000E+07  0.00400  5.251E-03    0   0.8174   age090_m42            0.0000     3.1616E-05    24.4204   0.2119   304.3616
  8      0.0000     0.0000E+00    0.0000E+00    4.000000E+07  0.00400  3.649E-03    0   0.7851   age104_m42            0.0000     3.0980E-05    24.2908  -0.0001   304.2002
  9      0.0000     0.0000E+00    0.0000E+00    5.500000E+07  0.00400  3.098E-03    0   0.7629   age110_m42            0.0000     3.1225E-05    24.6478   0.1673   301.5280
 10      0.0000     0.0000E+00    0.0000E+00    1.015200E+08  0.00400  2.228E-03    0   0.7207   age116_m42            0.0000     3.1595E-05    24.9743   0.1841   301.3780
 11      0.0000     0.0000E+00    0.0000E+00    2.861200E+08  0.00400  1.093E-03    0   0.6648   age125_m42            0.0000     3.0737E-05    24.3374  -0.3425   307.4336
 12      0.0000     0.0000E+00    0.0000E+00    5.088000E+08  0.00400  6.597E-04    0   0.6365   age130_m42            0.0000     3.0394E-05    24.5430  -0.3362   306.4379
 13      0.0000     0.0000E+00    0.0000E+00    1.434000E+09  0.00400  2.132E-04    0   0.5798   age139_m42            0.0000     2.8967E-05    22.2005  -1.0000   293.1877
 14      0.0000     0.0000E+00    0.0000E+00    4.250000E+09  0.00400  5.895E-05    0   0.5377   age158_m42            0.0000     4.0135E-05    26.0902  -1.0000   264.2842
 15      0.0000     0.0000E+00    0.0000E+00    7.500000E+09  0.00400  3.510E-05    0   0.5212   age171_m42            0.0000     4.5379E-05    28.9596  -1.0000   252.0242
 16      0.0000     0.0000E+00    0.0000E+00    1.300000E+10  0.00400  2.005E-05    0   0.5034   age193_m42            0.0000     5.0492E-05    31.7686  -1.0000   240.9997
 17      0.0000     0.0000E+00    0.0000E+00    1.800000E+10  0.00400  1.525E-05    0   0.4967   age213_m42            0.0000     5.2606E-05    32.6002  -1.0000   239.5164
 18     14.8163     2.8085E-01    5.5285E-01    1.000000E+06  0.00800  1.238E-02    0   1.0000   age020_m52            0.0000     3.6750E-05    28.3398   1.1775   295.5033
 19      0.0000     0.0000E+00    0.0000E+00    3.160000E+06  0.00800  3.074E-02    0   0.9966   age045_m52            0.0000     3.6508E-05    28.2131   1.1112   296.9592
 20      0.0000     0.0000E+00    0.0000E+00    5.010000E+06  0.00800  2.668E-02    0   0.9443   age055_m52            0.0000     3.5235E-05    27.3995   0.9364   297.2812
 21      0.0000     0.0000E+00    0.0000E+00    6.610000E+06  0.00800  2.136E-02    0   0.9177   age061_m52            0.0000     3.1258E-05    24.8945  -0.1873   307.5900
 22      0.0000     0.0000E+00    0.0000E+00    1.000000E+07  0.00800  1.215E-02    0   0.8827   age070_m52            0.0000     3.1910E-05    24.6583   0.5014   304.3097
 23      0.0000     0.0000E+00    0.0000E+00    1.445000E+07  0.00800  8.717E-03    0   0.8552   age078_m52            0.0000     3.2695E-05    25.2889   0.5851   302.9271
 24      0.0000     0.0000E+00    0.0000E+00    2.512000E+07  0.00800  5.592E-03    0   0.8162   age090_m52            0.0000     3.1296E-05    24.1481   0.2972   305.8636
 25      0.0000     0.0000E+00    0.0000E+00    4.000000E+07  0.00800  3.896E-03    0   0.7841   age104_m52            0.0000     3.1332E-05    24.2288   0.2269   305.5145
 26      0.0000     0.0000E+00    0.0000E+00    1.015200E+08  0.00800  2.148E-03    0   0.7226   age116_m52            0.0000     3.1528E-05    24.7011   0.1625   303.4515
 27      0.0000     0.0000E+00    0.0000E+00    2.861200E+08  0.00800  9.925E-04    0   0.6683   age125_m52            0.0000     3.0264E-05    24.2953  -0.2576   307.9068
 28      0.0000     0.0000E+00    0.0000E+00    9.047900E+08  0.00800  3.141E-04    0   0.6138   age135_m52            0.0000     2.9849E-05    24.3154  -0.9981   311.0166
 29      0.0000     0.0000E+00    0.0000E+00    1.434000E+09  0.00800  1.719E-04    0   0.5853   age139_m52            0.0000     3.5900E-05    23.8347  -1.0000   279.9077
 30      0.0000     0.0000E+00    0.0000E+00    2.500000E+09  0.00800  7.872E-05    0   0.5600   age150_m52            0.0000     4.4861E-05    28.2348  -1.0000   258.6279
 31      0.0000     0.0000E+00    0.0000E+00    4.250000E+09  0.00800  4.336E-05    0   0.5426   age158_m52            0.0000     4.6420E-05    28.7815  -1.0000   255.9592
 32      0.0000     0.0000E+00    0.0000E+00    6.250000E+09  0.00800  3.159E-05    0   0.5319   age166_m52            0.0000     5.3202E-05    32.2376  -1.0000   243.7764
 33      0.0000     0.0000E+00    0.0000E+00    1.300000E+10  0.00800  1.361E-05    0   0.5073   age193_m52            0.0000     7.6022E-05    41.4194  -1.0000   214.5148
 34      4.1293     9.8019E+01    9.6282E+01    1.800000E+10  0.00800  9.886E-06    0   0.4990   age213_m52            0.0000     8.3121E-05    43.2778  -1.0000   206.4513
 35     23.1917     3.5248E-01    6.9386E-01    1.000000E+06  0.02000  1.544E-02    0   1.0000   age020_m62            0.0000     3.6505E-05    28.3057   1.1752   296.0370
 36      0.0000     0.0000E+00    0.0000E+00    3.160000E+06  0.02000  3.762E-02    0   0.9858   age045_m62            0.0000     3.5931E-05    28.1668   1.1258   297.4023
 37      0.0000     0.0000E+00    0.0000E+00    5.010000E+06  0.02000  3.296E-02    0   0.9342   age055_m62            0.0000     3.4312E-05    27.1121   0.8531   298.9456
 38      0.0000     0.0000E+00    0.0000E+00    8.710000E+06  0.02000  1.154E-02    0   0.8861   age067_m62            0.0000     2.8968E-05    22.0625  -0.0002   314.7844
 39      0.0000     0.0000E+00    0.0000E+00    1.445000E+07  0.02000  7.663E-03    0   0.8472   age078_m62            0.0000     3.0262E-05    23.5451   0.1995   308.2459
 40      0.0000     0.0000E+00    0.0000E+00    2.512000E+07  0.02000  4.532E-03    0   0.8099   age090_m62            0.0000     3.0400E-05    23.4035   0.2005   306.9461
 41      0.0000     0.0000E+00    0.0000E+00    5.500000E+07  0.02000  2.733E-03    0   0.7595   age110_m62            0.0000     3.1422E-05    24.3976   0.1936   305.0234
 42      0.0000     0.0000E+00    0.0000E+00    1.609000E+08  0.02000  1.369E-03    0   0.6985   age120_m62            0.0000     3.1025E-05    25.1080  -0.0000   310.2031
 43      0.0000     0.0000E+00    0.0000E+00    2.861200E+08  0.02000  9.013E-04    0   0.6714   age125_m62            0.0000     3.0270E-05    24.1666  -0.1390   310.5186
 44      0.0000     0.0000E+00    0.0000E+00    5.088000E+08  0.02000  5.028E-04    0   0.6449   age130_m62            0.0000     2.9767E-05    24.3417  -0.4699   310.6626
 45      0.0000     0.0000E+00    0.0000E+00    9.047900E+08  0.02000  2.428E-04    0   0.6179   age135_m62            0.0000     3.1628E-05    24.4813  -1.0000   306.6337
 46      0.0000     0.0000E+00    0.0000E+00    1.434000E+09  0.02000  1.263E-04    0   0.5908   age139_m62            0.0000     3.7807E-05    24.2352  -1.0000   283.1946
 47      0.0000     0.0000E+00    0.0000E+00    2.500000E+09  0.02000  5.985E-05    0   0.5673   age150_m62            0.0000     4.9842E-05    29.2344  -1.0000   261.0363
 48      0.0000     0.0000E+00    0.0000E+00    4.250000E+09  0.02000  3.271E-05    0   0.5468   age158_m62            0.0000     6.0627E-05    34.3601  -1.0000   239.9772
 49      0.0000     0.0000E+00    0.0000E+00    1.000000E+10  0.02000  1.360E-05    0   0.5167   age181_m62            0.0000     8.0281E-05    40.9095  -1.0000   217.5555
 50      0.0000     0.0000E+00    0.0000E+00    1.800000E+10  0.02000  7.124E-06    0   0.5013   age213_m62            0.0000     9.6675E-05    44.7441  -1.0000   202.8262
 51     21.5404     1.9502E-01    3.8381E-01    1.000000E+06  0.05000  2.592E-02    0   0.9998   age020_m72            0.0000     3.6620E-05    28.3537   1.1583   297.0900
 52      0.0000     0.0000E+00    0.0000E+00    3.160000E+06  0.05000  4.845E-02    0   0.9577   age045_m72            0.0000     3.5506E-05    27.8808   1.0473   297.1297
 53      0.0000     0.0000E+00    0.0000E+00    5.010000E+06  0.05000  3.072E-02    0   0.9147   age055_m72            0.0000     3.2621E-05    25.6107   0.6984   302.3042
 54     50.7644     8.1874E-01    1.4307E+00    6.610000E+06  0.05000  1.455E-02    0   0.8877   age061_m72            0.0000     2.7931E-05    21.5556   0.1267   314.4914
 55      0.0000     0.0000E+00    0.0000E+00    1.000000E+07  0.05000  9.074E-03    0   0.8524   age070_m72            0.0000     3.2750E-05    26.0840   0.8971   300.0072
 56      0.0000     0.0000E+00    0.0000E+00    2.512000E+07  0.05000  4.250E-03    0   0.7902   age090_m72            0.0000     3.2092E-05    25.0664   0.6445   301.0127
 57      0.0000     0.0000E+00    0.0000E+00    4.000000E+07  0.05000  3.087E-03    0   0.7618   age104_m72            0.0000     3.1398E-05    24.4427   0.4508   303.2532
 58      0.0000     0.0000E+00    0.0000E+00    1.015200E+08  0.05000  1.700E-03    0   0.7096   age116_m72            0.0000     3.1145E-05    24.2771   0.2131   307.1975
 59      0.0000     0.0000E+00    0.0000E+00    2.861200E+08  0.05000  7.384E-04    0   0.6633   age125_m72            0.0000     3.1350E-05    24.5743  -0.2705   313.0623
 60      0.0000     0.0000E+00    0.0000E+00    5.088000E+08  0.05000  3.819E-04    0   0.6372   age130_m72            0.0000     3.1876E-05    25.0931  -0.7570   314.2371
 61      0.0000     0.0000E+00    0.0000E+00    9.047900E+08  0.05000  1.676E-04    0   0.6110   age135_m72            0.0000     3.9864E-05    24.8277  -1.0000   289.7681
 62      0.0000     0.0000E+00    0.0000E+00    1.434000E+09  0.05000  8.837E-05    0   0.5874   age139_m72            0.0000     4.9196E-05    28.8593  -1.0000   263.5055
 63      0.0000     0.0000E+00    0.0000E+00    2.500000E+09  0.05000  4.233E-05    0   0.5598   age150_m72            0.0000     6.3072E-05    34.5506  -1.0000   242.0093
 64      0.0000     0.0000E+00    0.0000E+00    6.250000E+09  0.05000  1.435E-05    0   0.5249   age166_m72            0.0000     8.7470E-05    42.7327  -1.0000   210.7376
 65      0.0000     0.0000E+00    0.0000E+00    1.300000E+10  0.05000  6.513E-06    0   0.5036   age193_m72            0.0000     1.1135E-04    47.5649  -1.0000   195.0365
 66      0.0000     0.0000E+00    0.0000E+00    1.800000E+10  0.05000  4.527E-06    0   0.4945   age213_m72            0.0000     1.2783E-04    49.9297  -1.0000   184.3544


## Synthesis Results - Average & Chains ##

# j      x_j: min, <> & last-chain-values for 1 ...  7 chains
  1     15.5580     14.8045     16.2996     11.5780     15.2157     12.1379     12.9319     16.0276     19.4405
  2      0.0000      0.0000      0.0002      0.0000      0.0000      0.0000      0.0000      0.0000      0.0000
  3      0.0000      0.0000      0.0000      0.0000      0.0000      0.0000      0.0000      0.0001      0.0000
  4      0.0000      0.0000      0.0002      0.0000      0.0000      0.0000      0.0000      0.0001      0.0000
  5      0.0000      0.0000      0.0002      0.0000      0.0000      0.0000      0.0000      0.0000      0.0001
  6      0.0000      0.0001      0.0001      0.0000      0.0001      0.0000      0.0001      0.0000      0.0001
  7      0.0000      0.0000      0.0001      0.0001      0.0000      0.0000      0.0000      0.0000      0.0000
  8      0.0000      0.0000      0.0001      0.0000      0.0000      0.0000      0.0000      0.0000      0.0000
  9      0.0000      0.0000      0.0001      0.0000      0.0000      0.0000      0.0000      0.0000      0.0000
 10      0.0000      0.0000      0.0000      0.0000      0.0000      0.0000      0.0000      0.0000      0.0000
 11      0.0000      0.0000      0.0001      0.0000      0.0000      0.0000      0.0000      0.0000      0.0000
 12      0.0000      0.0000      0.0001      0.0000      0.0000      0.0000      0.0000      0.0000      0.0000
 13      0.0000      0.0000      0.0000      0.0000      0.0000      0.0000      0.0000      0.0000      0.0000
 14      0.0000      0.0000      0.0002      0.0000      0.0001      0.0000      0.0000      0.0000      0.0000
 15      0.0000      0.0000      0.0001      0.0000      0.0000      0.0000      0.0000      0.0000      0.0000
 16      0.0000      0.0000      0.0002      0.0000      0.0000      0.0000      0.0000      0.0000      0.0000
 17      0.0000      0.0000      0.0003      0.0000      0.0000      0.0001      0.0000      0.0000      0.0000
 18     14.8163     16.1435     10.0551     15.5818     14.4903     17.4104     14.3998     25.5569     15.5101
 19      0.0000      0.1290      0.0008      0.1600      0.1171      0.1559      0.0582      0.1140      0.2973
 20      0.0000      0.0001      0.0001      0.0000      0.0001      0.0002      0.0000      0.0000      0.0000
 21      0.0000      0.0001      0.0002      0.0000      0.0000      0.0001      0.0000      0.0000      0.0000
 22      0.0000      0.0000      0.0002      0.0000      0.0000      0.0000      0.0000      0.0000      0.0000
 23      0.0000      0.0000      0.0001      0.0000      0.0000      0.0000      0.0000      0.0000      0.0000
 24      0.0000      0.0000      0.0002      0.0000      0.0000      0.0000      0.0000      0.0000      0.0000
 25      0.0000      0.0000      0.0000      0.0000      0.0000      0.0000      0.0000      0.0000      0.0000
 26      0.0000      0.0000      0.0000      0.0000      0.0000      0.0000      0.0000      0.0000      0.0000
 27      0.0000      0.0000      0.0001      0.0000      0.0000      0.0000      0.0000      0.0000      0.0000
 28      0.0000      0.0000      0.0000      0.0000      0.0000      0.0000      0.0000      0.0000      0.0000
 29      0.0000      0.0000      0.0000      0.0000      0.0000      0.0000      0.0000      0.0000      0.0000
 30      0.0000      0.0000      0.0002      0.0000      0.0000      0.0000      0.0000      0.0000      0.0000
 31      0.0000      0.0000      0.0001      0.0000      0.0000      0.0000      0.0000      0.0000      0.0000
 32      0.0000      0.0000      0.0001      0.0000      0.0000      0.0000      0.0000      0.0000      0.0000
 33      0.0000      3.2367      0.9772      7.9977      0.0000      3.5501      0.6819      5.9860      3.4640
 34      4.1293      4.4015      6.3086      1.4621      4.0385      7.2073      5.5307      0.2386      6.0247
 35     23.1917     17.9429     23.6329     12.9718     22.6815     15.9076     16.9550     16.7682     16.6832
 36      0.0000      0.2480      0.0005      0.3495      0.2303      0.2455      0.2277      0.2062      0.4761
 37      0.0000      0.0000      0.0001      0.0000      0.0000      0.0000      0.0000      0.0000      0.0000
 38      0.0000      0.0002      0.0003      0.0001      0.0000      0.0008      0.0002      0.0001      0.0000
 39      0.0000      0.0001      0.0004      0.0000      0.0000      0.0000      0.0000      0.0000      0.0001
 40      0.0000      0.0000      0.0001      0.0000      0.0001      0.0000      0.0000      0.0000      0.0000
 41      0.0000      0.0000      0.0001      0.0000      0.0000      0.0000      0.0000      0.0000      0.0000
 42      0.0000      0.0000      0.0001      0.0000      0.0000      0.0000      0.0000      0.0000      0.0000
 43      0.0000      0.0000      0.0001      0.0000      0.0000      0.0000      0.0000      0.0000      0.0000
 44      0.0000      0.0000      0.0001      0.0000      0.0000      0.0000      0.0000      0.0000      0.0000
 45      0.0000      0.0000      0.0000      0.0000      0.0000      0.0000      0.0000      0.0000      0.0000
 46      0.0000      0.0000      0.0001      0.0000      0.0000      0.0000      0.0000      0.0000      0.0000
