###################################################################
## OUTPUT of StarlightChains_v04.for    [Cid@UFSC - 01/Apr/2007] ##
###################################################################

## Some input info
KUG0210-078._26_23.txt                   [arq_obs]
Base.CB07.vall.4m                        [arq_base]
Masks.EmLines.NEW.gm                     [arq_masks]
StCv04.C11.config                        [arq_config]
   66                                    [N_base]
    0                                    [N_YAV_components = # of components with extra extinction!]
    0                                    [i_FitPowerLaw (1/0 = Yes/No)]
-9.99                                    [alpha_PowerLaw]
CCM                                      [red_law_option]
 1.458241                                [q_norm = A(l_norm)/A(V)]

## (Re)Sampling Parameters
 3741.00                                 [l_ini (A)]
 7218.00                                 [l_fin (A)]
    1.00                                 [dl    (A)]     (OBS: dl_cushion =    50.00 A)

## Normalization info
 4020.00                                 [l_norm (A) - for base]
 4010.00                                 [llow_norm (A) - window for f_obs]
 4060.00                                 [lupp_norm (A) - window for f_obs]
1.095620E-17                             [fobs_norm (in input units)]

## S/N
 3691.00                                 [llow_SN (A) - window for S/N]
 7268.00                                 [lupp_SN (A) - window for S/N]
   4.545                                 [S/N in S/N window]
   3.364                                 [S/N in norm. window]
   0.021                                 [S/N_err in S/N window]
   0.016                                 [S/N_err in norm. window]
  1.0000                                 [fscale_chi2]

## etc...
    -2007319                             [idum_orig]
  2421                                   [NOl_eff]
  2025                                   [Nl_eff]
   396    NSIGMA                         [Ntot_cliped & clip_method]
 14936670                                [Nglobal_steps]
   7                                     [N_chains]
  30                                     [NEX0s_base = N_base in EX0s-fits]
 0   0   1      396   2.0   9.744E+03    [Clip-Bug, RC-Crash & Burn-In warning-flags, n_censored_weights, wei_nsig_threshold & wei_limit]
   110    109.746    109.242      0.504  [idt_all, wdt_TotTime, wdt_UsrTime & wdt_SysTime (sec)]

## Synthesis Results - Best model ##

 6.47400E-06                             [chi2/Nl_eff]
     6.74766                             [adev (%)]

   120.99109                             [sum-of-x (%)]
 9.11545E-18                             [Flux_tot (units of input spectrum!)]
 9.55027E-13                             [Mini_tot (???)]
 4.75901E-13                             [Mcor_tot (???)]

 106.11                                  [v0_min  (km/s)]
 261.33                                  [vd_min  (km/s)]
-0.2788                                  [AV_min  (mag)]
 0.0000                                  [YAV_min (mag)]

# j     x_j(%)      Mini_j(%)     Mcor_j(%)     age_j(yr)     Z_j      (L/M)_j    YAV?  Mstars   component_j        a/Fe...       SSP_chi2r SSP_adev(%)   SSP_AV   SSP_x(%)
  1      0.0000     0.0000E+00    0.0000E+00    1.000000E+06  0.00400  1.094E-02    0   1.0000   age020_m42            0.0000     8.9219E-06     7.8784   3.4487   108.8013
  2      6.3965     1.2593E-03    2.5269E-03    3.160000E+06  0.00400  4.007E-02    0   0.9999   age045_m42            0.0000     9.5225E-06     8.1550   2.8307   110.8469
  3      7.5169     2.3355E-03    4.4469E-03    5.010000E+06  0.00400  2.539E-02    0   0.9488   age055_m42            0.0000     9.1173E-06     7.9547   3.0977   110.7472
  4      0.0000     0.0000E+00    0.0000E+00    6.610000E+06  0.00400  2.620E-02    0   0.9220   age061_m42            0.0000     9.4526E-06     8.1441   2.7539   111.2743
  5      0.0000     0.0000E+00    0.0000E+00    1.000000E+07  0.00400  1.322E-02    0   0.8862   age070_m42            0.0000     9.7921E-06     8.5743   2.4574   114.6170
  6      2.5805     2.5824E-03    4.4418E-03    1.445000E+07  0.00400  7.883E-03    0   0.8571   age078_m42            0.0000     9.5938E-06     8.4083   2.7621   112.7925
  7      0.0000     0.0000E+00    0.0000E+00    2.512000E+07  0.00400  5.251E-03    0   0.8174   age090_m42            0.0000     1.0051E-05     8.8023   2.3364   114.8508
  8      0.0000     0.0000E+00    0.0000E+00    4.000000E+07  0.00400  3.649E-03    0   0.7851   age104_m42            0.0000     1.0072E-05     8.8030   2.1272   114.8568
  9      0.0000     0.0000E+00    0.0000E+00    5.500000E+07  0.00400  3.098E-03    0   0.7629   age110_m42            0.0000     1.0023E-05     8.6228   2.3030   113.5785
 10      0.0000     0.0000E+00    0.0000E+00    1.015200E+08  0.00400  2.228E-03    0   0.7207   age116_m42            0.0000     9.9247E-06     8.4987   2.3341   113.1823
 11      0.0000     0.0000E+00    0.0000E+00    2.861200E+08  0.00400  1.093E-03    0   0.6648   age125_m42            0.0000     1.0406E-05     9.0530   1.7768   115.8280
 12      0.0000     0.0000E+00    0.0000E+00    5.088000E+08  0.00400  6.597E-04    0   0.6365   age130_m42            0.0000     1.0238E-05     8.7501   1.7969   115.1698
 13      0.0000     0.0000E+00    0.0000E+00    1.434000E+09  0.00400  2.132E-04    0   0.5798   age139_m42            0.0000     9.6425E-06     8.3727   0.8652   115.5479
 14      0.0000     0.0000E+00    0.0000E+00    4.250000E+09  0.00400  5.895E-05    0   0.5377   age158_m42            0.0000     8.0173E-06     7.4153   0.3791   113.5594
 15      0.0000     0.0000E+00    0.0000E+00    7.500000E+09  0.00400  3.510E-05    0   0.5212   age171_m42            0.0000     7.7527E-06     7.2131   0.1910   112.7666
 16      0.0000     0.0000E+00    0.0000E+00    1.300000E+10  0.00400  2.005E-05    0   0.5034   age193_m42            0.0000     7.6821E-06     7.1081   0.0292   111.9251
 17      8.2784     4.2824E+00    4.2685E+00    1.800000E+10  0.00400  1.525E-05    0   0.4967   age213_m42            0.0000     7.5769E-06     7.1025  -0.0060   112.0752
 18      0.5452     3.4740E-04    6.9715E-04    1.000000E+06  0.00800  1.238E-02    0   1.0000   age020_m52            0.0000     8.8963E-06     7.8698   3.4450   109.0251
 19      0.0000     0.0000E+00    0.0000E+00    3.160000E+06  0.00800  3.074E-02    0   0.9966   age045_m52            0.0000     8.9157E-06     7.8628   3.3769   109.5713
 20      0.0000     0.0000E+00    0.0000E+00    5.010000E+06  0.00800  2.668E-02    0   0.9443   age055_m52            0.0000     9.0599E-06     7.9200   3.1705   110.2240
 21      0.0000     0.0000E+00    0.0000E+00    6.610000E+06  0.00800  2.136E-02    0   0.9177   age061_m52            0.0000     9.1571E-06     8.1960   1.9563   116.1421
 22      0.7964     5.1708E-04    9.1595E-04    1.000000E+07  0.00800  1.215E-02    0   0.8827   age070_m52            0.0000     1.0009E-05     8.7900   2.6260   114.8814
 23      0.0000     0.0000E+00    0.0000E+00    1.445000E+07  0.00800  8.717E-03    0   0.8552   age078_m52            0.0000     9.7188E-06     8.4838   2.7420   113.6300
 24      0.0000     0.0000E+00    0.0000E+00    2.512000E+07  0.00800  5.592E-03    0   0.8162   age090_m52            0.0000     1.0245E-05     8.9454   2.4109   115.5915
 25      0.0000     0.0000E+00    0.0000E+00    4.000000E+07  0.00800  3.896E-03    0   0.7841   age104_m52            0.0000     1.0207E-05     8.9265   2.3423   115.4313
 26      0.0000     0.0000E+00    0.0000E+00    1.015200E+08  0.00800  2.148E-03    0   0.7226   age116_m52            0.0000     9.9406E-06     8.6558   2.2994   114.2221
 27      0.0000     0.0000E+00    0.0000E+00    2.861200E+08  0.00800  9.925E-04    0   0.6683   age125_m52            0.0000     1.0077E-05     8.7018   1.8604   116.3464
 28      0.0000     0.0000E+00    0.0000E+00    9.047900E+08  0.00800  3.141E-04    0   0.6138   age135_m52            0.0000     9.5393E-06     8.4083   1.1264   117.6657
 29      0.6180     2.8361E-02    3.3312E-02    1.434000E+09  0.00800  1.719E-04    0   0.5853   age139_m52            0.0000     8.4636E-06     7.9142   0.5010   117.7442
 30      0.0000     0.0000E+00    0.0000E+00    2.500000E+09  0.00800  7.872E-05    0   0.5600   age150_m52            0.0000     7.4988E-06     7.1699   0.2254   115.1625
 31      0.0000     0.0000E+00    0.0000E+00    4.250000E+09  0.00800  4.336E-05    0   0.5426   age158_m52            0.0000     7.3837E-06     7.1105   0.2044   114.4017
 32      0.0000     0.0000E+00    0.0000E+00    6.250000E+09  0.00800  3.159E-05    0   0.5319   age166_m52            0.0000     7.1766E-06     6.9474   0.0094   114.0421
 33      0.0000     0.0000E+00    0.0000E+00    1.300000E+10  0.00800  1.361E-05    0   0.5073   age193_m52            0.0000     6.7981E-06     6.7540  -0.4656   113.7257
 34     23.2911     1.8586E+01    1.8611E+01    1.800000E+10  0.00800  9.886E-06    0   0.4990   age213_m52            0.0000     6.6980E-06     6.7261  -0.5735   113.1550
 35      0.0000     0.0000E+00    0.0000E+00    1.000000E+06  0.02000  1.544E-02    0   1.0000   age020_m62            0.0000     8.8984E-06     7.8645   3.4391   109.3703
 36      0.0000     0.0000E+00    0.0000E+00    3.160000E+06  0.02000  3.762E-02    0   0.9858   age045_m62            0.0000     9.0188E-06     7.8829   3.3888   109.7810
 37      0.0000     0.0000E+00    0.0000E+00    5.010000E+06  0.02000  3.296E-02    0   0.9342   age055_m62            0.0000     9.2636E-06     7.9701   3.0806   110.9040
 38      0.0000     0.0000E+00    0.0000E+00    8.710000E+06  0.02000  1.154E-02    0   0.8861   age067_m62            0.0000     1.2030E-05    10.6625   2.0295   121.0291
 39      0.0000     0.0000E+00    0.0000E+00    1.445000E+07  0.02000  7.663E-03    0   0.8472   age078_m62            0.0000     1.0725E-05     9.4725   2.2756   117.3509
 40      0.0000     0.0000E+00    0.0000E+00    2.512000E+07  0.02000  4.532E-03    0   0.8099   age090_m62            0.0000     1.0919E-05     9.6690   2.2660   117.0898
 41      0.0000     0.0000E+00    0.0000E+00    5.500000E+07  0.02000  2.733E-03    0   0.7595   age110_m62            0.0000     9.9339E-06     8.7482   2.3112   115.3326
 42      0.0000     0.0000E+00    0.0000E+00    1.609000E+08  0.02000  1.369E-03    0   0.6985   age120_m62            0.0000     9.9182E-06     8.6234   2.1943   116.0653
 43      0.0000     0.0000E+00    0.0000E+00    2.861200E+08  0.02000  9.013E-04    0   0.6714   age125_m62            0.0000     1.0057E-05     8.6094   1.9823   117.3107
 44      0.0000     0.0000E+00    0.0000E+00    5.088000E+08  0.02000  5.028E-04    0   0.6449   age130_m62            0.0000     9.8457E-06     8.3532   1.6630   117.2405
 45      0.0000     0.0000E+00    0.0000E+00    9.047900E+08  0.02000  2.428E-04    0   0.6179   age135_m62            0.0000     8.4455E-06     7.7235   1.0609   117.4873
 46      0.0000     0.0000E+00    0.0000E+00    1.434000E+09  0.02000  1.263E-04    0   0.5908   age139_m62            0.0000     7.6482E-06     7.3077   0.5965   116.9143
 47      3.8927     5.1310E-01    5.8413E-01    2.500000E+09  0.02000  5.985E-05    0   0.5673   age150_m62            0.0000     6.7985E-06     6.8246   0.2021   116.9192
 48      0.0000     0.0000E+00    0.0000E+00    4.250000E+09  0.02000  3.271E-05    0   0.5468   age158_m62            0.0000     6.6600E-06     6.6899  -0.0977   115.6660
 49      0.0000     0.0000E+00    0.0000E+00    1.000000E+10  0.02000  1.360E-05    0   0.5167   age181_m62            0.0000     6.3582E-06     6.6889  -0.4544   115.6735
 50      0.0000     0.0000E+00    0.0000E+00    1.800000E+10  0.02000  7.124E-06    0   0.5013   age213_m62            0.0000     6.2206E-06     6.8314  -0.6853   115.8308
 51     13.4458     4.0922E-03    8.2106E-03    1.000000E+06  0.05000  2.592E-02    0   0.9998   age020_m72            0.0000     8.8140E-06     7.8402   3.4190   109.9831
 52      0.0000     0.0000E+00    0.0000E+00    3.160000E+06  0.05000  4.845E-02    0   0.9577   age045_m72            0.0000     9.1269E-06     7.9058   3.2993   109.8419
 53      0.0000     0.0000E+00    0.0000E+00    5.010000E+06  0.05000  3.072E-02    0   0.9147   age055_m72            0.0000     9.9957E-06     8.8855   2.8338   113.9826
 54      0.0000     0.0000E+00    0.0000E+00    6.610000E+06  0.05000  1.455E-02    0   0.8877   age061_m72            0.0000     1.5442E-05    12.8993   2.0459   122.9377
 55      0.0000     0.0000E+00    0.0000E+00    1.000000E+07  0.05000  9.074E-03    0   0.8524   age070_m72            0.0000     1.1024E-05     9.6937   3.0088   113.4998
 56      0.0000     0.0000E+00    0.0000E+00    2.512000E+07  0.05000  4.250E-03    0   0.7902   age090_m72            0.0000     1.0774E-05     9.4559   2.7480   113.9834
 57      0.0000     0.0000E+00    0.0000E+00    4.000000E+07  0.05000  3.087E-03    0   0.7618   age104_m72            0.0000     1.1085E-05     9.7216   2.5328   115.2662
 58      0.0000     0.0000E+00    0.0000E+00    1.015200E+08  0.05000  1.700E-03    0   0.7096   age116_m72            0.0000     1.0333E-05     8.9834   2.3259   116.0763
 59      0.0000     0.0000E+00    0.0000E+00    2.861200E+08  0.05000  7.384E-04    0   0.6633   age125_m72            0.0000     9.5824E-06     8.3753   1.8700   117.9062
 60      2.0538     4.2424E-02    5.4249E-02    5.088000E+08  0.05000  3.819E-04    0   0.6372   age130_m72            0.0000     8.7702E-06     7.8343   1.4132   117.9612
 61      0.0000     0.0000E+00    0.0000E+00    9.047900E+08  0.05000  1.676E-04    0   0.6110   age135_m72            0.0000     6.9648E-06     6.9337   0.6828   117.9806
 62      0.0000     0.0000E+00    0.0000E+00    1.434000E+09  0.05000  8.837E-05    0   0.5874   age139_m72            0.0000     6.8042E-06     6.8531   0.2201   117.6206
 63      0.0000     0.0000E+00    0.0000E+00    2.500000E+09  0.05000  4.233E-05    0   0.5598   age150_m72            0.0000     6.3948E-06     6.6521  -0.1040   116.9790
 64      4.9427     2.7172E+00    2.8622E+00    6.250000E+09  0.05000  1.435E-05    0   0.5249   age166_m72            0.0000     6.2797E-06     6.7487  -0.5571   115.4850
 65     14.0077     1.6967E+01    1.7147E+01    1.300000E+10  0.05000  6.513E-06    0   0.5036   age193_m72            0.0000     6.2295E-06     7.0762  -0.8766   118.6616
 66     32.6254     5.6853E+01    5.6418E+01    1.800000E+10  0.05000  4.527E-06    0   0.4945   age213_m72            0.0000     6.4830E-06     7.1842  -1.0000   117.4785


## Synthesis Results - Average & Chains ##

# j      x_j: min, <> & last-chain-values for 1 ...  7 chains
  1      0.0000      0.1169      0.0000      0.0000      0.0000      0.0583      0.0397      0.0357      0.1616
  2      6.3965      0.1078      0.2390      0.1338      0.1352      0.1183      0.0727      0.0138      0.1426
  3      7.5169      0.0730      0.2376      0.0000      0.0612      0.0074      0.0111      0.1831      0.1011
  4      0.0000      0.1298      0.2104      0.0179      0.0952      0.0000      0.1344      0.0000      0.0645
  5      0.0000      0.1196      0.1078      0.1515      0.0938      0.1150      0.0491      0.0755      0.2651
  6      2.5805      0.0859      0.1867      0.0000      0.0000      0.0000      0.0285      0.0124      0.0000
  7      0.0000      0.0964      0.0270      0.0176      0.0000      0.0000      0.0762      0.0737      0.0000
  8      0.0000      0.1231      0.2972      0.1200      0.0715      0.0682      0.0507      0.2762      0.0973
  9      0.0000      0.1113      0.0743      0.0000      0.0703      0.0501      0.0177      0.0955      0.2209
 10      0.0000      0.1005      0.0000      0.1389      0.0353      0.0189      0.0569      0.0877      0.0630
 11      0.0000      0.0994      0.0788      0.0642      0.0000      0.1970      0.0000      0.0260      0.0000
 12      0.0000      0.1349      0.1109      0.0390      0.0000      0.0280      0.0408      0.1498      0.2111
 13      0.0000      0.1253      0.0480      0.0123      0.2025      0.0000      0.0000      0.1610      0.0691
 14      0.0000      0.0767      0.1537      0.0274      0.0820      0.0085      0.0482      0.0130      0.0000
 15      0.0000      0.0978      0.0709      0.0000      0.0044      0.0450      0.0134      0.0737      0.0731
 16      0.0000      0.1113      0.0493      0.1013      0.0859      0.1873      0.0342      0.0477      0.2082
 17      8.2784      0.1212      0.2186      0.1942      0.1347      0.0280      0.0557      0.1216      0.1805
 18      0.5452     15.0226     14.2288     15.2739     14.8126     15.7962     15.6661     15.5313     15.0264
 19      0.0000      0.0774      0.0000      0.0344      0.0276      0.0000      0.0184      0.0000      0.0000
 20      0.0000      0.1019      0.0326      0.0087      0.1519      0.0165      0.0569      0.0491      0.0000
 21      0.0000      0.1192      0.2700      0.1255      0.0896      0.1073      0.0000      0.0212      0.0440
 22      0.7964      0.1151      0.3589      0.0000      0.1282      0.0673      0.0000      0.0319      0.0945
 23      0.0000      0.1235      0.0582      0.0154      0.3868      0.0084      0.0000      0.0312      0.1121
 24      0.0000      0.1102      0.0000      0.1477      0.1001      0.0000      0.0428      0.0818      0.0000
 25      0.0000      0.0768      0.1720      0.1413      0.1242      0.0603      0.0000      0.0197      0.1330
 26      0.0000      0.0954      0.0000      0.0000      0.0687      0.0000      0.0272      0.0000      0.0000
 27      0.0000      0.0875      0.2748      0.0139      0.0965      0.0146      0.3462      0.0099      0.0480
 28      0.0000      0.1074      0.0000      0.1260      0.1899      0.0052      0.0586      0.0000      0.2108
 29      0.6180      0.0876      0.2701      0.0608      0.0548      0.0000      0.1032      0.0238      0.2256
 30      0.0000      0.1752      0.1426      0.1164      0.1071      0.0739      0.0646      0.0823      0.0835
 31      0.0000      0.1119      0.1822      0.0303      0.1203      0.0701      0.0310      0.0750      0.0630
 32      0.0000      0.1017      0.3618      0.0594      0.1019      0.1141      0.0452      0.0940      0.0987
 33      0.0000      0.0985      0.0946      0.0663      0.0035      0.1035      0.0773      0.0652      0.0917
 34     23.2911      0.1302      0.2310      0.0390      0.6411      0.0000      0.0480      0.1155      0.1424
 35      0.0000     14.4728     14.3167     15.1870     14.4508     15.2293     14.1469     14.9699     14.6411
 36      0.0000      0.1298      0.2009      0.0000      0.0000      0.0800      0.0136      0.0000      0.0000
 37      0.0000      0.0824      0.0235      0.1172      0.1831      0.0000      0.0690      0.0000      0.0056
 38      0.0000      0.1247      0.0000      0.2401      0.0127      0.0316      0.0106      0.0000      0.0000
 39      0.0000      0.0759      0.0365      0.1113      0.0122      0.0434      0.0400      0.0751      0.0654
 40      0.0000      0.1379      0.1158      0.2705      0.0150      0.0066      0.0570      0.0202      0.0506
 41      0.0000      0.1301      0.2428      0.2328      0.2791      0.1021      0.0546      0.0647      0.1063
 42      0.0000      0.0905      0.0206      0.0717      0.1553      0.0633      0.0716      0.0912      0.1766
 43      0.0000      0.1295      0.1101      0.0913      0.0765      0.0295      0.0014      0.0543      0.1492
 44      0.0000      0.0891      0.1282      0.0411      0.1205      0.0330      0.1071      0.0000      0.1293
 45      0.0000      0.1573      0.3210      0.1801      0.2414      0.0805      0.0651      0.2323      0.2693
 46      0.0000      0.1067      0.0207      0.0000      0.0000      0.0279      0.0965      0.0201      0.2788
