###################################################################
## OUTPUT of StarlightChains_v04.for    [Cid@UFSC - 01/Apr/2007] ##
###################################################################

## Some input info
KUG0210-078._47_51.txt                   [arq_obs]
Base.CB07.vall.4m                        [arq_base]
Masks.EmLines.NEW.gm                     [arq_masks]
StCv04.C11.config                        [arq_config]
   66                                    [N_base]
    0                                    [N_YAV_components = # of components with extra extinction!]
    0                                    [i_FitPowerLaw (1/0 = Yes/No)]
-9.99                                    [alpha_PowerLaw]
CCM                                      [red_law_option]
 1.458241                                [q_norm = A(l_norm)/A(V)]

## (Re)Sampling Parameters
 3741.00                                 [l_ini (A)]
 7218.00                                 [l_fin (A)]
    1.00                                 [dl    (A)]     (OBS: dl_cushion =    50.00 A)

## Normalization info
 4020.00                                 [l_norm (A) - for base]
 4010.00                                 [llow_norm (A) - window for f_obs]
 4060.00                                 [lupp_norm (A) - window for f_obs]
4.621893E-18                             [fobs_norm (in input units)]

## S/N
 3691.00                                 [llow_SN (A) - window for S/N]
 7268.00                                 [lupp_SN (A) - window for S/N]
   2.353                                 [S/N in S/N window]
   1.828                                 [S/N in norm. window]
   0.007                                 [S/N_err in S/N window]
   0.006                                 [S/N_err in norm. window]
  1.0000                                 [fscale_chi2]

## etc...
    -2007922                             [idum_orig]
  2376                                   [NOl_eff]
  2107                                   [Nl_eff]
   269    NSIGMA                         [Ntot_cliped & clip_method]
  5195540                                [Nglobal_steps]
   7                                     [N_chains]
   7                                     [NEX0s_base = N_base in EX0s-fits]
 0   0   1      269   2.0   3.399E+03    [Clip-Bug, RC-Crash & Burn-In warning-flags, n_censored_weights, wei_nsig_threshold & wei_limit]
    48     47.500     46.991      0.509  [idt_all, wdt_TotTime, wdt_UsrTime & wdt_SysTime (sec)]

## Synthesis Results - Best model ##

 1.60243E-05                             [chi2/Nl_eff]
    28.48431                             [adev (%)]

   129.99998                             [sum-of-x (%)]
 2.69097E-16                             [Flux_tot (units of input spectrum!)]
 2.43314E-14                             [Mini_tot (???)]
 2.43313E-14                             [Mcor_tot (???)]

  70.93                                  [v0_min  (km/s)]
   0.00                                  [vd_min  (km/s)]
 2.8307                                  [AV_min  (mag)]
 0.0000                                  [YAV_min (mag)]

# j     x_j(%)      Mini_j(%)     Mcor_j(%)     age_j(yr)     Z_j      (L/M)_j    YAV?  Mstars   component_j        a/Fe...       SSP_chi2r SSP_adev(%)   SSP_AV   SSP_x(%)
  1    127.5663     9.9201E+01    9.9201E+01    1.000000E+06  0.00400  1.094E-02    0   1.0000   age020_m42            0.0000     1.4627E-05    23.3553   2.4670   146.2970
  2      0.0000     0.0000E+00    0.0000E+00    3.160000E+06  0.00400  4.007E-02    0   0.9999   age045_m42            0.0000     1.5777E-05    24.8174   1.9157   144.7186
  3      0.0000     0.0000E+00    0.0000E+00    5.010000E+06  0.00400  2.539E-02    0   0.9488   age055_m42            0.0000     1.6090E-05    24.5067   2.2158   142.2395
  4      0.0000     0.0000E+00    0.0000E+00    6.610000E+06  0.00400  2.620E-02    0   0.9220   age061_m42            0.0000     1.6488E-05    25.2333   1.8906   141.7281
  5      0.0000     0.0000E+00    0.0000E+00    1.000000E+07  0.00400  1.322E-02    0   0.8862   age070_m42            0.0000     1.6820E-05    26.5293   1.6173   144.3923
  6      0.0000     0.0000E+00    0.0000E+00    1.445000E+07  0.00400  7.883E-03    0   0.8571   age078_m42            0.0000     1.6930E-05    26.1613   1.9326   141.3141
  7      0.0000     0.0000E+00    0.0000E+00    2.512000E+07  0.00400  5.251E-03    0   0.8174   age090_m42            0.0000     1.7058E-05    26.9849   1.5083   143.8778
  8      0.0000     0.0000E+00    0.0000E+00    4.000000E+07  0.00400  3.649E-03    0   0.7851   age104_m42            0.0000     1.7057E-05    27.0276   1.2940   144.2771
  9      0.0000     0.0000E+00    0.0000E+00    5.500000E+07  0.00400  3.098E-03    0   0.7629   age110_m42            0.0000     1.7037E-05    26.6411   1.4671   142.9010
 10      0.0000     0.0000E+00    0.0000E+00    1.015200E+08  0.00400  2.228E-03    0   0.7207   age116_m42            0.0000     1.6968E-05    26.3588   1.4950   142.5535
 11      0.0000     0.0000E+00    0.0000E+00    2.861200E+08  0.00400  1.093E-03    0   0.6648   age125_m42            0.0000     1.6904E-05    27.1347   0.9330   146.0807
 12      0.0000     0.0000E+00    0.0000E+00    5.088000E+08  0.00400  6.597E-04    0   0.6365   age130_m42            0.0000     1.6765E-05    26.7300   0.9392   146.3668
 13      0.0000     0.0000E+00    0.0000E+00    1.434000E+09  0.00400  2.132E-04    0   0.5798   age139_m42            0.0000     1.6129E-05    26.2166  -0.0627   151.8062
 14      0.0000     0.0000E+00    0.0000E+00    4.250000E+09  0.00400  5.895E-05    0   0.5377   age158_m42            0.0000     1.5363E-05    24.2151  -0.6080   152.6239
 15      0.0000     0.0000E+00    0.0000E+00    7.500000E+09  0.00400  3.510E-05    0   0.5212   age171_m42            0.0000     1.5128E-05    23.7739  -0.8251   153.6512
 16      0.0000     0.0000E+00    0.0000E+00    1.300000E+10  0.00400  2.005E-05    0   0.5034   age193_m42            0.0000     1.4699E-05    23.9586  -1.0000   154.7517
 17      0.0000     0.0000E+00    0.0000E+00    1.800000E+10  0.00400  1.525E-05    0   0.4967   age213_m42            0.0000     1.4843E-05    24.3626  -1.0000   153.1497
 18      0.0000     0.0000E+00    0.0000E+00    1.000000E+06  0.00800  1.238E-02    0   1.0000   age020_m52            0.0000     1.4609E-05    23.3371   2.4634   146.5637
 19      0.0000     0.0000E+00    0.0000E+00    3.160000E+06  0.00800  3.074E-02    0   0.9966   age045_m52            0.0000     1.5037E-05    23.4860   2.4250   145.2672
 20      0.0000     0.0000E+00    0.0000E+00    5.010000E+06  0.00800  2.668E-02    0   0.9443   age055_m52            0.0000     1.6059E-05    24.4516   2.2889   141.6256
 21      0.0000     0.0000E+00    0.0000E+00    6.610000E+06  0.00800  2.136E-02    0   0.9177   age061_m52            0.0000     1.6404E-05    25.9902   1.0721   149.3984
 22      0.0000     0.0000E+00    0.0000E+00    1.000000E+07  0.00800  1.215E-02    0   0.8827   age070_m52            0.0000     1.6984E-05    26.8611   1.7946   144.0225
 23      0.0000     0.0000E+00    0.0000E+00    1.445000E+07  0.00800  8.717E-03    0   0.8552   age078_m52            0.0000     1.6965E-05    26.4122   1.9129   142.4375
 24      0.0000     0.0000E+00    0.0000E+00    2.512000E+07  0.00800  5.592E-03    0   0.8162   age090_m52            0.0000     1.7206E-05    27.3069   1.5882   144.4717
 25      0.0000     0.0000E+00    0.0000E+00    4.000000E+07  0.00800  3.896E-03    0   0.7841   age104_m52            0.0000     1.7272E-05    27.2586   1.5174   144.4224
 26      0.0000     0.0000E+00    0.0000E+00    1.015200E+08  0.00800  2.148E-03    0   0.7226   age116_m52            0.0000     1.7042E-05    26.7342   1.4634   143.6742
 27      0.0000     0.0000E+00    0.0000E+00    2.861200E+08  0.00800  9.925E-04    0   0.6683   age125_m52            0.0000     1.6951E-05    26.7611   1.0007   147.8781
 28      0.0000     0.0000E+00    0.0000E+00    9.047900E+08  0.00800  3.141E-04    0   0.6138   age135_m52            0.0000     1.6700E-05    26.1768   0.2115   153.2257
 29      0.0000     0.0000E+00    0.0000E+00    1.434000E+09  0.00800  1.719E-04    0   0.5853   age139_m52            0.0000     1.5890E-05    25.2047  -0.4709   157.3262
 30      0.0000     0.0000E+00    0.0000E+00    2.500000E+09  0.00800  7.872E-05    0   0.5600   age150_m52            0.0000     1.5213E-05    23.6197  -0.8177   158.5269
 31      0.0000     0.0000E+00    0.0000E+00    4.250000E+09  0.00800  4.336E-05    0   0.5426   age158_m52            0.0000     1.5160E-05    23.5510  -0.8309   156.8726
 32      0.0000     0.0000E+00    0.0000E+00    6.250000E+09  0.00800  3.159E-05    0   0.5319   age166_m52            0.0000     1.4829E-05    24.5796  -1.0000   157.9825
 33      0.0000     0.0000E+00    0.0000E+00    1.300000E+10  0.00800  1.361E-05    0   0.5073   age193_m52            0.0000     1.6200E-05    40.6081  -1.0000   150.1205
 34      0.0000     0.0000E+00    0.0000E+00    1.800000E+10  0.00800  9.886E-06    0   0.4990   age213_m52            0.0000     1.7085E-05    45.1853  -1.0000   148.0892
 35      0.0000     0.0000E+00    0.0000E+00    1.000000E+06  0.02000  1.544E-02    0   1.0000   age020_m62            0.0000     1.4513E-05    23.3048   2.4524   147.4354
 36      0.0000     0.0000E+00    0.0000E+00    3.160000E+06  0.02000  3.762E-02    0   0.9858   age045_m62            0.0000     1.5645E-05    23.8032   2.4826   142.7301
 37      0.0000     0.0000E+00    0.0000E+00    5.010000E+06  0.02000  3.296E-02    0   0.9342   age055_m62            0.0000     1.6289E-05    24.6473   2.2099   141.7767
 38      0.0000     0.0000E+00    0.0000E+00    8.710000E+06  0.02000  1.154E-02    0   0.8861   age067_m62            0.0000     1.7369E-05    29.5280   1.2167   150.3221
 39      0.0000     0.0000E+00    0.0000E+00    1.445000E+07  0.02000  7.663E-03    0   0.8472   age078_m62            0.0000     1.7232E-05    27.9027   1.4488   146.7977
 40      0.0000     0.0000E+00    0.0000E+00    2.512000E+07  0.02000  4.532E-03    0   0.8099   age090_m62            0.0000     1.7184E-05    28.1599   1.4420   146.3236
 41      0.0000     0.0000E+00    0.0000E+00    5.500000E+07  0.02000  2.733E-03    0   0.7595   age110_m62            0.0000     1.6804E-05    26.8965   1.4634   145.8111
 42      0.0000     0.0000E+00    0.0000E+00    1.609000E+08  0.02000  1.369E-03    0   0.6985   age120_m62            0.0000     1.6829E-05    26.5801   1.3342   147.4402
 43      0.0000     0.0000E+00    0.0000E+00    2.861200E+08  0.02000  9.013E-04    0   0.6714   age125_m62            0.0000     1.6855E-05    26.7130   1.1168   149.5992
 44      0.0000     0.0000E+00    0.0000E+00    5.088000E+08  0.02000  5.028E-04    0   0.6449   age130_m62            0.0000     1.6897E-05    26.2548   0.7692   151.5073
 45      0.0000     0.0000E+00    0.0000E+00    9.047900E+08  0.02000  2.428E-04    0   0.6179   age135_m62            0.0000     1.6453E-05    25.1456   0.1106   155.4654
 46      0.0000     0.0000E+00    0.0000E+00    1.434000E+09  0.02000  1.263E-04    0   0.5908   age139_m62            0.0000     1.5415E-05    24.0596  -0.4241   159.2871
 47      0.0000     0.0000E+00    0.0000E+00    2.500000E+09  0.02000  5.985E-05    0   0.5673   age150_m62            0.0000     1.4942E-05    22.8685  -0.8754   163.0723
 48      0.0000     0.0000E+00    0.0000E+00    4.250000E+09  0.02000  3.271E-05    0   0.5468   age158_m62            0.0000     1.4586E-05    28.5512  -1.0000   161.9021
 49      0.0000     0.0000E+00    0.0000E+00    1.000000E+10  0.02000  1.360E-05    0   0.5167   age181_m62            0.0000     1.6229E-05    42.0663  -1.0000   156.9163
 50      0.0000     0.0000E+00    0.0000E+00    1.800000E+10  0.02000  7.124E-06    0   0.5013   age213_m62            0.0000     1.8954E-05    51.2306  -1.0000   152.3217
 51      2.4337     7.9877E-01    7.9861E-01    1.000000E+06  0.05000  2.592E-02    0   0.9998   age020_m72            0.0000     1.4203E-05    23.0687   2.4086   149.7383
 52      0.0000     0.0000E+00    0.0000E+00    3.160000E+06  0.05000  4.845E-02    0   0.9577   age045_m72            0.0000     1.5871E-05    23.9608   2.4035   142.0202
 53      0.0000     0.0000E+00    0.0000E+00    5.010000E+06  0.05000  3.072E-02    0   0.9147   age055_m72            0.0000     1.6707E-05    26.3678   1.9837   144.0583
 54      0.0000     0.0000E+00    0.0000E+00    6.610000E+06  0.05000  1.455E-02    0   0.8877   age061_m72            0.0000     1.8182E-05    31.0901   1.2551   150.4026
 55      0.0000     0.0000E+00    0.0000E+00    1.000000E+07  0.05000  9.074E-03    0   0.8524   age070_m72            0.0000     1.7073E-05    26.5185   2.1692   142.1952
 56      0.0000     0.0000E+00    0.0000E+00    2.512000E+07  0.05000  4.250E-03    0   0.7902   age090_m72            0.0000     1.7037E-05    27.0884   1.9120   143.0038
 57      0.0000     0.0000E+00    0.0000E+00    4.000000E+07  0.05000  3.087E-03    0   0.7618   age104_m72            0.0000     1.7080E-05    27.4973   1.6946   144.6797
 58      0.0000     0.0000E+00    0.0000E+00    1.015200E+08  0.05000  1.700E-03    0   0.7096   age116_m72            0.0000     1.6950E-05    27.1103   1.4804   146.5935
 59      0.0000     0.0000E+00    0.0000E+00    2.861200E+08  0.05000  7.384E-04    0   0.6633   age125_m72            0.0000     1.6849E-05    26.4169   0.9953   150.8430
 60      0.0000     0.0000E+00    0.0000E+00    5.088000E+08  0.05000  3.819E-04    0   0.6372   age130_m72            0.0000     1.6186E-05    25.3695   0.4745   155.3170
 61      0.0000     0.0000E+00    0.0000E+00    9.047900E+08  0.05000  1.676E-04    0   0.6110   age135_m72            0.0000     1.5526E-05    23.4600  -0.3344   160.2116
 62      0.0000     0.0000E+00    0.0000E+00    1.434000E+09  0.05000  8.837E-05    0   0.5874   age139_m72            0.0000     1.5126E-05    23.0175  -0.8557   163.7136
 63      0.0000     0.0000E+00    0.0000E+00    2.500000E+09  0.05000  4.233E-05    0   0.5598   age150_m72            0.0000     1.4594E-05    28.6455  -1.0000   163.6833
 64      0.0000     0.0000E+00    0.0000E+00    6.250000E+09  0.05000  1.435E-05    0   0.5249   age166_m72            0.0000     1.7297E-05    45.9334  -1.0000   154.2931
 65      0.0000     0.0000E+00    0.0000E+00    1.300000E+10  0.05000  6.513E-06    0   0.5036   age193_m72            0.0000     2.1764E-05    58.1011  -1.0000   150.1803
 66      0.0000     0.0000E+00    0.0000E+00    1.800000E+10  0.05000  4.527E-06    0   0.4945   age213_m72            0.0000     2.5357E-05    64.9343  -1.0000   145.7828


## Synthesis Results - Average & Chains ##

# j      x_j: min, <> & last-chain-values for 1 ...  7 chains
  1    127.5663      0.3712      0.2359      2.4141      1.4589      0.0850      1.2511      0.0377      0.3603
  2      0.0000      0.2954      1.1559      0.8096      0.0000      0.0000      0.0000      0.6605      0.0000
  3      0.0000      0.3052      1.3772      0.0000      1.3956      0.7720      0.9194      0.0000      0.0408
  4      0.0000      0.2344      0.9638      0.0000      0.1324      0.0000      0.7993      0.0000      0.0326
  5      0.0000      0.2842      0.8764      0.1654      0.0000      1.7163      0.9761      2.2256      0.0598
  6      0.0000      0.3099      1.3529      1.5300      0.1092      0.7109      0.2497      0.7148      0.1227
  7      0.0000      0.2600      0.4184      1.7070      0.3604      0.0000      0.0730      0.0000      0.0454
  8      0.0000      0.4363      1.6253      0.0000      0.0000      1.8361      0.0000      0.9502      0.0136
  9      0.0000      0.3154      0.2618      0.7720      0.2655      0.0000      0.5232      1.3538      0.0956
 10      0.0000      0.2350      0.2231      0.0000      0.7590      1.1849      0.0669      0.8473      0.0000
 11      0.0000      0.3068      0.0171      0.2507      1.2812      1.0854      1.0562      1.4220      0.0000
 12      0.0000      0.3325      2.2047      0.3650      1.4744      0.0000      1.0801      1.4578      0.0483
 13      0.0000      0.4206      3.0965      0.5763      0.4009      0.2947      2.0095      0.2595      0.0404
 14      0.0000      0.2688      0.4581      0.0000      0.6496      2.2449      1.3192      1.0057      0.1174
 15      0.0000      0.2303      1.5856      0.0000      0.0000      0.5543      0.0000      0.6274      0.0083
 16      0.0000      0.3883      0.8856      0.1505      0.8790      0.9002      0.6376      0.1019      0.0000
 17      0.0000      0.2980      0.0364      0.5039      0.5178      0.0000      0.0000      0.0668      0.0475
 18      0.0000      0.3996      0.8066      1.2778      0.7802      0.3294      1.0636      1.4802      0.0597
 19      0.0000      0.4018      1.6838      0.7665      0.1726      2.5186      1.4989      0.0000      0.0955
 20      0.0000      0.3150      0.1644      0.8157      3.5933      0.6358      0.6255      0.0000      0.0231
 21      0.0000      0.4585      1.5503      3.6575      1.5022      1.6712      0.3938      2.2179      0.0562
 22      0.0000      0.2428      0.8356      1.1094      0.0000      0.4358      0.8347      0.0000      0.0527
 23      0.0000      0.2514      0.3276      0.0000      0.1921      0.3241      1.5947      1.0222      0.0000
 24      0.0000      0.2619      0.8212      0.8397      2.7243      0.4589      0.2976      0.6286      0.0326
 25      0.0000      0.3076      0.9092      0.9761      0.4229      0.0000      0.4247      0.8986      0.0000
 26      0.0000      0.3451      2.5388      0.6812      0.3560      0.0000      0.4195      0.0043      0.0384
 27      0.0000      0.3108      0.0000      0.3354      0.3555      2.4700      0.0000      0.0000      0.0328
 28      0.0000      0.3273      0.5099      0.0000      0.1179      2.9456      0.5928      0.7123      0.0596
 29      0.0000      0.4896      0.0000      1.4593      4.9724      0.8122      5.3452      4.7265      0.0297
 30      0.0000      0.3544      1.9862      0.4125      1.2979      0.0000      2.7298      0.0000      0.1566
 31      0.0000      0.2446      0.0279      1.5975      0.1300      0.5129      0.1113      1.1999      0.0000
 32      0.0000      0.2773      0.0000      0.0745      0.4091      0.0000      1.4605      0.0000      0.0313
 33      0.0000      0.2997      0.0769      0.7160      0.5107      0.9778      1.8014      0.0000      0.0000
 34      0.0000      0.3682      0.0000      2.3155      0.0614      1.0611      0.3836      0.6088      0.0863
 35      0.0000      0.7577      1.0003      0.0000      2.7255      0.6754      0.8789      0.6709      0.7196
 36      0.0000      0.3201      0.1260      0.0000      1.5248      0.0000      0.4505      1.0375      0.0000
 37      0.0000      0.3902      0.3027      0.6743      2.2570      1.4149      1.7084      1.2482      0.0000
 38      0.0000      0.4289      0.5426      0.8731      0.1367      1.2555      2.1774      1.8410      0.0000
 39      0.0000      0.3437      0.7586      0.7627      0.0000      0.8847      0.4043      0.5403      0.0000
 40      0.0000      0.3350      0.0000      0.3880      0.0000      1.2033      0.3139      1.6624      0.0000
 41      0.0000      0.2558      0.6077      0.7746      0.4742      0.9544      0.3936      0.8654      0.0000
 42      0.0000      0.2495      0.4628      1.8839      0.0000      0.0000      0.4102      0.0000      0.0953
 43      0.0000      0.2949      0.4834      0.1135      0.0788      0.0000      0.5656      0.8535      0.0458
 44      0.0000      0.2189      0.3145      0.7713      0.5785      0.0000      0.6962      0.9426      0.0680
 45      0.0000      0.2187      0.5990      0.1737      0.5749      2.2015      0.0000      0.1342      0.0000
 46      0.0000      0.3771      2.2080      0.0000      0.1112      0.1027      0.0000      1.9031      0.0753
