###################################################################
## OUTPUT of StarlightChains_v04.for    [Cid@UFSC - 01/Apr/2007] ##
###################################################################

## Some input info
KUG0210-078._32_30.txt                   [arq_obs]
Base.CB07.vall.4m                        [arq_base]
Masks.EmLines.NEW.gm                     [arq_masks]
StCv04.C11.config                        [arq_config]
   66                                    [N_base]
    0                                    [N_YAV_components = # of components with extra extinction!]
    0                                    [i_FitPowerLaw (1/0 = Yes/No)]
-9.99                                    [alpha_PowerLaw]
CCM                                      [red_law_option]
 1.458241                                [q_norm = A(l_norm)/A(V)]

## (Re)Sampling Parameters
 3741.00                                 [l_ini (A)]
 7218.00                                 [l_fin (A)]
    1.00                                 [dl    (A)]     (OBS: dl_cushion =    50.00 A)

## Normalization info
 4020.00                                 [l_norm (A) - for base]
 4010.00                                 [llow_norm (A) - window for f_obs]
 4060.00                                 [lupp_norm (A) - window for f_obs]
8.553458E-17                             [fobs_norm (in input units)]

## S/N
 3691.00                                 [llow_SN (A) - window for S/N]
 7268.00                                 [lupp_SN (A) - window for S/N]
   6.832                                 [S/N in S/N window]
   6.649                                 [S/N in norm. window]
   0.170                                 [S/N_err in S/N window]
   0.165                                 [S/N_err in norm. window]
  1.0000                                 [fscale_chi2]

## etc...
    -2007478                             [idum_orig]
  2431                                   [NOl_eff]
  2074                                   [Nl_eff]
   357    NSIGMA                         [Ntot_cliped & clip_method]
 15985200                                [Nglobal_steps]
   7                                     [N_chains]
  25                                     [NEX0s_base = N_base in EX0s-fits]
 0   0   1      357   2.0   7.198E+04    [Clip-Bug, RC-Crash & Burn-In warning-flags, n_censored_weights, wei_nsig_threshold & wei_limit]
   104    103.398    102.438      0.961  [idt_all, wdt_TotTime, wdt_UsrTime & wdt_SysTime (sec)]

## Synthesis Results - Best model ##

 4.76129E-05                             [chi2/Nl_eff]
     2.70822                             [adev (%)]

   109.15226                             [sum-of-x (%)]
 4.47638E-17                             [Flux_tot (units of input spectrum!)]
 1.64537E-12                             [Mini_tot (???)]
 8.66036E-13                             [Mcor_tot (???)]

  63.86                                  [v0_min  (km/s)]
 112.92                                  [vd_min  (km/s)]
-0.5473                                  [AV_min  (mag)]
 0.0000                                  [YAV_min (mag)]

# j     x_j(%)      Mini_j(%)     Mcor_j(%)     age_j(yr)     Z_j      (L/M)_j    YAV?  Mstars   component_j        a/Fe...       SSP_chi2r SSP_adev(%)   SSP_AV   SSP_x(%)
  1      0.1511     3.4429E-04    6.5412E-04    1.000000E+06  0.00400  1.094E-02    0   1.0000   age020_m42            0.0000     1.9624E-04     5.6065   2.9010   103.2636
  2      2.6037     1.6196E-03    3.0767E-03    3.160000E+06  0.00400  4.007E-02    0   0.9999   age045_m42            0.0000     1.8292E-04     5.5365   2.2770   105.3982
  3      0.0000     0.0000E+00    0.0000E+00    5.010000E+06  0.00400  2.539E-02    0   0.9488   age055_m42            0.0000     1.8323E-04     5.4406   2.5492   105.0901
  4      0.0000     0.0000E+00    0.0000E+00    6.610000E+06  0.00400  2.620E-02    0   0.9220   age061_m42            0.0000     1.7770E-04     5.4367   2.2039   105.6467
  5      0.0000     0.0000E+00    0.0000E+00    1.000000E+07  0.00400  1.322E-02    0   0.8862   age070_m42            0.0000     1.8450E-04     5.6485   1.9253   107.8990
  6      0.0000     0.0000E+00    0.0000E+00    1.445000E+07  0.00400  7.883E-03    0   0.8571   age078_m42            0.0000     1.8570E-04     5.5335   2.2231   106.5324
  7      0.0000     0.0000E+00    0.0000E+00    2.512000E+07  0.00400  5.251E-03    0   0.8174   age090_m42            0.0000     1.9043E-04     5.8197   1.8051   108.0445
  8      0.0000     0.0000E+00    0.0000E+00    4.000000E+07  0.00400  3.649E-03    0   0.7851   age104_m42            0.0000     1.8463E-04     5.7685   1.5927   108.1826
  9      0.0000     0.0000E+00    0.0000E+00    5.500000E+07  0.00400  3.098E-03    0   0.7629   age110_m42            0.0000     1.8094E-04     5.6201   1.7590   107.4555
 10      0.0000     0.0000E+00    0.0000E+00    1.015200E+08  0.00400  2.228E-03    0   0.7207   age116_m42            0.0000     1.7784E-04     5.5074   1.7887   107.1871
 11      0.0000     0.0000E+00    0.0000E+00    2.861200E+08  0.00400  1.093E-03    0   0.6648   age125_m42            0.0000     1.8314E-04     5.8657   1.2542   108.7813
 12      0.0000     0.0000E+00    0.0000E+00    5.088000E+08  0.00400  6.597E-04    0   0.6365   age130_m42            0.0000     1.6594E-04     5.4977   1.2661   108.5459
 13     10.7270     1.2541E+00    1.3814E+00    1.434000E+09  0.00400  2.132E-04    0   0.5798   age139_m42            0.0000     1.0978E-04     4.5089   0.3252   109.2495
 14      0.0000     0.0000E+00    0.0000E+00    4.250000E+09  0.00400  5.895E-05    0   0.5377   age158_m42            0.0000     6.8739E-05     3.5185  -0.1614   107.2285
 15     16.5584     1.1758E+01    1.1643E+01    7.500000E+09  0.00400  3.510E-05    0   0.5212   age171_m42            0.0000     5.8386E-05     3.1855  -0.3496   106.4649
 16      0.0000     0.0000E+00    0.0000E+00    1.300000E+10  0.00400  2.005E-05    0   0.5034   age193_m42            0.0000     5.3197E-05     3.0039  -0.5111   105.6637
 17      0.0000     0.0000E+00    0.0000E+00    1.800000E+10  0.00400  1.525E-05    0   0.4967   age213_m42            0.0000     5.4586E-05     3.0118  -0.5449   105.7718
 18      0.0000     0.0000E+00    0.0000E+00    1.000000E+06  0.00800  1.238E-02    0   1.0000   age020_m52            0.0000     1.9655E-04     5.5968   2.8959   103.5445
 19      0.0000     0.0000E+00    0.0000E+00    3.160000E+06  0.00800  3.074E-02    0   0.9966   age045_m52            0.0000     1.9276E-04     5.5443   2.8247   104.2080
 20      0.0000     0.0000E+00    0.0000E+00    5.010000E+06  0.00800  2.668E-02    0   0.9443   age055_m52            0.0000     1.8172E-04     5.3569   2.6173   104.8493
 21      0.0000     0.0000E+00    0.0000E+00    6.610000E+06  0.00800  2.136E-02    0   0.9177   age061_m52            0.0000     1.4725E-04     5.0762   1.4219   109.2878
 22      0.0000     0.0000E+00    0.0000E+00    1.000000E+07  0.00800  1.215E-02    0   0.8827   age070_m52            0.0000     1.8966E-04     5.7431   2.0952   108.1953
 23      0.0000     0.0000E+00    0.0000E+00    1.445000E+07  0.00800  8.717E-03    0   0.8552   age078_m52            0.0000     1.8175E-04     5.5025   2.2025   107.3545
 24      0.0000     0.0000E+00    0.0000E+00    2.512000E+07  0.00800  5.592E-03    0   0.8162   age090_m52            0.0000     1.8844E-04     5.8049   1.8796   108.8478
 25      0.0000     0.0000E+00    0.0000E+00    4.000000E+07  0.00800  3.896E-03    0   0.7841   age104_m52            0.0000     1.8442E-04     5.7669   1.8093   108.7722
 26      0.0000     0.0000E+00    0.0000E+00    1.015200E+08  0.00800  2.148E-03    0   0.7226   age116_m52            0.0000     1.7324E-04     5.5333   1.7599   107.9265
 27      0.0000     0.0000E+00    0.0000E+00    2.861200E+08  0.00800  9.925E-04    0   0.6683   age125_m52            0.0000     1.6160E-04     5.3563   1.3305   109.6416
 28      1.0734     8.5178E-02    9.9330E-02    9.047900E+08  0.00800  3.141E-04    0   0.6138   age135_m52            0.0000     1.1890E-04     4.6901   0.5888   111.2583
 29      0.0000     0.0000E+00    0.0000E+00    1.434000E+09  0.00800  1.719E-04    0   0.5853   age139_m52            0.0000     7.6932E-05     3.7549  -0.0252   110.8334
 30      0.0000     0.0000E+00    0.0000E+00    2.500000E+09  0.00800  7.872E-05    0   0.5600   age150_m52            0.0000     5.4057E-05     3.0020  -0.3200   108.9730
 31      1.6012     9.2044E-01    9.4886E-01    4.250000E+09  0.00800  4.336E-05    0   0.5426   age158_m52            0.0000     5.3840E-05     3.0151  -0.3406   108.1738
 32     32.5893     2.5713E+01    2.5984E+01    6.250000E+09  0.00800  3.159E-05    0   0.5319   age166_m52            0.0000     4.9043E-05     2.8229  -0.5382   107.9180
 33      5.6008     1.0257E+01    9.8859E+00    1.300000E+10  0.00800  1.361E-05    0   0.5073   age193_m52            0.0000     5.3028E-05     2.8243  -1.0000   107.2037
 34      0.0000     0.0000E+00    0.0000E+00    1.800000E+10  0.00800  9.886E-06    0   0.4990   age213_m52            0.0000     8.7155E-05     4.0338  -1.0000   103.9332
 35      0.0000     0.0000E+00    0.0000E+00    1.000000E+06  0.02000  1.544E-02    0   1.0000   age020_m62            0.0000     1.9726E-04     5.6011   2.8891   103.9411
 36      0.0000     0.0000E+00    0.0000E+00    3.160000E+06  0.02000  3.762E-02    0   0.9858   age045_m62            0.0000     1.9139E-04     5.5519   2.8315   104.6602
 37      0.0000     0.0000E+00    0.0000E+00    5.010000E+06  0.02000  3.296E-02    0   0.9342   age055_m62            0.0000     1.7877E-04     5.3660   2.5255   105.5893
 38      0.0000     0.0000E+00    0.0000E+00    8.710000E+06  0.02000  1.154E-02    0   0.8861   age067_m62            0.0000     2.5798E-04     7.4885   1.5324   112.4475
 39      0.0000     0.0000E+00    0.0000E+00    1.445000E+07  0.02000  7.663E-03    0   0.8472   age078_m62            0.0000     1.9722E-04     6.1715   1.7576   110.0682
 40      0.0000     0.0000E+00    0.0000E+00    2.512000E+07  0.02000  4.532E-03    0   0.8099   age090_m62            0.0000     2.0594E-04     6.3447   1.7525   109.6597
 41      0.0000     0.0000E+00    0.0000E+00    5.500000E+07  0.02000  2.733E-03    0   0.7595   age110_m62            0.0000     1.7319E-04     5.5397   1.7796   108.6420
 42      0.0000     0.0000E+00    0.0000E+00    1.609000E+08  0.02000  1.369E-03    0   0.6985   age120_m62            0.0000     1.6956E-04     5.4245   1.6571   109.5784
 43      0.0000     0.0000E+00    0.0000E+00    2.861200E+08  0.02000  9.013E-04    0   0.6714   age125_m62            0.0000     1.6747E-04     5.3648   1.4420   110.8725
 44      0.0000     0.0000E+00    0.0000E+00    5.088000E+08  0.02000  5.028E-04    0   0.6449   age130_m62            0.0000     1.5094E-04     5.0284   1.1075   111.5004
 45      0.0000     0.0000E+00    0.0000E+00    9.047900E+08  0.02000  2.428E-04    0   0.6179   age135_m62            0.0000     9.2640E-05     4.0263   0.5148   111.2338
 46      0.0000     0.0000E+00    0.0000E+00    1.434000E+09  0.02000  1.263E-04    0   0.5908   age139_m62            0.0000     6.3076E-05     3.3092   0.0491   110.6712
 47      0.0000     0.0000E+00    0.0000E+00    2.500000E+09  0.02000  5.985E-05    0   0.5673   age150_m62            0.0000     5.3542E-05     2.8847  -0.3484   110.6841
 48      6.1032     4.6505E+00    4.8313E+00    4.250000E+09  0.02000  3.271E-05    0   0.5468   age158_m62            0.0000     5.4870E-05     2.9020  -0.6594   109.9665
 49      7.5212     1.3784E+01    1.3531E+01    1.000000E+10  0.02000  1.360E-05    0   0.5167   age181_m62            0.0000     8.2683E-05     3.4335  -1.0000   109.6014
 50      0.7032     2.4602E+00    2.3432E+00    1.800000E+10  0.02000  7.124E-06    0   0.5013   age213_m62            0.0000     2.1928E-04     6.1862  -1.0000   103.4694
 51      0.0000     0.0000E+00    0.0000E+00    1.000000E+06  0.05000  2.592E-02    0   0.9998   age020_m72            0.0000     2.0138E-04     5.6192   2.8676   104.5820
 52      0.0000     0.0000E+00    0.0000E+00    3.160000E+06  0.05000  4.845E-02    0   0.9577   age045_m72            0.0000     1.8615E-04     5.4584   2.7420   104.7414
 53      0.0000     0.0000E+00    0.0000E+00    5.010000E+06  0.05000  3.072E-02    0   0.9147   age055_m72            0.0000     1.8242E-04     5.6054   2.3112   107.4729
 54      0.0000     0.0000E+00    0.0000E+00    6.610000E+06  0.05000  1.455E-02    0   0.8877   age061_m72            0.0000     3.4103E-04     9.2385   1.6046   113.0483
 55      0.0000     0.0000E+00    0.0000E+00    1.000000E+07  0.05000  9.074E-03    0   0.8524   age070_m72            0.0000     1.9663E-04     5.9853   2.5136   106.7034
 56      0.0000     0.0000E+00    0.0000E+00    2.512000E+07  0.05000  4.250E-03    0   0.7902   age090_m72            0.0000     1.9791E-04     6.0183   2.2364   107.2170
 57      0.0000     0.0000E+00    0.0000E+00    4.000000E+07  0.05000  3.087E-03    0   0.7618   age104_m72            0.0000     2.0443E-04     6.2429   2.0267   108.1441
 58      0.0000     0.0000E+00    0.0000E+00    1.015200E+08  0.05000  1.700E-03    0   0.7096   age116_m72            0.0000     1.8519E-04     5.7442   1.7991   109.2340
 59      0.4036     1.3625E-02    1.7170E-02    2.861200E+08  0.05000  7.384E-04    0   0.6633   age125_m72            0.0000     1.5411E-04     5.0788   1.3260   111.4970
 60      2.1170     1.3816E-01    1.6726E-01    5.088000E+08  0.05000  3.819E-04    0   0.6372   age130_m72            0.0000     1.1094E-04     4.2995   0.8545   112.1489
 61      0.0000     0.0000E+00    0.0000E+00    9.047900E+08  0.05000  1.676E-04    0   0.6110   age135_m72            0.0000     6.8044E-05     3.3358   0.1216   112.0002
 62      0.0000     0.0000E+00    0.0000E+00    1.434000E+09  0.05000  8.837E-05    0   0.5874   age139_m72            0.0000     5.3781E-05     2.8917  -0.3332   111.4837
 63      7.1469     4.2082E+00    4.4757E+00    2.500000E+09  0.05000  4.233E-05    0   0.5598   age150_m72            0.0000     6.3228E-05     3.0872  -0.6680   111.2854
 64     14.2523     2.4755E+01    2.4687E+01    6.250000E+09  0.05000  1.435E-05    0   0.5249   age166_m72            0.0000     1.2069E-04     4.3866  -1.0000   106.7433
 65      0.0000     0.0000E+00    0.0000E+00    1.300000E+10  0.05000  6.513E-06    0   0.5036   age193_m72            0.0000     4.6682E-04     9.4218  -1.0000   100.4570
 66      0.0000     0.0000E+00    0.0000E+00    1.800000E+10  0.05000  4.527E-06    0   0.4945   age213_m72            0.0000     8.1019E-04    12.4335  -1.0000    95.7188


## Synthesis Results - Average & Chains ##

# j      x_j: min, <> & last-chain-values for 1 ...  7 chains
  1      0.1511      4.4486      5.1329      4.8007      3.9911      3.4614      5.7024      4.8211      5.2395
  2      2.6037      1.6974      1.4254      1.5096      0.4732      1.2408      1.5511      1.7383      1.5212
  3      0.0000      0.3108      0.1192      0.8147      0.7136      0.0000      0.0328      0.3030      0.4513
  4      0.0000      0.2248      0.0000      0.4426      0.0000      0.0000      0.0008      0.0000      0.0328
  5      0.0000      0.2640      0.9380      0.0453      1.6543      0.0497      0.0000      0.0682      0.9128
  6      0.0000      0.2493      0.3871      0.0632      0.5988      0.0250      0.0160      0.1302      0.3355
  7      0.0000      0.3475      0.0000      0.2690      0.6100      0.1706      0.2701      0.7481      0.0802
  8      0.0000      0.2282      0.0000      0.1569      0.1108      0.0162      0.0184      0.0218      0.0000
  9      0.0000      0.2675      0.0846      0.0000      1.4643      0.0041      0.0653      0.1784      0.0000
 10      0.0000      0.1869      0.0000      0.4897      0.5313      0.0493      0.0131      0.5971      0.3860
 11      0.0000      0.2176      0.0000      0.5810      0.7478      0.0000      0.0039      0.0000      0.1336
 12      0.0000      0.3677      0.3365      0.0000      1.3469      0.0132      0.0157      0.1429      0.2716
 13     10.7270      1.2477      1.0094      1.7266      2.0456      1.1964      1.2913      1.6713      0.7994
 14      0.0000      0.3075      0.2922      0.3469      1.0301      0.0085      0.0269      0.3442      0.4298
 15     16.5584      1.2459      1.5366      1.3787      2.3770      0.6201      1.8321      1.5516      0.8131
 16      0.0000      0.2998      0.0893      1.2254      0.0000      0.1090      0.1039      0.0526      0.0727
 17      0.0000      0.5946      1.1829      0.7599      0.7347      0.3137      0.4004      0.7402      0.4715
 18      0.0000      1.2240      1.0573      1.7980      1.9004      1.1500      1.3220      1.0968      1.5282
 19      0.0000      0.3059      0.1116      0.3183      0.0000      0.1490      0.1849      0.0000      0.1739
 20      0.0000      0.1808      0.0000      0.3207      0.0000      0.0217      0.0265      0.1025      1.2275
 21      0.0000      0.4061      0.7453      0.5592      0.0000      0.2872      0.3874      0.7263      0.0000
 22      0.0000      0.2623      0.2993      0.3070      0.0000      0.0521      0.0095      0.8005      0.0000
 23      0.0000      0.2020      0.5428      0.4270      2.0054      0.0084      0.0034      0.1456      0.5363
 24      0.0000      0.2313      0.0000      0.0000      0.2430      0.0137      0.0021      0.1201      0.4039
 25      0.0000      0.3120      0.2426      0.0000      0.1818      0.0310      0.0000      0.5181      0.3412
 26      0.0000      0.2775      0.4502      0.0000      0.2667      0.0652      0.0153      0.0000      0.4078
 27      0.0000      0.2022      0.0093      0.0000      0.0000      0.0000      0.0047      0.2303      0.4021
 28      1.0734      0.6500      0.5236      0.7690      0.7264      0.7483      0.6633      0.4275      0.0000
 29      0.0000      0.2289      0.1193      0.0000      0.1370      0.0153      0.0327      0.2189      0.3272
 30      0.0000      0.3026      0.5329      0.2134      1.9853      0.0394      0.0253      0.8171      0.5569
 31      1.6012     10.0223     13.4895     11.2967      6.8425      2.5148     11.6956     10.5047     11.3325
 32     32.5893      2.8475      2.7176      2.7027      3.4647      1.7527      3.2367      3.0061      3.8715
 33      5.6008      0.4461      0.7634      0.7964      1.8268      0.3206      0.2913      0.7338      0.8187
 34      0.0000      1.2481      1.4923      1.4779      0.1063      0.8630      1.2985      1.1556      1.6973
 35      0.0000      3.1140      2.9632      2.5931      4.8242      6.0441      2.7705      0.7193      0.2492
 36      0.0000      0.2218      0.0691      0.1830      0.2597      0.0000      0.0283      0.0000      0.0000
 37      0.0000      0.3522      0.0000      0.7305      1.7866      0.0056      0.0072      0.0633      0.6285
 38      0.0000      0.1924      0.1012      0.0000      0.0000      0.0034      0.0570      0.1348      0.1186
 39      0.0000      0.2570      0.0000      0.1738      0.3121      0.0000      0.0000      0.0694      0.2718
 40      0.0000      0.2788      0.1377      0.0715      0.3255      0.0000      0.0385      0.2955      0.8174
 41      0.0000      0.3068      0.0000      0.1916      2.3741      0.0518      0.0128      0.4248      0.0000
 42      0.0000      0.2454      0.5201      0.0000      0.0000      0.0136      0.0739      0.2760      0.0177
 43      0.0000      0.2987      0.0052      0.1796      0.0000      0.0349      0.0070      0.0000      0.0065
 44      0.0000      2.3499      1.6462      2.4682      0.0000      1.8388      2.7076      3.1682      1.9867
 45      0.0000      1.8967      1.7826      2.6208      1.6006      0.4163      2.8981      1.4017      1.8564
 46      0.0000      0.7350      1.2367      0.8575      0.0000      0.2596      0.7653      0.9652      1.6006
