###################################################################
## OUTPUT of StarlightChains_v04.for    [Cid@UFSC - 01/Apr/2007] ##
###################################################################

## Some input info
KUG0210-078._29_37.txt                   [arq_obs]
Base.CB07.vall.4m                        [arq_base]
Masks.EmLines.NEW.gm                     [arq_masks]
StCv04.C11.config                        [arq_config]
   66                                    [N_base]
    0                                    [N_YAV_components = # of components with extra extinction!]
    0                                    [i_FitPowerLaw (1/0 = Yes/No)]
-9.99                                    [alpha_PowerLaw]
CCM                                      [red_law_option]
 1.458241                                [q_norm = A(l_norm)/A(V)]

## (Re)Sampling Parameters
 3741.00                                 [l_ini (A)]
 7218.00                                 [l_fin (A)]
    1.00                                 [dl    (A)]     (OBS: dl_cushion =    50.00 A)

## Normalization info
 4020.00                                 [l_norm (A) - for base]
 4010.00                                 [llow_norm (A) - window for f_obs]
 4060.00                                 [lupp_norm (A) - window for f_obs]
1.409184E-16                             [fobs_norm (in input units)]

## S/N
 3691.00                                 [llow_SN (A) - window for S/N]
 7268.00                                 [lupp_SN (A) - window for S/N]
  11.543                                 [S/N in S/N window]
  12.919                                 [S/N in norm. window]
   0.205                                 [S/N_err in S/N window]
   0.229                                 [S/N_err in norm. window]
  1.0000                                 [fscale_chi2]

## etc...
    -2007413                             [idum_orig]
  2432                                   [NOl_eff]
  2416                                   [Nl_eff]
    16    NSIGMA                         [Ntot_cliped & clip_method]
  9952740                                [Nglobal_steps]
   7                                     [N_chains]
  45                                     [NEX0s_base = N_base in EX0s-fits]
 0   0   1       16   2.0   2.334E+04    [Clip-Bug, RC-Crash & Burn-In warning-flags, n_censored_weights, wei_nsig_threshold & wei_limit]
    88     87.619     87.039      0.579  [idt_all, wdt_TotTime, wdt_UsrTime & wdt_SysTime (sec)]

## Synthesis Results - Best model ##

 7.35042E-04                             [chi2/Nl_eff]
     6.74029                             [adev (%)]

    97.92352                             [sum-of-x (%)]
 7.20126E-16                             [Flux_tot (units of input spectrum!)]
 1.58580E-12                             [Mini_tot (???)]
 8.87296E-13                             [Mcor_tot (???)]

 237.28                                  [v0_min  (km/s)]
 150.10                                  [vd_min  (km/s)]
 1.2302                                  [AV_min  (mag)]
 0.0000                                  [YAV_min (mag)]

# j     x_j(%)      Mini_j(%)     Mcor_j(%)     age_j(yr)     Z_j      (L/M)_j    YAV?  Mstars   component_j        a/Fe...       SSP_chi2r SSP_adev(%)   SSP_AV   SSP_x(%)
  1      0.0000     0.0000E+00    0.0000E+00    1.000000E+06  0.00400  1.094E-02    0   1.0000   age020_m42            0.0000     1.1160E-03    11.0350   2.9046    87.0846
  2      0.0000     0.0000E+00    0.0000E+00    3.160000E+06  0.00400  4.007E-02    0   0.9999   age045_m42            0.0000     9.1868E-04    10.1086   2.1559    93.5930
  3      0.0000     0.0000E+00    0.0000E+00    5.010000E+06  0.00400  2.539E-02    0   0.9488   age055_m42            0.0000     9.7435E-04    10.4013   2.4899    90.9629
  4      0.0000     0.0000E+00    0.0000E+00    6.610000E+06  0.00400  2.620E-02    0   0.9220   age061_m42            0.0000     9.2405E-04     9.9079   2.0888    93.6049
  5      0.0000     0.0000E+00    0.0000E+00    1.000000E+07  0.00400  1.322E-02    0   0.8862   age070_m42            0.0000     8.2178E-04     8.2839   1.8595    94.0712
  6      0.0000     0.0000E+00    0.0000E+00    1.445000E+07  0.00400  7.883E-03    0   0.8571   age078_m42            0.0000     8.6468E-04     8.7164   2.1856    91.7403
  7      0.0677     5.9779E-03    8.7330E-03    2.512000E+07  0.00400  5.251E-03    0   0.8174   age090_m42            0.0000     7.9508E-04     7.8825   1.7376    94.3781
  8      0.0000     0.0000E+00    0.0000E+00    4.000000E+07  0.00400  3.649E-03    0   0.7851   age104_m42            0.0000     7.9503E-04     7.9476   1.4996    95.4816
  9      0.0000     0.0000E+00    0.0000E+00    5.500000E+07  0.00400  3.098E-03    0   0.7629   age110_m42            0.0000     8.6099E-04     8.6117   1.6269    96.2038
 10      0.0000     0.0000E+00    0.0000E+00    1.015200E+08  0.00400  2.228E-03    0   0.7207   age116_m42            0.0000     9.4292E-04     9.0651   1.6297    96.8545
 11      0.0000     0.0000E+00    0.0000E+00    2.861200E+08  0.00400  1.093E-03    0   0.6648   age125_m42            0.0000     9.6549E-04     8.4045   1.0702    99.3491
 12      0.0000     0.0000E+00    0.0000E+00    5.088000E+08  0.00400  6.597E-04    0   0.6365   age130_m42            0.0000     1.1272E-03     9.2788   1.0304   101.0710
 13      8.3085     1.8072E+01    1.8727E+01    1.434000E+09  0.00400  2.132E-04    0   0.5798   age139_m42            0.0000     1.1685E-03     9.6668   0.0335   104.0892
 14      0.0000     0.0000E+00    0.0000E+00    4.250000E+09  0.00400  5.895E-05    0   0.5377   age158_m42            0.0000     1.3665E-03    11.1185  -0.4477   101.5360
 15      0.0000     0.0000E+00    0.0000E+00    7.500000E+09  0.00400  3.510E-05    0   0.5212   age171_m42            0.0000     1.5533E-03    11.7871  -0.6556   101.4736
 16      0.4137     9.5679E+00    8.6081E+00    1.300000E+10  0.00400  2.005E-05    0   0.5034   age193_m42            0.0000     1.7515E-03    12.4289  -0.8371   101.3945
 17      0.0000     0.0000E+00    0.0000E+00    1.800000E+10  0.00400  1.525E-05    0   0.4967   age213_m42            0.0000     1.7152E-03    12.2854  -0.8548   100.8045
 18      0.0000     0.0000E+00    0.0000E+00    1.000000E+06  0.00800  1.238E-02    0   1.0000   age020_m52            0.0000     1.1198E-03    11.0508   2.9010    87.2567
 19      4.3930     6.6273E-02    1.1804E-01    3.160000E+06  0.00800  3.074E-02    0   0.9966   age045_m52            0.0000     1.1041E-03    11.0080   2.8233    88.0743
 20      0.0000     0.0000E+00    0.0000E+00    5.010000E+06  0.00800  2.668E-02    0   0.9443   age055_m52            0.0000     1.0013E-03    10.4404   2.5794    90.0042
 21      1.2658     2.7482E-02    4.5074E-02    6.610000E+06  0.00800  2.136E-02    0   0.9177   age061_m52            0.0000     8.5438E-04     8.6346   1.3539    95.4859
 22      0.0900     3.4358E-03    5.4203E-03    1.000000E+07  0.00800  1.215E-02    0   0.8827   age070_m52            0.0000     8.2035E-04     7.9612   2.0540    93.4041
 23      0.0000     0.0000E+00    0.0000E+00    1.445000E+07  0.00800  8.717E-03    0   0.8552   age078_m52            0.0000     8.4662E-04     8.5487   2.1514    93.0063
 24      0.0000     0.0000E+00    0.0000E+00    2.512000E+07  0.00800  5.592E-03    0   0.8162   age090_m52            0.0000     7.8669E-04     7.7068   1.8011    95.4704
 25      3.9417     4.6918E-01    6.5749E-01    4.000000E+07  0.00800  3.896E-03    0   0.7841   age104_m52            0.0000     7.9914E-04     7.9024   1.6978    96.6374
 26      0.8063     1.7408E-01    2.2481E-01    1.015200E+08  0.00800  2.148E-03    0   0.7226   age116_m52            0.0000     8.8358E-04     8.6482   1.6069    97.3511
 27      0.0000     0.0000E+00    0.0000E+00    2.861200E+08  0.00800  9.925E-04    0   0.6683   age125_m52            0.0000     1.1250E-03     9.1550   1.0962   101.9996
 28      0.0000     0.0000E+00    0.0000E+00    9.047900E+08  0.00800  3.141E-04    0   0.6138   age135_m52            0.0000     1.4617E-03    10.5230   0.2425   108.0396
 29      0.0000     0.0000E+00    0.0000E+00    1.434000E+09  0.00800  1.719E-04    0   0.5853   age139_m52            0.0000     1.3228E-03    10.6270  -0.3482   106.3932
 30      0.0000     0.0000E+00    0.0000E+00    2.500000E+09  0.00800  7.872E-05    0   0.5600   age150_m52            0.0000     1.6184E-03    12.1194  -0.6594   105.0014
 31      0.0000     0.0000E+00    0.0000E+00    4.250000E+09  0.00800  4.336E-05    0   0.5426   age158_m52            0.0000     1.6918E-03    12.2604  -0.6749   104.0506
 32      0.0000     0.0000E+00    0.0000E+00    6.250000E+09  0.00800  3.159E-05    0   0.5319   age166_m52            0.0000     1.9778E-03    13.2109  -0.9098   105.0316
 33      0.3404     1.1598E+01    1.0515E+01    1.300000E+10  0.00800  1.361E-05    0   0.5073   age193_m52            0.0000     2.8280E-03    13.3587  -1.0000    96.4575
 34      0.0000     0.0000E+00    0.0000E+00    1.800000E+10  0.00800  9.886E-06    0   0.4990   age213_m52            0.0000     3.4884E-03    14.5112  -1.0000    93.5283
 35      0.0000     0.0000E+00    0.0000E+00    1.000000E+06  0.02000  1.544E-02    0   1.0000   age020_m62            0.0000     1.1344E-03    11.0880   2.8987    87.4192
 36      0.0000     0.0000E+00    0.0000E+00    3.160000E+06  0.02000  3.762E-02    0   0.9858   age045_m62            0.0000     1.1439E-03    11.1288   2.8375    88.1971
 37      0.0000     0.0000E+00    0.0000E+00    5.010000E+06  0.02000  3.296E-02    0   0.9342   age055_m62            0.0000     9.7521E-04    10.4717   2.4397    92.3658
 38     44.9497     1.8063E+00    2.8606E+00    8.710000E+06  0.02000  1.154E-02    0   0.8861   age067_m62            0.0000     9.1558E-04     6.3270   1.5978    93.2202
 39      0.0000     0.0000E+00    0.0000E+00    1.445000E+07  0.02000  7.663E-03    0   0.8472   age078_m62            0.0000     8.0097E-04     7.2347   1.7252    94.7638
 40      0.0000     0.0000E+00    0.0000E+00    2.512000E+07  0.02000  4.532E-03    0   0.8099   age090_m62            0.0000     7.8783E-04     7.0709   1.7206    94.3605
 41      0.0000     0.0000E+00    0.0000E+00    5.500000E+07  0.02000  2.733E-03    0   0.7595   age110_m62            0.0000     8.1347E-04     8.0120   1.6822    95.9205
 42      0.3513     1.1902E-01    1.4858E-01    1.609000E+08  0.02000  1.369E-03    0   0.6985   age120_m62            0.0000     1.0079E-03     8.7752   1.4826    99.6481
 43      5.3367     2.7459E+00    3.2949E+00    2.861200E+08  0.02000  9.013E-04    0   0.6714   age125_m62            0.0000     1.2342E-03     9.3231   1.2091   103.1965
 44      0.4082     3.7644E-01    4.3388E-01    5.088000E+08  0.02000  5.028E-04    0   0.6449   age130_m62            0.0000     1.5252E-03    10.8060   0.7800   107.5458
 45      0.0000     0.0000E+00    0.0000E+00    9.047900E+08  0.02000  2.428E-04    0   0.6179   age135_m62            0.0000     1.5390E-03    11.3927   0.1561   108.3187
 46      0.6571     2.4125E+00    2.5474E+00    1.434000E+09  0.02000  1.263E-04    0   0.5908   age139_m62            0.0000     1.6189E-03    11.8053  -0.3026   107.3646
 47      0.1727     1.3380E+00    1.3566E+00    2.500000E+09  0.02000  5.985E-05    0   0.5673   age150_m62            0.0000     1.9322E-03    13.1247  -0.7075   107.1879
 48      0.0000     0.0000E+00    0.0000E+00    4.250000E+09  0.02000  3.271E-05    0   0.5468   age158_m62            0.0000     2.3551E-03    14.2834  -1.0000   106.5785
 49      0.0000     0.0000E+00    0.0000E+00    1.000000E+10  0.02000  1.360E-05    0   0.5167   age181_m62            0.0000     3.4944E-03    15.0501  -1.0000    98.5969
 50      0.0000     0.0000E+00    0.0000E+00    1.800000E+10  0.02000  7.124E-06    0   0.5013   age213_m62            0.0000     4.6759E-03    16.7463  -1.0000    92.6474
 51      0.0000     0.0000E+00    0.0000E+00    1.000000E+06  0.05000  2.592E-02    0   0.9998   age020_m72            0.0000     1.1640E-03    11.1208   2.8950    87.3416
 52      0.0000     0.0000E+00    0.0000E+00    3.160000E+06  0.05000  4.845E-02    0   0.9577   age045_m72            0.0000     1.0710E-03    10.9784   2.7087    89.6642
 53      1.7042     2.5725E-02    4.2055E-02    5.010000E+06  0.05000  3.072E-02    0   0.9147   age055_m72            0.0000     9.2584E-04     8.8098   2.2824    91.9017
 54      3.7059     1.1811E-01    1.8739E-01    6.610000E+06  0.05000  1.455E-02    0   0.8877   age061_m72            0.0000     1.1443E-03     8.1488   1.6580    92.9767
 55      0.0000     0.0000E+00    0.0000E+00    1.000000E+07  0.05000  9.074E-03    0   0.8524   age070_m72            0.0000     9.6567E-04     9.6221   2.4524    91.6845
 56      0.0000     0.0000E+00    0.0000E+00    2.512000E+07  0.05000  4.250E-03    0   0.7902   age090_m72            0.0000     8.4572E-04     8.5168   2.1537    93.5464
 57      0.0000     0.0000E+00    0.0000E+00    4.000000E+07  0.05000  3.087E-03    0   0.7618   age104_m72            0.0000     8.2557E-04     8.1250   1.9298    94.9823
 58      0.0000     0.0000E+00    0.0000E+00    1.015200E+08  0.05000  1.700E-03    0   0.7096   age116_m72            0.0000     9.3688E-04     8.2777   1.6399    98.7349
 59     19.8501     1.2466E+01    1.4779E+01    2.861200E+08  0.05000  7.384E-04    0   0.6633   age125_m72            0.0000     1.3742E-03    10.0889   1.0482   105.5392
 60      0.3103     3.7681E-01    4.2912E-01    5.088000E+08  0.05000  3.819E-04    0   0.6372   age130_m72            0.0000     1.5064E-03    11.3054   0.5036   109.0864
 61      0.0000     0.0000E+00    0.0000E+00    9.047900E+08  0.05000  1.676E-04    0   0.6110   age135_m72            0.0000     1.8312E-03    12.9902  -0.2574   109.4975
 62      0.0000     0.0000E+00    0.0000E+00    1.434000E+09  0.05000  8.837E-05    0   0.5874   age139_m72            0.0000     2.0358E-03    13.4228  -0.7257   109.3844
 63      0.0000     0.0000E+00    0.0000E+00    2.500000E+09  0.05000  4.233E-05    0   0.5598   age150_m72            0.0000     2.5132E-03    14.6776  -1.0000   107.7485
 64      0.6970     2.2524E+01    2.1130E+01    6.250000E+09  0.05000  1.435E-05    0   0.5249   age166_m72            0.0000     3.8487E-03    15.6824  -1.0000    95.9476
 65      0.0000     0.0000E+00    0.0000E+00    1.300000E+10  0.05000  6.513E-06    0   0.5036   age193_m72            0.0000     5.6161E-03    18.9956  -1.0000    89.4551
 66      0.1533     1.5707E+01    1.3882E+01    1.800000E+10  0.05000  4.527E-06    0   0.4945   age213_m72            0.0000     6.8343E-03    21.5572  -1.0000    84.7621


## Synthesis Results - Average & Chains ##

# j      x_j: min, <> & last-chain-values for 1 ...  7 chains
  1      0.0000      0.1330      0.0604      0.0514      0.5639      0.1383      0.0754      0.5188      0.0000
  2      0.0000      0.1287      0.0000      0.0773      1.0756      0.0663      0.2785      0.1689      0.0894
  3      0.0000      0.2005      0.2822      0.6654      0.0102      0.0000      0.0000      0.1834      0.9727
  4      0.0000      0.1840      0.0000      0.2105      0.0000      0.7712      0.3251      0.3423      0.0067
  5      0.0000      0.1360      0.0004      0.0949      0.0000      0.6015      0.0376      0.0000      1.2107
  6      0.0000      0.1799      0.3176      0.1687      0.0469      0.4974      0.3766      0.7116      0.0885
  7      0.0677      0.1548      0.8955      0.3460      0.0454      0.3399      0.0450      0.2655      0.1739
  8      0.0000      0.1581      0.0000      0.3543      0.3738      0.1958      0.1466      0.2544      0.8997
  9      0.0000      0.1430      0.6204      0.2378      0.2568      0.2753      0.3737      0.5723      0.3369
 10      0.0000      0.1266      0.0498      0.6110      0.2329      0.1530      0.6173      0.1925      0.0879
 11      0.0000      0.1156      0.0000      0.0840      0.2335      0.0880      0.4836      0.1019      0.0000
 12      0.0000      0.2344      0.0000      0.2036      0.1771      0.1999      0.4860      0.3974      0.8859
 13      8.3085      7.3337      6.3676      7.0399      6.9090      7.8788      6.0406      7.2375      5.6862
 14      0.0000      0.1982      0.0000      0.1521      0.7077      0.0000      0.0768      0.8102      0.3472
 15      0.0000      0.1196      0.2520      0.3743      0.0281      0.2945      0.7060      0.2357      0.0000
 16      0.4137      0.1340      0.0000      0.9390      0.0798      0.0877      0.8451      0.1048      0.0121
 17      0.0000      0.0982      0.1676      0.2303      0.0000      0.1272      0.4074      0.3021      0.0000
 18      0.0000      0.1767      0.3695      0.1332      0.4110      0.6036      0.2666      0.4766      0.0000
 19      4.3930      0.1462      0.4381      0.3377      0.5707      0.4452      0.4012      0.0000      0.4191
 20      0.0000      0.1644      0.6359      0.4605      0.6884      0.1134      0.4477      0.1486      0.1106
 21      1.2658      0.1261      0.1033      0.4647      0.2637      0.4526      0.1089      0.9363      0.2502
 22      0.0900      0.2089      0.8381      0.8070      0.4262      0.5354      0.0688      0.4293      0.5561
 23      0.0000      0.1550      0.2614      0.1910      0.0000      0.0831      0.1262      0.0062      0.4556
 24      0.0000      0.1171      0.0481      0.0000      0.1806      0.0550      0.6274      0.0000      0.3855
 25      3.9417      0.1321      0.0000      0.8574      0.5183      0.1913      0.6986      0.1049      0.2654
 26      0.8063      0.1626      0.3336      0.2401      0.3532      0.0019      0.0000      0.0994      0.1848
 27      0.0000      0.1529      0.5537      0.2243      0.0371      0.3200      0.1703      0.1784      0.2828
 28      0.0000      0.3601      0.6994      0.3393      1.0517      0.1258      0.2248      0.3276      0.3258
 29      0.0000      0.1466      0.4161      0.1578      0.5795      0.1618      0.4228      0.2066      0.5511
 30      0.0000      0.1066      0.0717      0.0000      0.0803      0.3414      0.1069      0.2387      0.5657
 31      0.0000      0.1908      0.7905      0.0000      0.0000      0.8605      0.0418      0.0000      0.2759
 32      0.0000      0.1337      0.0000      0.0000      0.7899      0.5746      0.0443      0.2485      0.0000
 33      0.3404      0.1972      0.1811      0.3397      0.8026      0.0000      0.0000      0.0900      1.4222
 34      0.0000      0.1382      0.0551      0.6256      0.0399      0.3904      0.5225      0.7648      0.2097
 35      0.0000      0.1713      0.0000      0.4463      0.3346      0.9379      0.4751      0.6960      0.0000
 36      0.0000      0.2089      1.1920      0.3194      1.1560      0.3915      0.2315      0.6201      0.2487
 37      0.0000      0.1517      0.8155      0.0000      0.2966      1.2102      0.3085      0.0000      0.4228
 38     44.9497      0.1622      0.5353      1.3372      0.0000      0.2629      0.2367      0.0000      0.7364
 39      0.0000      0.2106      0.7814      0.7034      0.0904      0.0611      1.0608      0.4623      0.5826
 40      0.0000      0.1734      0.0822      0.3573      0.4345      0.4192      0.0000      1.0841      0.3309
 41      0.0000      0.1952      0.2084      0.7659      0.0000      0.2668      0.7495      0.1894      0.0000
 42      0.3513      0.1218      0.0218      0.7672      0.0000      0.0455      0.0000      0.4489      0.3257
 43      5.3367      1.1186      1.0330      0.2963      1.2467      1.1119      1.1512      0.9463      0.6720
 44      0.4082     10.1246      9.7356      8.3624     10.0806      8.3496      9.1996      9.4072      8.7914
 45      0.0000      4.4409      4.2660      4.8014      4.9412      4.0600      3.4624      4.2779      4.4516
 46      0.6571      1.0788      1.1475      1.2817      1.0795      0.9006      0.8510      0.8212      1.5156
