###################################################################
## OUTPUT of StarlightChains_v04.for    [Cid@UFSC - 01/Apr/2007] ##
###################################################################

## Some input info
KUG0210-078._37_44.txt                   [arq_obs]
Base.CB07.vall.4m                        [arq_base]
Masks.EmLines.NEW.gm                     [arq_masks]
StCv04.C11.config                        [arq_config]
   66                                    [N_base]
    0                                    [N_YAV_components = # of components with extra extinction!]
    0                                    [i_FitPowerLaw (1/0 = Yes/No)]
-9.99                                    [alpha_PowerLaw]
CCM                                      [red_law_option]
 1.458241                                [q_norm = A(l_norm)/A(V)]

## (Re)Sampling Parameters
 3741.00                                 [l_ini (A)]
 7218.00                                 [l_fin (A)]
    1.00                                 [dl    (A)]     (OBS: dl_cushion =    50.00 A)

## Normalization info
 4020.00                                 [l_norm (A) - for base]
 4010.00                                 [llow_norm (A) - window for f_obs]
 4060.00                                 [lupp_norm (A) - window for f_obs]
1.582832E-17                             [fobs_norm (in input units)]

## S/N
 3691.00                                 [llow_SN (A) - window for S/N]
 7268.00                                 [lupp_SN (A) - window for S/N]
   5.806                                 [S/N in S/N window]
   6.304                                 [S/N in norm. window]
   0.017                                 [S/N_err in S/N window]
   0.018                                 [S/N_err in norm. window]
  1.0000                                 [fscale_chi2]

## etc...
    -2007638                             [idum_orig]
  2432                                   [NOl_eff]
  2378                                   [Nl_eff]
    54    NSIGMA                         [Ntot_cliped & clip_method]
  6924960                                [Nglobal_steps]
   7                                     [N_chains]
  46                                     [NEX0s_base = N_base in EX0s-fits]
 0   0   1       54   2.0   4.938E+03    [Clip-Bug, RC-Crash & Burn-In warning-flags, n_censored_weights, wei_nsig_threshold & wei_limit]
    76     74.254     73.524      0.730  [idt_all, wdt_TotTime, wdt_UsrTime & wdt_SysTime (sec)]

## Synthesis Results - Best model ##

 8.96115E-06                             [chi2/Nl_eff]
     9.87792                             [adev (%)]

   103.19176                             [sum-of-x (%)]
 1.26498E-17                             [Flux_tot (units of input spectrum!)]
 4.38655E-13                             [Mini_tot (???)]
 2.25924E-13                             [Mcor_tot (???)]

-137.59                                  [v0_min  (km/s)]
 483.37                                  [vd_min  (km/s)]
-0.1903                                  [AV_min  (mag)]
 0.0000                                  [YAV_min (mag)]

# j     x_j(%)      Mini_j(%)     Mcor_j(%)     age_j(yr)     Z_j      (L/M)_j    YAV?  Mstars   component_j        a/Fe...       SSP_chi2r SSP_adev(%)   SSP_AV   SSP_x(%)
  1      0.0000     0.0000E+00    0.0000E+00    1.000000E+06  0.00400  1.094E-02    0   1.0000   age020_m42            0.0000     1.8172E-05    14.0562   3.1533    84.0056
  2      0.0000     0.0000E+00    0.0000E+00    3.160000E+06  0.00400  4.007E-02    0   0.9999   age045_m42            0.0000     1.4394E-05    12.6226   2.3962    90.7307
  3      0.0161     1.7753E-05    3.2705E-05    5.010000E+06  0.00400  2.539E-02    0   0.9488   age055_m42            0.0000     1.5993E-05    13.2739   2.7338    88.0130
  4      0.0000     0.0000E+00    0.0000E+00    6.610000E+06  0.00400  2.620E-02    0   0.9220   age061_m42            0.0000     1.4228E-05    12.5293   2.3245    90.8807
  5      0.5820     1.2303E-03    2.1169E-03    1.000000E+07  0.00400  1.322E-02    0   0.8862   age070_m42            0.0000     1.5189E-05    13.2063   2.0842    91.5123
  6      0.0000     0.0000E+00    0.0000E+00    1.445000E+07  0.00400  7.883E-03    0   0.8571   age078_m42            0.0000     1.6145E-05    13.5279   2.4131    89.1282
  7      0.0000     0.0000E+00    0.0000E+00    2.512000E+07  0.00400  5.251E-03    0   0.8174   age090_m42            0.0000     1.5139E-05    13.3067   1.9609    91.8423
  8      0.0000     0.0000E+00    0.0000E+00    4.000000E+07  0.00400  3.649E-03    0   0.7851   age104_m42            0.0000     1.4382E-05    12.9340   1.7234    92.9276
  9      0.6381     5.7558E-03    8.5258E-03    5.500000E+07  0.00400  3.098E-03    0   0.7629   age110_m42            0.0000     1.3451E-05    12.2741   1.8513    93.7535
 10      0.0000     0.0000E+00    0.0000E+00    1.015200E+08  0.00400  2.228E-03    0   0.7207   age116_m42            0.0000     1.2782E-05    11.8312   1.8536    94.4959
 11      0.0000     0.0000E+00    0.0000E+00    2.861200E+08  0.00400  1.093E-03    0   0.6648   age125_m42            0.0000     1.2092E-05    11.6635   1.2881    97.0498
 12      0.0000     0.0000E+00    0.0000E+00    5.088000E+08  0.00400  6.597E-04    0   0.6365   age130_m42            0.0000     1.1167E-05    10.9804   1.2514    98.7610
 13      0.0000     0.0000E+00    0.0000E+00    1.434000E+09  0.00400  2.132E-04    0   0.5798   age139_m42            0.0000     9.7078E-06    10.3295   0.2718   100.9307
 14      1.7941     8.5049E-01    8.8791E-01    4.250000E+09  0.00400  5.895E-05    0   0.5377   age158_m42            0.0000     1.0187E-05    10.6200  -0.1801    97.2951
 15      1.0368     8.2550E-01    8.3538E-01    7.500000E+09  0.00400  3.510E-05    0   0.5212   age171_m42            0.0000     1.0218E-05    10.6155  -0.3789    96.9337
 16      0.0000     0.0000E+00    0.0000E+00    1.300000E+10  0.00400  2.005E-05    0   0.5034   age193_m42            0.0000     1.0350E-05    10.6582  -0.5549    96.6859
 17      0.0000     0.0000E+00    0.0000E+00    1.800000E+10  0.00400  1.525E-05    0   0.4967   age213_m42            0.0000     1.0461E-05    10.7046  -0.5735    96.1229
 18      0.0000     0.0000E+00    0.0000E+00    1.000000E+06  0.00800  1.238E-02    0   1.0000   age020_m52            0.0000     1.8181E-05    14.0802   3.1515    84.1429
 19      0.0000     0.0000E+00    0.0000E+00    3.160000E+06  0.00800  3.074E-02    0   0.9966   age045_m52            0.0000     1.7871E-05    13.9967   3.0709    85.0119
 20      0.0000     0.0000E+00    0.0000E+00    5.010000E+06  0.00800  2.668E-02    0   0.9443   age055_m52            0.0000     1.6544E-05    13.4953   2.8211    87.0892
 21      0.0000     0.0000E+00    0.0000E+00    6.610000E+06  0.00800  2.136E-02    0   0.9177   age061_m52            0.0000     1.5076E-05    13.1259   1.5891    92.4023
 22      1.9835     4.5623E-03    7.8191E-03    1.000000E+07  0.00800  1.215E-02    0   0.8827   age070_m52            0.0000     1.6131E-05    13.7304   2.2770    90.8565
 23      0.0000     0.0000E+00    0.0000E+00    1.445000E+07  0.00800  8.717E-03    0   0.8552   age078_m52            0.0000     1.5819E-05    13.4420   2.3793    90.3808
 24      0.0000     0.0000E+00    0.0000E+00    2.512000E+07  0.00800  5.592E-03    0   0.8162   age090_m52            0.0000     1.4997E-05    13.2668   2.0207    93.0240
 25      0.1283     9.2052E-04    1.4014E-03    4.000000E+07  0.00800  3.896E-03    0   0.7841   age104_m52            0.0000     1.4058E-05    12.7750   1.9202    94.1624
 26      0.0000     0.0000E+00    0.0000E+00    1.015200E+08  0.00800  2.148E-03    0   0.7226   age116_m52            0.0000     1.2927E-05    12.0442   1.8330    94.8383
 27      2.9141     8.2053E-02    1.0647E-01    2.861200E+08  0.00800  9.925E-04    0   0.6683   age125_m52            0.0000     1.1091E-05    10.9403   1.3150    99.7445
 28      0.0000     0.0000E+00    0.0000E+00    9.047900E+08  0.00800  3.141E-04    0   0.6138   age135_m52            0.0000     9.3308E-06     9.9809   0.4790   105.0453
 29      3.2271     5.2463E-01    5.9621E-01    1.434000E+09  0.00800  1.719E-04    0   0.5853   age139_m52            0.0000     9.3677E-06    10.2350  -0.0925   102.4570
 30      0.0000     0.0000E+00    0.0000E+00    2.500000E+09  0.00800  7.872E-05    0   0.5600   age150_m52            0.0000     9.5462E-06    10.3734  -0.3817   100.4095
 31      0.0000     0.0000E+00    0.0000E+00    4.250000E+09  0.00800  4.336E-05    0   0.5426   age158_m52            0.0000     9.8379E-06    10.4721  -0.3960    99.4131
 32      0.0000     0.0000E+00    0.0000E+00    6.250000E+09  0.00800  3.159E-05    0   0.5319   age166_m52            0.0000     9.7645E-06    10.5168  -0.6192   100.0357
 33      0.0000     0.0000E+00    0.0000E+00    1.300000E+10  0.00800  1.361E-05    0   0.5073   age193_m52            0.0000     1.0118E-05    10.5877  -1.0000    97.5335
 34      0.0000     0.0000E+00    0.0000E+00    1.800000E+10  0.00800  9.886E-06    0   0.4990   age213_m52            0.0000     1.1182E-05    11.2926  -1.0000    94.6071
 35      0.0000     0.0000E+00    0.0000E+00    1.000000E+06  0.02000  1.544E-02    0   1.0000   age020_m62            0.0000     1.8295E-05    14.1214   3.1474    84.3372
 36      0.0000     0.0000E+00    0.0000E+00    3.160000E+06  0.02000  3.762E-02    0   0.9858   age045_m62            0.0000     1.8238E-05    14.1114   3.0835    85.1680
 37      0.0000     0.0000E+00    0.0000E+00    5.010000E+06  0.02000  3.296E-02    0   0.9342   age055_m62            0.0000     1.5225E-05    12.9649   2.6799    89.5446
 38      0.0000     0.0000E+00    0.0000E+00    8.710000E+06  0.02000  1.154E-02    0   0.8861   age067_m62            0.0000     2.0567E-05    16.7102   1.8019    90.8727
 39      0.0000     0.0000E+00    0.0000E+00    1.445000E+07  0.02000  7.663E-03    0   0.8472   age078_m62            0.0000     1.6865E-05    14.3723   1.9440    92.1811
 40      0.0000     0.0000E+00    0.0000E+00    2.512000E+07  0.02000  4.532E-03    0   0.8099   age090_m62            0.0000     1.6766E-05    14.4193   1.9349    91.9316
 41      0.0000     0.0000E+00    0.0000E+00    5.500000E+07  0.02000  2.733E-03    0   0.7595   age110_m62            0.0000     1.4259E-05    12.8420   1.9038    93.4388
 42      1.0315     2.1055E-02    2.8555E-02    1.609000E+08  0.02000  1.369E-03    0   0.6985   age120_m62            0.0000     1.2167E-05    11.5328   1.6986    97.4969
 43      0.0000     0.0000E+00    0.0000E+00    2.861200E+08  0.02000  9.013E-04    0   0.6714   age125_m62            0.0000     1.1082E-05    10.7939   1.4228   101.2051
 44      0.0000     0.0000E+00    0.0000E+00    5.088000E+08  0.02000  5.028E-04    0   0.6449   age130_m62            0.0000     9.8444E-06    10.0670   1.0039   105.2392
 45     23.4245     2.6961E+00    3.2346E+00    9.047900E+08  0.02000  2.428E-04    0   0.6179   age135_m62            0.0000     9.1862E-06    10.0235   0.4096   104.7294
 46      0.0000     0.0000E+00    0.0000E+00    1.434000E+09  0.02000  1.263E-04    0   0.5908   age139_m62            0.0000     9.3920E-06    10.2209  -0.0331   103.0510
 47      3.8143     1.7810E+00    1.9617E+00    2.500000E+09  0.02000  5.985E-05    0   0.5673   age150_m62            0.0000     9.6411E-06    10.5693  -0.4219   102.3216
 48      1.0976     9.3777E-01    9.9560E-01    4.250000E+09  0.02000  3.271E-05    0   0.5468   age158_m62            0.0000     9.7512E-06    10.8488  -0.7601   102.4570
 49      9.2888     1.9087E+01    1.9149E+01    1.000000E+10  0.02000  1.360E-05    0   0.5167   age181_m62            0.0000     1.0667E-05    10.8810  -1.0000    99.7198
 50     17.5007     6.8651E+01    6.6820E+01    1.800000E+10  0.02000  7.124E-06    0   0.5013   age213_m62            0.0000     1.3534E-05    12.3869  -1.0000    93.8141
 51      0.0000     0.0000E+00    0.0000E+00    1.000000E+06  0.05000  2.592E-02    0   0.9998   age020_m72            0.0000     1.8701E-05    14.2760   3.1427    84.2513
 52      0.0000     0.0000E+00    0.0000E+00    3.160000E+06  0.05000  4.845E-02    0   0.9577   age045_m72            0.0000     1.7004E-05    13.6918   2.9526    86.7219
 53      0.0000     0.0000E+00    0.0000E+00    5.010000E+06  0.05000  3.072E-02    0   0.9147   age055_m72            0.0000     1.7327E-05    14.1252   2.5077    89.2546
 54      0.0000     0.0000E+00    0.0000E+00    6.610000E+06  0.05000  1.455E-02    0   0.8877   age061_m72            0.0000     2.3699E-05    18.5031   1.8499    90.9006
 55      0.0000     0.0000E+00    0.0000E+00    1.000000E+07  0.05000  9.074E-03    0   0.8524   age070_m72            0.0000     1.7743E-05    14.3387   2.6740    89.1318
 56      0.0000     0.0000E+00    0.0000E+00    2.512000E+07  0.05000  4.250E-03    0   0.7902   age090_m72            0.0000     1.5868E-05    13.6625   2.3711    91.1859
 57      0.0000     0.0000E+00    0.0000E+00    4.000000E+07  0.05000  3.087E-03    0   0.7618   age104_m72            0.0000     1.5333E-05    13.5849   2.1427    92.7503
 58      0.0000     0.0000E+00    0.0000E+00    1.015200E+08  0.05000  1.700E-03    0   0.7096   age116_m72            0.0000     1.2813E-05    12.0065   1.8536    96.6300
 59      4.5367     1.7170E-01    2.2112E-01    2.861200E+08  0.05000  7.384E-04    0   0.6633   age125_m72            0.0000     1.0362E-05    10.3095   1.2670   103.3830
 60     16.1263     1.1800E+00    1.4599E+00    5.088000E+08  0.05000  3.819E-04    0   0.6372   age130_m72            0.0000     9.3302E-06    10.0878   0.7458   106.0015
 61      9.2920     1.5494E+00    1.8380E+00    9.047900E+08  0.05000  1.676E-04    0   0.6110   age135_m72            0.0000     9.3346E-06    10.5923   0.0242   104.8356
 62      4.3965     1.3903E+00    1.5857E+00    1.434000E+09  0.05000  8.837E-05    0   0.5874   age139_m72            0.0000     9.5712E-06    10.5688  -0.4346   104.2343
 63      0.3627     2.3947E-01    2.6028E-01    2.500000E+09  0.05000  4.233E-05    0   0.5598   age150_m72            0.0000     9.8692E-06    11.0347  -0.7783   103.9334
 64      0.0000     0.0000E+00    0.0000E+00    6.250000E+09  0.05000  1.435E-05    0   0.5249   age166_m72            0.0000     1.1582E-05    11.3802  -1.0000    96.9942
 65      0.0000     0.0000E+00    0.0000E+00    1.300000E+10  0.05000  6.513E-06    0   0.5036   age193_m72            0.0000     1.6914E-05    14.6836  -1.0000    90.6669
 66      0.0000     0.0000E+00    0.0000E+00    1.800000E+10  0.05000  4.527E-06    0   0.4945   age213_m72            0.0000     2.1544E-05    17.2037  -1.0000    86.0958


## Synthesis Results - Average & Chains ##

# j      x_j: min, <> & last-chain-values for 1 ...  7 chains
  1      0.0000      0.1567      0.5391      0.0000      0.3324      0.0000      0.4807      0.4597      0.4472
  2      0.0000      0.1498      0.0000      0.9203      0.1913      0.1225      0.1292      0.7508      0.0000
  3      0.0161      0.1921      0.1304      0.0000      0.5945      0.0728      0.0000      0.0000      0.7382
  4      0.0000      0.1448      0.2397      0.1071      0.1244      0.3424      0.0000      0.0000      0.0000
  5      0.5820      0.1777      0.5853      0.1850      0.4441      0.3138      0.4864      0.0000      0.0000
  6      0.0000      0.2185      0.4234      0.2681      0.9413      0.0904      0.7138      0.0000      0.0000
  7      0.0000      0.1680      0.2363      0.0000      1.3342      0.2423      0.3005      0.1377      0.0000
  8      0.0000      0.2072      0.2551      1.1942      0.0000      0.0000      0.5607      0.1578      0.4417
  9      0.6381      0.2051      0.0000      0.3419      0.3849      0.4939      0.0000      0.1781      0.0000
 10      0.0000      0.2091      0.0065      0.0000      0.0051      0.0000      0.3824      0.7312      0.2661
 11      0.0000      0.2856      0.5101      0.1613      1.0072      0.5728      2.2056      0.2512      0.0000
 12      0.0000      0.1867      0.0000      0.0000      0.7998      0.0000      0.7743      0.7921      0.0503
 13      0.0000      0.1984      0.8333      0.8918      0.3998      0.9335      0.0000      0.0000      0.0299
 14      1.7941      0.1895      0.0000      1.4569      0.4462      0.0716      0.0000      0.8189      0.6541
 15      1.0368      0.1844      0.4997      0.4759      0.3023      0.0618      0.3290      0.0000      0.0000
 16      0.0000      0.1893      0.0583      0.7335      0.5981      0.4321      0.0000      0.6369      0.1655
 17      0.0000      0.2197      0.9761      0.1805      0.1791      0.2458      0.3846      0.0000      0.5173
 18      0.0000      0.1854      0.0000      0.1960      0.6498      0.0000      0.1229      1.1804      0.2362
 19      0.0000      0.1851      0.3069      0.0401      0.3732      0.0000      0.5948      0.0000      0.5178
 20      0.0000      0.1590      0.2666      0.3316      0.0753      0.0000      0.3287      0.0000      0.0000
 21      0.0000      0.1879      0.0000      0.1225      0.1460      0.5223      0.0000      0.8298      0.0000
 22      1.9835      0.1756      0.0000      0.0000      0.5786      1.3215      0.0000      0.0000      0.0000
 23      0.0000      0.2505      0.0847      0.4430      0.6990      0.5247      1.6628      0.5534      0.2953
 24      0.0000      0.1792      0.0986      0.0956      0.8086      0.3125      1.3607      0.2189      0.0000
 25      0.1283      0.2125      0.1988      1.0381      0.7590      1.0711      0.0868      0.2072      0.0000
 26      0.0000      0.1804      0.1242      0.3762      0.0835      0.5603      0.7751      0.3267      0.1789
 27      2.9141      0.2929      0.7732      0.0000      0.3269      0.2380      0.9277      0.1671      1.0193
 28      0.0000      0.2094      1.1462      0.1613      0.1099      0.0000      0.1055      0.0000      0.3366
 29      3.2271      0.1881      0.1481      0.0978      0.2466      0.0421      0.8818      0.0566      0.4024
 30      0.0000      0.1989      0.0000      0.6588      0.0434      0.1488      0.2744      0.4152      0.4995
 31      0.0000      0.1675      0.1952      0.0000      0.2380      0.0000      0.0000      0.0000      0.2584
 32      0.0000      0.1787      0.2450      0.7356      1.2622      0.5440      0.5547      0.7532      1.0743
 33      0.0000      0.2233      0.0000      1.4762      1.0412      0.5849      0.6001      1.2696      0.5014
 34      0.0000      0.1851      0.6710      0.2741      0.1669      0.7155      0.6579      0.0000      0.3029
 35      0.0000      0.1486      0.0000      0.4772      0.0000      0.2582      0.1954      0.3347      0.0000
 36      0.0000      0.2032      0.0000      1.4621      0.6977      0.0000      0.0000      0.0000      0.4540
 37      0.0000      0.1856      0.0000      0.4632      0.1987      0.6678      1.5780      0.0368      0.5693
 38      0.0000      0.2236      0.4912      0.4605      0.0000      0.0494      0.0896      0.2736      0.0207
 39      0.0000      0.2261      0.8064      0.1895      0.1483      0.0000      0.4168      0.2142      0.0567
 40      0.0000      0.2218      0.0760      2.8874      0.2462      0.2054      0.0000      0.1227      0.0795
 41      0.0000      0.2397      0.1742      0.0000      1.2866      0.8703      0.5304      0.0000      0.6943
 42      1.0315      0.2080      0.0000      0.4479      0.7246      0.0326      0.0000      0.0694      0.4825
 43      0.0000      0.2241      0.8738      0.5581      0.0000      0.0000      0.3530      0.2244      0.7513
 44      0.0000      0.1906      0.7251      0.3419      0.0000      0.1962      0.1727      0.2285      0.2753
 45     23.4245      0.2211      1.4036      0.2027      0.2980      0.2320      0.0247      0.0000      0.7231
 46      0.0000      0.2089      0.4200      0.6705      0.6039      0.2387      0.4499      0.4018      0.0000
