###################################################################
## OUTPUT of StarlightChains_v04.for    [Cid@UFSC - 01/Apr/2007] ##
###################################################################

## Some input info
KUG0210-078._32_29.txt                   [arq_obs]
Base.CB07.vall.4m                        [arq_base]
Masks.EmLines.NEW.gm                     [arq_masks]
StCv04.C11.config                        [arq_config]
   66                                    [N_base]
    0                                    [N_YAV_components = # of components with extra extinction!]
    0                                    [i_FitPowerLaw (1/0 = Yes/No)]
-9.99                                    [alpha_PowerLaw]
CCM                                      [red_law_option]
 1.458241                                [q_norm = A(l_norm)/A(V)]

## (Re)Sampling Parameters
 3741.00                                 [l_ini (A)]
 7218.00                                 [l_fin (A)]
    1.00                                 [dl    (A)]     (OBS: dl_cushion =    50.00 A)

## Normalization info
 4020.00                                 [l_norm (A) - for base]
 4010.00                                 [llow_norm (A) - window for f_obs]
 4060.00                                 [lupp_norm (A) - window for f_obs]
4.025409E-17                             [fobs_norm (in input units)]

## S/N
 3691.00                                 [llow_SN (A) - window for S/N]
 7268.00                                 [lupp_SN (A) - window for S/N]
   3.358                                 [S/N in S/N window]
   2.276                                 [S/N in norm. window]
   0.121                                 [S/N_err in S/N window]
   0.082                                 [S/N_err in norm. window]
  1.0000                                 [fscale_chi2]

## etc...
    -2007477                             [idum_orig]
  2430                                   [NOl_eff]
  1940                                   [Nl_eff]
   490    NSIGMA                         [Ntot_cliped & clip_method]
 10174080                                [Nglobal_steps]
   7                                     [N_chains]
   9                                     [NEX0s_base = N_base in EX0s-fits]
 0   0   1        0   2.0   3.979E+04    [Clip-Bug, RC-Crash & Burn-In warning-flags, n_censored_weights, wei_nsig_threshold & wei_limit]
    79     78.369     77.387      0.981  [idt_all, wdt_TotTime, wdt_UsrTime & wdt_SysTime (sec)]

## Synthesis Results - Best model ##

 2.08331E-04                             [chi2/Nl_eff]
     8.61253                             [adev (%)]

   119.47617                             [sum-of-x (%)]
 2.76447E-17                             [Flux_tot (units of input spectrum!)]
 3.88050E-12                             [Mini_tot (???)]
 1.94529E-12                             [Mcor_tot (???)]

 -63.68                                  [v0_min  (km/s)]
 217.88                                  [vd_min  (km/s)]
-0.4123                                  [AV_min  (mag)]
 0.0000                                  [YAV_min (mag)]

# j     x_j(%)      Mini_j(%)     Mcor_j(%)     age_j(yr)     Z_j      (L/M)_j    YAV?  Mstars   component_j        a/Fe...       SSP_chi2r SSP_adev(%)   SSP_AV   SSP_x(%)
  1      0.0000     0.0000E+00    0.0000E+00    1.000000E+06  0.00400  1.094E-02    0   1.0000   age020_m42            0.0000     4.0383E-04    11.1353   3.7044   113.0255
  2      0.0000     0.0000E+00    0.0000E+00    3.160000E+06  0.00400  4.007E-02    0   0.9999   age045_m42            0.0000     4.5515E-04    12.1857   3.0814   115.0512
  3      0.0000     0.0000E+00    0.0000E+00    5.010000E+06  0.00400  2.539E-02    0   0.9488   age055_m42            0.0000     4.2892E-04    11.7033   3.3496   114.9951
  4      0.0000     0.0000E+00    0.0000E+00    6.610000E+06  0.00400  2.620E-02    0   0.9220   age061_m42            0.0000     4.5941E-04    12.3502   3.0074   115.2916
  5      0.0000     0.0000E+00    0.0000E+00    1.000000E+07  0.00400  1.322E-02    0   0.8862   age070_m42            0.0000     5.3179E-04    13.8971   2.7443   116.5839
  6      0.0000     0.0000E+00    0.0000E+00    1.445000E+07  0.00400  7.883E-03    0   0.8571   age078_m42            0.0000     4.9688E-04    13.2344   3.0266   116.0513
  7      0.0000     0.0000E+00    0.0000E+00    2.512000E+07  0.00400  5.251E-03    0   0.8174   age090_m42            0.0000     5.4834E-04    14.2481   2.6187   116.9454
  8      0.0000     0.0000E+00    0.0000E+00    4.000000E+07  0.00400  3.649E-03    0   0.7851   age104_m42            0.0000     5.4751E-04    14.2619   2.4058   117.1052
  9      0.0000     0.0000E+00    0.0000E+00    5.500000E+07  0.00400  3.098E-03    0   0.7629   age110_m42            0.0000     5.2523E-04    13.7476   2.5698   116.5614
 10      0.0000     0.0000E+00    0.0000E+00    1.015200E+08  0.00400  2.228E-03    0   0.7207   age116_m42            0.0000     5.1383E-04    13.4929   2.6031   116.1382
 11      0.0000     0.0000E+00    0.0000E+00    2.861200E+08  0.00400  1.093E-03    0   0.6648   age125_m42            0.0000     5.6902E-04    14.5412   2.0828   116.8622
 12      0.0000     0.0000E+00    0.0000E+00    5.088000E+08  0.00400  6.597E-04    0   0.6365   age130_m42            0.0000     5.3973E-04    13.9855   2.0879   117.1191
 13      0.0000     0.0000E+00    0.0000E+00    1.434000E+09  0.00400  2.132E-04    0   0.5798   age139_m42            0.0000     4.9913E-04    13.7702   1.1388   118.3683
 14      0.0000     0.0000E+00    0.0000E+00    4.250000E+09  0.00400  5.895E-05    0   0.5377   age158_m42            0.0000     3.8772E-04    11.8961   0.6301   117.7269
 15      0.0000     0.0000E+00    0.0000E+00    7.500000E+09  0.00400  3.510E-05    0   0.5212   age171_m42            0.0000     3.6100E-04    11.3970   0.4351   117.3663
 16      0.0000     0.0000E+00    0.0000E+00    1.300000E+10  0.00400  2.005E-05    0   0.5034   age193_m42            0.0000     3.4779E-04    11.0608   0.2721   116.6034
 17      0.0000     0.0000E+00    0.0000E+00    1.800000E+10  0.00400  1.525E-05    0   0.4967   age213_m42            0.0000     3.4318E-04    11.0514   0.2427   116.5180
 18      0.0000     0.0000E+00    0.0000E+00    1.000000E+06  0.00800  1.238E-02    0   1.0000   age020_m52            0.0000     4.0380E-04    11.1377   3.7026   113.1598
 19      0.0000     0.0000E+00    0.0000E+00    3.160000E+06  0.00800  3.074E-02    0   0.9966   age045_m52            0.0000     4.0169E-04    11.1238   3.6282   114.0281
 20      0.0000     0.0000E+00    0.0000E+00    5.010000E+06  0.00800  2.668E-02    0   0.9443   age055_m52            0.0000     4.2029E-04    11.5717   3.4153   114.8674
 21      0.0000     0.0000E+00    0.0000E+00    6.610000E+06  0.00800  2.136E-02    0   0.9177   age061_m52            0.0000     5.0888E-04    13.7202   2.2505   117.6667
 22      0.0000     0.0000E+00    0.0000E+00    1.000000E+07  0.00800  1.215E-02    0   0.8827   age070_m52            0.0000     5.4141E-04    14.1179   2.9106   117.0495
 23      0.0000     0.0000E+00    0.0000E+00    1.445000E+07  0.00800  8.717E-03    0   0.8552   age078_m52            0.0000     5.0875E-04    13.4814   3.0097   116.7038
 24      0.0000     0.0000E+00    0.0000E+00    2.512000E+07  0.00800  5.592E-03    0   0.8162   age090_m52            0.0000     5.5470E-04    14.4108   2.6926   117.8112
 25      0.0000     0.0000E+00    0.0000E+00    4.000000E+07  0.00800  3.896E-03    0   0.7841   age104_m52            0.0000     5.4441E-04    14.2366   2.6150   118.1491
 26      0.0000     0.0000E+00    0.0000E+00    1.015200E+08  0.00800  2.148E-03    0   0.7226   age116_m52            0.0000     5.1999E-04    13.7532   2.5661   117.3405
 27      0.0000     0.0000E+00    0.0000E+00    2.861200E+08  0.00800  9.925E-04    0   0.6683   age125_m52            0.0000     5.3858E-04    14.0448   2.1573   117.9953
 28      0.0000     0.0000E+00    0.0000E+00    9.047900E+08  0.00800  3.141E-04    0   0.6138   age135_m52            0.0000     4.8422E-04    13.4764   1.3982   120.8827
 29      0.0000     0.0000E+00    0.0000E+00    1.434000E+09  0.00800  1.719E-04    0   0.5853   age139_m52            0.0000     4.3023E-04    12.7941   0.7842   120.5303
 30      0.0000     0.0000E+00    0.0000E+00    2.500000E+09  0.00800  7.872E-05    0   0.5600   age150_m52            0.0000     3.5674E-04    11.4659   0.4827   119.1837
 31      0.0000     0.0000E+00    0.0000E+00    4.250000E+09  0.00800  4.336E-05    0   0.5426   age158_m52            0.0000     3.4620E-04    11.2517   0.4528   118.8389
 32      0.0000     0.0000E+00    0.0000E+00    6.250000E+09  0.00800  3.159E-05    0   0.5319   age166_m52            0.0000     3.1909E-04    10.7475   0.2516   118.8864
 33      0.0000     0.0000E+00    0.0000E+00    1.300000E+10  0.00800  1.361E-05    0   0.5073   age193_m52            0.0000     2.8737E-04    10.2428  -0.2103   117.9061
 34      0.0000     0.0000E+00    0.0000E+00    1.800000E+10  0.00800  9.886E-06    0   0.4990   age213_m52            0.0000     2.6071E-04     9.6511  -0.3236   117.7191
 35      0.0000     0.0000E+00    0.0000E+00    1.000000E+06  0.02000  1.544E-02    0   1.0000   age020_m62            0.0000     4.0427E-04    11.1411   3.6996   113.3916
 36      0.0000     0.0000E+00    0.0000E+00    3.160000E+06  0.02000  3.762E-02    0   0.9858   age045_m62            0.0000     4.0310E-04    11.0992   3.6387   114.3471
 37      0.0000     0.0000E+00    0.0000E+00    5.010000E+06  0.02000  3.296E-02    0   0.9342   age055_m62            0.0000     4.3380E-04    11.7642   3.3304   115.2824
 38      0.0000     0.0000E+00    0.0000E+00    8.710000E+06  0.02000  1.154E-02    0   0.8861   age067_m62            0.0000     7.1547E-04    17.1751   2.3770   119.3229
 39      0.0000     0.0000E+00    0.0000E+00    1.445000E+07  0.02000  7.663E-03    0   0.8472   age078_m62            0.0000     5.9389E-04    15.1601   2.5780   118.5529
 40      0.0000     0.0000E+00    0.0000E+00    2.512000E+07  0.02000  4.532E-03    0   0.8099   age090_m62            0.0000     6.0294E-04    15.3654   2.5707   118.2378
 41      0.0000     0.0000E+00    0.0000E+00    5.500000E+07  0.02000  2.733E-03    0   0.7595   age110_m62            0.0000     5.3840E-04    14.1820   2.5958   117.4741
 42      0.0000     0.0000E+00    0.0000E+00    1.609000E+08  0.02000  1.369E-03    0   0.6985   age120_m62            0.0000     5.3782E-04    14.0474   2.4871   117.7615
 43      0.0000     0.0000E+00    0.0000E+00    2.861200E+08  0.02000  9.013E-04    0   0.6714   age125_m62            0.0000     5.4303E-04    14.1331   2.2742   119.0036
 44      0.0000     0.0000E+00    0.0000E+00    5.088000E+08  0.02000  5.028E-04    0   0.6449   age130_m62            0.0000     5.0204E-04    13.4286   1.9253   120.6723
 45      0.0000     0.0000E+00    0.0000E+00    9.047900E+08  0.02000  2.428E-04    0   0.6179   age135_m62            0.0000     4.2215E-04    12.4650   1.3155   121.5773
 46      0.0000     0.0000E+00    0.0000E+00    1.434000E+09  0.02000  1.263E-04    0   0.5908   age139_m62            0.0000     3.7773E-04    11.8542   0.8477   121.1781
 47      0.0000     0.0000E+00    0.0000E+00    2.500000E+09  0.02000  5.985E-05    0   0.5673   age150_m62            0.0000     3.2404E-04    10.9419   0.4675   120.4905
 48      0.0000     0.0000E+00    0.0000E+00    4.250000E+09  0.02000  3.271E-05    0   0.5468   age158_m62            0.0000     2.8065E-04    10.1386   0.1553   120.0204
 49      0.0000     0.0000E+00    0.0000E+00    1.000000E+10  0.02000  1.360E-05    0   0.5167   age181_m62            0.0000     2.3746E-04     9.3312  -0.1978   119.9713
 50    119.4762     1.0000E+02    1.0000E+02    1.800000E+10  0.02000  7.124E-06    0   0.5013   age213_m62            0.0000     2.0831E-04     8.6100  -0.4124   119.4828
 51      0.0000     0.0000E+00    0.0000E+00    1.000000E+06  0.05000  2.592E-02    0   0.9998   age020_m72            0.0000     4.0301E-04    11.1262   3.6854   113.7509
 52      0.0000     0.0000E+00    0.0000E+00    3.160000E+06  0.05000  4.845E-02    0   0.9577   age045_m72            0.0000     4.0631E-04    11.1986   3.5410   114.8251
 53      0.0000     0.0000E+00    0.0000E+00    5.010000E+06  0.05000  3.072E-02    0   0.9147   age055_m72            0.0000     5.0619E-04    13.4731   3.1208   116.7600
 54      0.0000     0.0000E+00    0.0000E+00    6.610000E+06  0.05000  1.455E-02    0   0.8877   age061_m72            0.0000     8.0879E-04    18.5995   2.4487   119.7205
 55      0.0000     0.0000E+00    0.0000E+00    1.000000E+07  0.05000  9.074E-03    0   0.8524   age070_m72            0.0000     5.0391E-04    13.3375   3.3148   116.3815
 56      0.0000     0.0000E+00    0.0000E+00    2.512000E+07  0.05000  4.250E-03    0   0.7902   age090_m72            0.0000     5.3364E-04    13.9779   3.0348   116.9107
 57      0.0000     0.0000E+00    0.0000E+00    4.000000E+07  0.05000  3.087E-03    0   0.7618   age104_m72            0.0000     5.6517E-04    14.5923   2.8352   117.2616
 58      0.0000     0.0000E+00    0.0000E+00    1.015200E+08  0.05000  1.700E-03    0   0.7096   age116_m72            0.0000     5.5784E-04    14.3796   2.6215   117.7395
 59      0.0000     0.0000E+00    0.0000E+00    2.861200E+08  0.05000  7.384E-04    0   0.6633   age125_m72            0.0000     5.1266E-04    13.7306   2.1537   120.0545
 60      0.0000     0.0000E+00    0.0000E+00    5.088000E+08  0.05000  3.819E-04    0   0.6372   age130_m72            0.0000     4.5073E-04    12.8676   1.6695   121.6774
 61      0.0000     0.0000E+00    0.0000E+00    9.047900E+08  0.05000  1.676E-04    0   0.6110   age135_m72            0.0000     3.3919E-04    11.1478   0.9290   122.3535
 62      0.0000     0.0000E+00    0.0000E+00    1.434000E+09  0.05000  8.837E-05    0   0.5874   age139_m72            0.0000     3.1715E-04    10.8263   0.4694   122.1320
 63      0.0000     0.0000E+00    0.0000E+00    2.500000E+09  0.05000  4.233E-05    0   0.5598   age150_m72            0.0000     2.6563E-04     9.8458   0.1535   121.1629
 64      0.0000     0.0000E+00    0.0000E+00    6.250000E+09  0.05000  1.435E-05    0   0.5249   age166_m72            0.0000     2.2445E-04     9.0444  -0.2959   119.6603
 65      0.0000     0.0000E+00    0.0000E+00    1.300000E+10  0.05000  6.513E-06    0   0.5036   age193_m72            0.0000     1.9580E-04     8.2137  -0.5809   121.3266
 66      0.0000     0.0000E+00    0.0000E+00    1.800000E+10  0.05000  4.527E-06    0   0.4945   age213_m72            0.0000     1.8151E-04     7.6630  -0.7489   121.6043


## Synthesis Results - Average & Chains ##

# j      x_j: min, <> & last-chain-values for 1 ...  7 chains
  1      0.0000      0.3022      0.0227      0.0229      0.0194      0.0000      0.0184      0.0000      0.0416
  2      0.0000      0.4221      0.0285      0.0006      0.0060      0.0362      0.0224      0.0207      0.0000
  3      0.0000      0.3909      0.0774      0.0322      0.0000      0.0024      0.0149      0.0625      0.0000
  4      0.0000      0.2984      0.0000      0.0191      0.0000      0.0003      0.0195      0.0971      0.0069
  5      0.0000      0.3674      0.0926      0.0067      0.1243      0.1430      0.0000      0.0000      0.0305
  6      0.0000      0.3209      0.1696      0.0251      0.0307      0.0087      0.0000      0.1298      0.0373
  7      0.0000      0.3943      0.0041      0.1354      0.0000      0.1273      0.0228      0.0584      0.0763
  8      0.0000      0.3361      0.0356      0.0405      0.0180      0.0010      0.0000      0.0021      0.0360
  9      0.0000      0.3124      0.0000      0.0000      0.0229      0.0095      0.0000      0.0836      0.0208
 10      0.0000      0.3771      0.0034      0.0500      0.0387      0.0000      0.0010      0.0105      0.0260
 11      0.0000      0.3270      0.0070      0.0521      0.0448      0.0652      0.0121      0.0000      0.0478
 12      0.0000      0.4614      0.0000      0.0000      0.0007      0.0007      0.0000      0.0293      0.2054
 13      0.0000      0.4681      0.0859      0.0003      0.0000      0.0231      0.0223      0.1043      0.0548
 14      0.0000      0.3089      0.0190      0.0000      0.0290      0.0000      0.0000      0.0558      0.0892
 15      0.0000      0.3382      0.0215      0.0000      0.0000      0.0188      0.0261      0.0455      0.0120
 16      0.0000      0.3556      0.0000      0.0036      0.0148      0.0276      0.0497      0.0806      0.0691
 17      0.0000      0.3742      0.0000      0.0035      0.0222      0.0288      0.0289      0.0392      0.0140
 18      0.0000      0.3293      0.0026      0.0000      0.0211      0.0139      0.0048      0.0000      0.0149
 19      0.0000      0.3822      0.0212      0.0355      0.0000      0.0000      0.0389      0.0000      0.0144
 20      0.0000      0.2877      0.1101      0.0219      0.0038      0.0078      0.0635      0.0000      0.0529
 21      0.0000      0.3145      0.0067      0.0000      0.0022      0.0088      0.0000      0.0452      0.0504
 22      0.0000      0.2873      0.0000      0.0066      0.0046      0.1051      0.0638      0.0102      0.0265
 23      0.0000      0.3671      0.2134      0.0000      0.0661      0.0127      0.0567      0.0353      0.0159
 24      0.0000      0.4406      0.0849      0.0000      0.0156      0.0438      0.0000      0.0171      0.0426
 25      0.0000      0.3276      0.0623      0.0062      0.0209      0.0359      0.0768      0.0972      0.0000
 26      0.0000      0.4078      0.0083      0.0560      0.0000      0.0873      0.0000      0.0489      0.0264
 27      0.0000      0.2944      0.0184      0.0000      0.0000      0.0567      0.0405      0.0602      0.0399
 28      0.0000      2.5323      4.1485      0.5790      2.1755      2.7840      5.7561      1.8160      2.6737
 29      0.0000      0.3637      0.0000      0.0675      0.0000      0.0345      0.0000      0.0135      0.0021
 30      0.0000      0.2799      0.0127      0.0025      0.0079      0.0154      0.0173      0.0150      0.0000
 31      0.0000      0.3996      0.0532      0.0000      0.0803      0.0685      0.0000      0.0002      0.0000
 32      0.0000      0.5052      0.1241      0.0461      0.0377      0.0000      0.0615      0.0418      0.0487
 33      0.0000      0.3354      0.0000      0.0485      0.0309      0.0032      0.0610      0.0280      0.0178
 34      0.0000      0.2688      0.1003      0.0245      0.0560      0.1011      0.0028      0.0283      0.0238
 35      0.0000      0.3550      0.0253      0.0000      0.0110      0.0074      0.0766      0.0000      0.0151
 36      0.0000      0.2806      0.0000      0.0614      0.0000      0.0209      0.0000      0.0088      0.0440
 37      0.0000      0.3855      0.0000      0.0000      0.0015      0.0772      0.0737      0.0081      0.0615
 38      0.0000      0.3535      0.1194      0.0173      0.1833      0.0014      0.0294      0.0057      0.0237
 39      0.0000      0.3032      0.0710      0.0362      0.0176      0.0000      0.0394      0.0000      0.0706
 40      0.0000      0.4185      0.0248      0.0000      0.0350      0.0775      0.0707      0.0871      0.0822
 41      0.0000      0.3377      0.0000      0.0903      0.0000      0.0319      0.0437      0.0000      0.0526
 42      0.0000      0.4048      0.0000      0.0071      0.0000      0.0000      0.0000      0.0441      0.0356
 43      0.0000      0.3869      0.1404      0.0555      0.0590      0.0227      0.0245      0.0244      0.0831
 44      0.0000      7.9884      9.7665     11.0085     10.4171      7.7766     10.5172      9.9230      8.5236
 45      0.0000     17.0258     22.5970     29.0168     22.7367     15.0487     10.8560     22.4347     23.6108
 46      0.0000      0.3433      0.0214      0.0000      0.0492      0.0000      0.0000      0.0258      0.0201
