###################################################################
## OUTPUT of StarlightChains_v04.for    [Cid@UFSC - 01/Apr/2007] ##
###################################################################

## Some input info
KUG0210-078._28_30.txt                   [arq_obs]
Base.CB07.vall.4m                        [arq_base]
Masks.EmLines.NEW.gm                     [arq_masks]
StCv04.C11.config                        [arq_config]
   66                                    [N_base]
    0                                    [N_YAV_components = # of components with extra extinction!]
    0                                    [i_FitPowerLaw (1/0 = Yes/No)]
-9.99                                    [alpha_PowerLaw]
CCM                                      [red_law_option]
 1.458241                                [q_norm = A(l_norm)/A(V)]

## (Re)Sampling Parameters
 3741.00                                 [l_ini (A)]
 7218.00                                 [l_fin (A)]
    1.00                                 [dl    (A)]     (OBS: dl_cushion =    50.00 A)

## Normalization info
 4020.00                                 [l_norm (A) - for base]
 4010.00                                 [llow_norm (A) - window for f_obs]
 4060.00                                 [lupp_norm (A) - window for f_obs]
4.338516E-17                             [fobs_norm (in input units)]

## S/N
 3691.00                                 [llow_SN (A) - window for S/N]
 7268.00                                 [lupp_SN (A) - window for S/N]
   6.138                                 [S/N in S/N window]
   8.070                                 [S/N in norm. window]
   0.057                                 [S/N_err in S/N window]
   0.075                                 [S/N_err in norm. window]
  1.0000                                 [fscale_chi2]

## etc...
    -2007378                             [idum_orig]
  2431                                   [NOl_eff]
  1941                                   [Nl_eff]
   490    NSIGMA                         [Ntot_cliped & clip_method]
 15193220                                [Nglobal_steps]
   7                                     [N_chains]
  14                                     [NEX0s_base = N_base in EX0s-fits]
 0   0   1        0   2.0   4.288E+04    [Clip-Bug, RC-Crash & Burn-In warning-flags, n_censored_weights, wei_nsig_threshold & wei_limit]
   107    106.238    105.528      0.709  [idt_all, wdt_TotTime, wdt_UsrTime & wdt_SysTime (sec)]

## Synthesis Results - Best model ##

 5.09851E-05                             [chi2/Nl_eff]
     8.17783                             [adev (%)]

    82.24728                             [sum-of-x (%)]
 3.48023E-17                             [Flux_tot (units of input spectrum!)]
 1.05020E-12                             [Mini_tot (???)]
 5.30932E-13                             [Mcor_tot (???)]

 194.66                                  [v0_min  (km/s)]
 214.78                                  [vd_min  (km/s)]
-0.0186                                  [AV_min  (mag)]
 0.0000                                  [YAV_min (mag)]

# j     x_j(%)      Mini_j(%)     Mcor_j(%)     age_j(yr)     Z_j      (L/M)_j    YAV?  Mstars   component_j        a/Fe...       SSP_chi2r SSP_adev(%)   SSP_AV   SSP_x(%)
  1      0.0000     0.0000E+00    0.0000E+00    1.000000E+06  0.00400  1.094E-02    0   1.0000   age020_m42            0.0000     7.8042E-05    11.1604   3.2195    64.2022
  2      0.0000     0.0000E+00    0.0000E+00    3.160000E+06  0.00400  4.007E-02    0   0.9999   age045_m42            0.0000     6.5307E-05    10.1491   2.4044    71.3142
  3      0.0000     0.0000E+00    0.0000E+00    5.010000E+06  0.00400  2.539E-02    0   0.9488   age055_m42            0.0000     6.9284E-05    10.4808   2.7621    68.4358
  4      0.0000     0.0000E+00    0.0000E+00    6.610000E+06  0.00400  2.620E-02    0   0.9220   age061_m42            0.0000     6.4639E-05     9.9074   2.3208    71.7830
  5      0.0000     0.0000E+00    0.0000E+00    1.000000E+07  0.00400  1.322E-02    0   0.8862   age070_m42            0.0000     6.1554E-05     9.5023   2.0628    72.7002
  6      0.0000     0.0000E+00    0.0000E+00    1.445000E+07  0.00400  7.883E-03    0   0.8571   age078_m42            0.0000     6.4997E-05     9.8593   2.4145    70.0516
  7      0.0000     0.0000E+00    0.0000E+00    2.512000E+07  0.00400  5.251E-03    0   0.8174   age090_m42            0.0000     6.0471E-05     9.3994   1.9312    73.1839
  8      0.0000     0.0000E+00    0.0000E+00    4.000000E+07  0.00400  3.649E-03    0   0.7851   age104_m42            0.0000     5.8381E-05     9.1814   1.6850    74.4091
  9      0.0000     0.0000E+00    0.0000E+00    5.500000E+07  0.00400  3.098E-03    0   0.7629   age110_m42            0.0000     5.8658E-05     9.0938   1.8070    75.3390
 10      0.0000     0.0000E+00    0.0000E+00    1.015200E+08  0.00400  2.228E-03    0   0.7207   age116_m42            0.0000     6.0688E-05     9.1033   1.8033    76.2292
 11      0.0000     0.0000E+00    0.0000E+00    2.861200E+08  0.00400  1.093E-03    0   0.6648   age125_m42            0.0000     5.7577E-05     8.4815   1.2173    79.1969
 12      0.3303     2.0175E-02    2.5400E-02    5.088000E+08  0.00400  6.597E-04    0   0.6365   age130_m42            0.0000     6.1068E-05     8.5705   1.1752    80.9097
 13     11.0975     2.0973E+00    2.4053E+00    1.434000E+09  0.00400  2.132E-04    0   0.5798   age139_m42            0.0000     5.3595E-05     8.1638   0.1853    83.3607
 14      4.2384     2.8969E+00    3.0811E+00    4.250000E+09  0.00400  5.895E-05    0   0.5377   age158_m42            0.0000     5.1855E-05     8.6074  -0.2027    78.2872
 15      0.0000     0.0000E+00    0.0000E+00    7.500000E+09  0.00400  3.510E-05    0   0.5212   age171_m42            0.0000     5.2437E-05     8.6605  -0.3982    77.9701
 16     27.1018     5.4463E+01    5.4231E+01    1.300000E+10  0.00400  2.005E-05    0   0.5034   age193_m42            0.0000     5.4246E-05     8.7963  -0.5726    77.8459
 17      0.0000     0.0000E+00    0.0000E+00    1.800000E+10  0.00400  1.525E-05    0   0.4967   age213_m42            0.0000     5.3915E-05     8.7566  -0.5855    77.1913
 18      0.0000     0.0000E+00    0.0000E+00    1.000000E+06  0.00800  1.238E-02    0   1.0000   age020_m52            0.0000     7.7925E-05    11.1656   3.2154    64.3471
 19      0.0000     0.0000E+00    0.0000E+00    3.160000E+06  0.00800  3.074E-02    0   0.9966   age045_m52            0.0000     7.6665E-05    11.0871   3.1303    65.1617
 20      0.0000     0.0000E+00    0.0000E+00    5.010000E+06  0.00800  2.668E-02    0   0.9443   age055_m52            0.0000     7.0896E-05    10.5847   2.8558    67.5263
 21      0.0000     0.0000E+00    0.0000E+00    6.610000E+06  0.00800  2.136E-02    0   0.9177   age061_m52            0.0000     6.0767E-05     9.5361   1.5831    72.9683
 22      0.0000     0.0000E+00    0.0000E+00    1.000000E+07  0.00800  1.215E-02    0   0.8827   age070_m52            0.0000     6.3081E-05     9.6177   2.2669    71.7956
 23      0.0000     0.0000E+00    0.0000E+00    1.445000E+07  0.00800  8.717E-03    0   0.8552   age078_m52            0.0000     6.3689E-05     9.7247   2.3725    71.2884
 24      0.0000     0.0000E+00    0.0000E+00    2.512000E+07  0.00800  5.592E-03    0   0.8162   age090_m52            0.0000     5.9297E-05     9.2526   1.9942    74.1164
 25      0.0000     0.0000E+00    0.0000E+00    4.000000E+07  0.00800  3.896E-03    0   0.7841   age104_m52            0.0000     5.7073E-05     8.9612   1.8846    75.3496
 26      0.0000     0.0000E+00    0.0000E+00    1.015200E+08  0.00800  2.148E-03    0   0.7226   age116_m52            0.0000     5.8318E-05     8.9299   1.7915    76.2052
 27     28.3081     1.1492E+00    1.5191E+00    2.861200E+08  0.00800  9.925E-04    0   0.6683   age125_m52            0.0000     6.0251E-05     8.4833   1.2373    81.7804
 28      0.0000     0.0000E+00    0.0000E+00    9.047900E+08  0.00800  3.141E-04    0   0.6138   age135_m52            0.0000     5.7440E-05     8.2068   0.4287    85.4575
 29      0.0000     0.0000E+00    0.0000E+00    1.434000E+09  0.00800  1.719E-04    0   0.5853   age139_m52            0.0000     5.0716E-05     8.0918  -0.1246    82.9369
 30      0.0000     0.0000E+00    0.0000E+00    2.500000E+09  0.00800  7.872E-05    0   0.5600   age150_m52            0.0000     5.2780E-05     8.5473  -0.3951    80.6042
 31      0.0000     0.0000E+00    0.0000E+00    4.250000E+09  0.00800  4.336E-05    0   0.5426   age158_m52            0.0000     5.2691E-05     8.5762  -0.3994    79.4666
 32      0.0000     0.0000E+00    0.0000E+00    6.250000E+09  0.00800  3.159E-05    0   0.5319   age166_m52            0.0000     5.6621E-05     8.8751  -0.6274    80.2932
 33      0.0000     0.0000E+00    0.0000E+00    1.300000E+10  0.00800  1.361E-05    0   0.5073   age193_m52            0.0000     6.5825E-05     9.8115  -1.0000    77.6733
 34      0.0000     0.0000E+00    0.0000E+00    1.800000E+10  0.00800  9.886E-06    0   0.4990   age213_m52            0.0000     7.8910E-05    10.9552  -1.0000    74.7091
 35      0.0000     0.0000E+00    0.0000E+00    1.000000E+06  0.02000  1.544E-02    0   1.0000   age020_m62            0.0000     7.8570E-05    11.1999   3.2125    64.4749
 36      0.0000     0.0000E+00    0.0000E+00    3.160000E+06  0.02000  3.762E-02    0   0.9858   age045_m62            0.0000     7.8506E-05    11.1659   3.1456    65.2177
 37      0.0000     0.0000E+00    0.0000E+00    5.010000E+06  0.02000  3.296E-02    0   0.9342   age055_m62            0.0000     6.8105E-05    10.3330   2.6940    70.1376
 38      0.0000     0.0000E+00    0.0000E+00    8.710000E+06  0.02000  1.154E-02    0   0.8861   age067_m62            0.0000     7.7122E-05    10.4455   1.7960    71.5584
 39      0.0000     0.0000E+00    0.0000E+00    1.445000E+07  0.02000  7.663E-03    0   0.8472   age078_m62            0.0000     6.2948E-05     9.5427   1.9358    72.8520
 40      0.0000     0.0000E+00    0.0000E+00    2.512000E+07  0.02000  4.532E-03    0   0.8099   age090_m62            0.0000     6.1974E-05     9.4014   1.9202    72.9250
 41      0.0000     0.0000E+00    0.0000E+00    5.500000E+07  0.02000  2.733E-03    0   0.7595   age110_m62            0.0000     5.8318E-05     9.0275   1.8736    74.6454
 42      0.0000     0.0000E+00    0.0000E+00    1.609000E+08  0.02000  1.369E-03    0   0.6985   age120_m62            0.0000     6.0476E-05     8.6940   1.6334    79.2651
 43      0.0000     0.0000E+00    0.0000E+00    2.861200E+08  0.02000  9.013E-04    0   0.6714   age125_m62            0.0000     6.4497E-05     8.5692   1.3310    83.3120
 44      0.0000     0.0000E+00    0.0000E+00    5.088000E+08  0.02000  5.028E-04    0   0.6449   age130_m62            0.0000     6.8056E-05     8.7143   0.9327    86.0776
 45      0.0000     0.0000E+00    0.0000E+00    9.047900E+08  0.02000  2.428E-04    0   0.6179   age135_m62            0.0000     5.7790E-05     8.4533   0.3909    83.9892
 46      0.0000     0.0000E+00    0.0000E+00    1.434000E+09  0.02000  1.263E-04    0   0.5908   age139_m62            0.0000     5.2935E-05     8.4105  -0.0349    82.1595
 47      0.0000     0.0000E+00    0.0000E+00    2.500000E+09  0.02000  5.985E-05    0   0.5673   age150_m62            0.0000     5.5683E-05     8.7918  -0.4097    81.2565
 48      0.0000     0.0000E+00    0.0000E+00    4.250000E+09  0.02000  3.271E-05    0   0.5468   age158_m62            0.0000     6.4943E-05     9.4711  -0.7565    81.9384
 49      0.2055     6.0877E-01    6.2219E-01    1.000000E+10  0.02000  1.360E-05    0   0.5167   age181_m62            0.0000     8.1583E-05    10.5471  -1.0000    79.1369
 50      0.0000     0.0000E+00    0.0000E+00    1.800000E+10  0.02000  7.124E-06    0   0.5013   age213_m62            0.0000     1.0661E-04    12.1758  -1.0000    73.2121
 51      0.0000     0.0000E+00    0.0000E+00    1.000000E+06  0.05000  2.592E-02    0   0.9998   age020_m72            0.0000     7.9795E-05    11.2892   3.2136    64.2358
 52      0.0000     0.0000E+00    0.0000E+00    3.160000E+06  0.05000  4.845E-02    0   0.9577   age045_m72            0.0000     7.4195E-05    10.8734   2.9992    66.9180
 53      0.0000     0.0000E+00    0.0000E+00    5.010000E+06  0.05000  3.072E-02    0   0.9147   age055_m72            0.0000     6.7149E-05     9.9316   2.5410    69.4589
 54      0.0000     0.0000E+00    0.0000E+00    6.610000E+06  0.05000  1.455E-02    0   0.8877   age061_m72            0.0000     8.6328E-05    11.2701   1.8855    71.1733
 55      0.0000     0.0000E+00    0.0000E+00    1.000000E+07  0.05000  9.074E-03    0   0.8524   age070_m72            0.0000     6.7170E-05     9.9684   2.7347    69.2123
 56      0.0000     0.0000E+00    0.0000E+00    2.512000E+07  0.05000  4.250E-03    0   0.7902   age090_m72            0.0000     6.0874E-05     9.3655   2.3821    71.9131
 57      0.0000     0.0000E+00    0.0000E+00    4.000000E+07  0.05000  3.087E-03    0   0.7618   age104_m72            0.0000     5.9245E-05     9.1553   2.1368    73.7233
 58      0.0000     0.0000E+00    0.0000E+00    1.015200E+08  0.05000  1.700E-03    0   0.7096   age116_m72            0.0000     5.9145E-05     8.6617   1.7932    78.4153
 59      0.0000     0.0000E+00    0.0000E+00    2.861200E+08  0.05000  7.384E-04    0   0.6633   age125_m72            0.0000     6.6858E-05     8.4836   1.1899    84.6000
 60      6.6895     7.0577E-01    8.8955E-01    5.088000E+08  0.05000  3.819E-04    0   0.6372   age130_m72            0.0000     6.3955E-05     8.5695   0.7176    85.1263
 61      0.0000     0.0000E+00    0.0000E+00    9.047900E+08  0.05000  1.676E-04    0   0.6110   age135_m72            0.0000     5.8949E-05     8.8290   0.0507    82.5064
 62      0.0000     0.0000E+00    0.0000E+00    1.434000E+09  0.05000  8.837E-05    0   0.5874   age139_m72            0.0000     5.6745E-05     8.7778  -0.4093    82.3843
 63      0.0000     0.0000E+00    0.0000E+00    2.500000E+09  0.05000  4.233E-05    0   0.5598   age150_m72            0.0000     6.7427E-05     9.6470  -0.7570    82.5339
 64      0.0000     0.0000E+00    0.0000E+00    6.250000E+09  0.05000  1.435E-05    0   0.5249   age166_m72            0.0000     8.8736E-05    11.1187  -1.0000    76.3401
 65      0.0000     0.0000E+00    0.0000E+00    1.300000E+10  0.05000  6.513E-06    0   0.5036   age193_m72            0.0000     1.2927E-04    13.6646  -1.0000    69.9252
 66      4.2762     3.8059E+01    3.7227E+01    1.800000E+10  0.05000  4.527E-06    0   0.4945   age213_m72            0.0000     1.5794E-04    15.1200  -1.0000    65.6703


## Synthesis Results - Average & Chains ##

# j      x_j: min, <> & last-chain-values for 1 ...  7 chains
  1      0.0000      0.4077      0.0054      0.0152      0.1612      0.0000      0.1204      0.1079      0.0418
  2      0.0000      0.2707      0.0000      0.1135      0.0000      0.0451      0.0000      0.0606      0.0716
  3      0.0000      0.3038      0.2524      0.0095      0.0572      0.0218      0.1155      0.1111      0.0089
  4      0.0000      0.3903      0.0000      0.0231      0.0000      0.0480      0.1276      0.0000      0.0102
  5      0.0000      0.3939      0.8322      0.0336      0.0000      0.0000      0.0822      0.0117      0.0000
  6      0.0000      0.3013      0.0032      0.0234      0.0000      0.0019      0.1753      0.0000      0.0000
  7      0.0000      0.2761      0.0000      0.0023      0.1021      0.0000      0.1379      0.2565      0.0495
  8      0.0000      0.2852      1.0408      0.0000      0.1837      0.0528      0.0801      0.0000      0.0324
  9      0.0000      0.2268      0.0000      0.0033      0.1732      0.0335      0.2948      0.1915      0.0000
 10      0.0000      0.3548      0.2886      0.0227      0.2264      0.0232      0.0678      0.0000      0.1213
 11      0.0000      0.4701      1.0072      0.1149      0.3069      0.2271      0.2664      0.2170      0.1888
 12      0.3303      1.8539      1.7020      1.8679      2.6034      1.4262      1.9525      2.2284      1.1012
 13     11.0975     20.0913     19.3807     30.9372     24.0658     30.8727     23.1645     18.9701     25.2563
 14      4.2384      4.8564      4.4299      0.3567      3.3232      2.5144      5.2641      5.6542     16.7412
 15      0.0000      0.2821      0.3733      0.0306      0.0529      0.0631      0.2305      0.2455      0.0678
 16     27.1018      3.6638      4.0301      4.1193      4.1375      4.2409      4.0389      4.1023      2.7383
 17      0.0000      1.5279      1.5727      0.1310      1.5612      1.9830      1.7451      1.9018      1.4651
 18      0.0000      0.2524      0.2138      0.0089      0.0308      0.0339      0.0000      0.0576      0.0000
 19      0.0000      0.3002      0.4340      0.0199      0.0331      0.0249      0.0000      0.0040      0.0185
 20      0.0000      0.2604      0.0000      0.0136      0.1247      0.0743      0.1860      0.1380      0.0381
 21      0.0000      0.3314      0.0000      0.0859      0.0894      0.0000      0.0000      0.0000      0.0843
 22      0.0000      0.3934      0.6332      0.0200      0.1874      0.0409      0.4513      0.0000      0.0128
 23      0.0000      0.3367      0.4922      0.0298      0.1440      0.0092      0.1200      0.0000      0.0000
 24      0.0000      0.3393      0.0000      0.0226      0.0000      0.0254      0.0000      0.1356      0.0557
 25      0.0000      0.2607      0.0000      0.0340      0.1502      0.0121      0.0768      0.0000      0.0000
 26      0.0000      0.3205      0.0000      0.0000      0.0800      0.0315      0.1412      0.0000      0.0163
 27     28.3081      1.1443      1.4779      1.7641      1.2597      0.7710      1.2268      1.1408      0.7545
 28      0.0000      5.0535      8.1764      8.7510      5.2062      8.6896      4.9769      3.9754      5.1896
 29      0.0000      0.2515      0.2161      0.0009      0.0020      0.0318      0.0712      0.0000      0.0242
 30      0.0000      0.3374      0.1004      0.0000      0.2012      0.0000      0.0234      0.0000      0.0073
 31      0.0000      0.3760      0.1125      0.0263      0.0262      0.0496      0.0706      0.0850      0.0000
 32      0.0000      0.7382      0.6192      0.0322      1.1779      0.5859      0.5104      0.7770      0.1978
 33      0.0000      0.4043      0.2914      0.0541      0.2126      0.1393      0.1898      0.2684      0.0699
 34      0.0000      0.4991      0.2812      0.0797      0.2614      0.5551      0.2087      0.3519      0.0251
 35      0.0000      0.3235      0.0000      0.0012      0.0337      0.0579      0.1099      0.0000      0.0229
 36      0.0000      0.2879      0.6489      0.0125      0.0423      0.0337      0.1069      0.2554      0.0173
 37      0.0000      0.2967      0.3306      0.0037      0.1644      0.1787      0.1624      0.0000      0.0021
 38      0.0000      0.3180      0.5031      0.0000      0.0648      0.0503      0.0614      0.0890      0.0626
 39      0.0000      0.3442      0.7614      0.0206      0.0000      0.0135      0.1074      0.1268      0.0280
 40      0.0000      0.2576      0.0000      0.0138      0.0000      0.0011      0.0000      0.2190      0.0105
 41      0.0000      0.3330      0.5142      0.0007      0.0855      0.0294      0.0000      0.3558      0.0020
 42      0.0000      0.2984      0.0643      0.0300      0.0000      0.0000      0.0000      0.7365      0.0692
 43      0.0000      0.4481      0.3816      0.0916      0.1976      0.1411      0.1078      0.0000      0.1217
 44      0.0000      2.0888      1.4903      1.9608      2.2536      0.4890      2.0775      2.1942      6.1388
 45      0.0000      8.2496      8.4943      5.9895      8.8553      8.0708      8.8250     14.9828      4.5060
 46      0.0000      0.2881      0.0000      0.0038      0.0000      0.0037      0.0000      0.0000      0.0222
