###################################################################
## OUTPUT of StarlightChains_v04.for    [Cid@UFSC - 01/Apr/2007] ##
###################################################################

## Some input info
KUG0210-078._28_37.txt                   [arq_obs]
Base.CB07.vall.4m                        [arq_base]
Masks.EmLines.NEW.gm                     [arq_masks]
StCv04.C11.config                        [arq_config]
   66                                    [N_base]
    0                                    [N_YAV_components = # of components with extra extinction!]
    0                                    [i_FitPowerLaw (1/0 = Yes/No)]
-9.99                                    [alpha_PowerLaw]
CCM                                      [red_law_option]
 1.458241                                [q_norm = A(l_norm)/A(V)]

## (Re)Sampling Parameters
 3741.00                                 [l_ini (A)]
 7218.00                                 [l_fin (A)]
    1.00                                 [dl    (A)]     (OBS: dl_cushion =    50.00 A)

## Normalization info
 4020.00                                 [l_norm (A) - for base]
 4010.00                                 [llow_norm (A) - window for f_obs]
 4060.00                                 [lupp_norm (A) - window for f_obs]
8.414219E-17                             [fobs_norm (in input units)]

## S/N
 3691.00                                 [llow_SN (A) - window for S/N]
 7268.00                                 [lupp_SN (A) - window for S/N]
   4.208                                 [S/N in S/N window]
   2.714                                 [S/N in norm. window]
   0.249                                 [S/N_err in S/N window]
   0.161                                 [S/N_err in norm. window]
  1.0000                                 [fscale_chi2]

## etc...
    -2007385                             [idum_orig]
  2432                                   [NOl_eff]
  2234                                   [Nl_eff]
   198    NSIGMA                         [Ntot_cliped & clip_method]
 10547600                                [Nglobal_steps]
   7                                     [N_chains]
  28                                     [NEX0s_base = N_base in EX0s-fits]
 0   0   1      198   2.0   5.205E+04    [Clip-Bug, RC-Crash & Burn-In warning-flags, n_censored_weights, wei_nsig_threshold & wei_limit]
   208    100.900    100.333      0.567  [idt_all, wdt_TotTime, wdt_UsrTime & wdt_SysTime (sec)]

## Synthesis Results - Best model ##

 3.33232E-04                             [chi2/Nl_eff]
     4.87863                             [adev (%)]

    94.19932                             [sum-of-x (%)]
 4.71924E-15                             [Flux_tot (units of input spectrum!)]
 1.76343E-11                             [Mini_tot (???)]
 9.16173E-12                             [Mcor_tot (???)]

   0.00                                  [v0_min  (km/s)]
 150.00                                  [vd_min  (km/s)]
 3.0427                                  [AV_min  (mag)]
 0.0000                                  [YAV_min (mag)]

# j     x_j(%)      Mini_j(%)     Mcor_j(%)     age_j(yr)     Z_j      (L/M)_j    YAV?  Mstars   component_j        a/Fe...       SSP_chi2r SSP_adev(%)   SSP_AV   SSP_x(%)
  1     21.8072     5.6630E-01    1.0900E+00    1.000000E+06  0.00400  1.094E-02    0   1.0000   age020_m42            0.0000     7.1120E-04     9.8824   4.0000    97.3347
  2      0.0000     0.0000E+00    0.0000E+00    3.160000E+06  0.00400  4.007E-02    0   0.9999   age045_m42            0.0000     4.3078E-04     5.3249   3.6813    87.5723
  3      0.0000     0.0000E+00    0.0000E+00    5.010000E+06  0.00400  2.539E-02    0   0.9488   age055_m42            0.0000     4.2529E-04     5.4385   3.9828    86.2480
  4      0.0000     0.0000E+00    0.0000E+00    6.610000E+06  0.00400  2.620E-02    0   0.9220   age061_m42            0.0000     4.0706E-04     5.2175   3.5994    88.0456
  5      0.0000     0.0000E+00    0.0000E+00    1.000000E+07  0.00400  1.322E-02    0   0.8862   age070_m42            0.0000     3.4327E-04     4.7106   3.2623    91.9527
  6      0.0000     0.0000E+00    0.0000E+00    1.445000E+07  0.00400  7.883E-03    0   0.8571   age078_m42            0.0000     3.5234E-04     4.9203   3.5816    90.0173
  7     29.0811     1.5734E+00    2.4754E+00    2.512000E+07  0.00400  5.251E-03    0   0.8174   age090_m42            0.0000     3.3764E-04     4.6431   3.1255    92.7090
  8     14.4210     1.1228E+00    1.6967E+00    4.000000E+07  0.00400  3.649E-03    0   0.7851   age104_m42            0.0000     3.4458E-04     4.6391   2.9120    92.8934
  9      0.0000     0.0000E+00    0.0000E+00    5.500000E+07  0.00400  3.098E-03    0   0.7629   age110_m42            0.0000     3.7110E-04     4.7939   3.0948    91.7146
 10      0.0000     0.0000E+00    0.0000E+00    1.015200E+08  0.00400  2.228E-03    0   0.7207   age116_m42            0.0000     3.8512E-04     4.8791   3.1343    91.1189
 11      0.0000     0.0000E+00    0.0000E+00    2.861200E+08  0.00400  1.093E-03    0   0.6648   age125_m42            0.0000     4.0965E-04     5.3347   2.5410    94.4219
 12      0.0000     0.0000E+00    0.0000E+00    5.088000E+08  0.00400  6.597E-04    0   0.6365   age130_m42            0.0000     4.2895E-04     5.2727   2.5684    93.7490
 13      0.0000     0.0000E+00    0.0000E+00    1.434000E+09  0.00400  2.132E-04    0   0.5798   age139_m42            0.0000     4.4260E-04     5.0856   1.6393    94.0131
 14      0.0000     0.0000E+00    0.0000E+00    4.250000E+09  0.00400  5.895E-05    0   0.5377   age158_m42            0.0000     4.7524E-04     5.4722   1.2305    89.4548
 15      0.0000     0.0000E+00    0.0000E+00    7.500000E+09  0.00400  3.510E-05    0   0.5212   age171_m42            0.0000     5.1230E-04     5.8014   1.0578    88.2893
 16      3.2244     4.5687E+01    4.4268E+01    1.300000E+10  0.00400  2.005E-05    0   0.5034   age193_m42            0.0000     5.4633E-04     6.1253   0.9053    87.3171
 17      0.0000     0.0000E+00    0.0000E+00    1.800000E+10  0.00400  1.525E-05    0   0.4967   age213_m42            0.0000     5.4555E-04     6.1055   0.8765    87.1595
 18      1.1594     2.6605E-02    5.1208E-02    1.000000E+06  0.00800  1.238E-02    0   1.0000   age020_m52            0.0000     7.0687E-04     9.8451   4.0000    97.3865
 19      0.0000     0.0000E+00    0.0000E+00    3.160000E+06  0.00800  3.074E-02    0   0.9966   age045_m52            0.0000     6.1533E-04     8.9353   4.0000    95.3084
 20      2.8603     3.0457E-02    5.5358E-02    5.010000E+06  0.00800  2.668E-02    0   0.9443   age055_m52            0.0000     4.2812E-04     5.9693   4.0000    87.9537
 21      0.0000     0.0000E+00    0.0000E+00    6.610000E+06  0.00800  2.136E-02    0   0.9177   age061_m52            0.0000     3.3934E-04     4.5736   2.7767    92.5489
 22      0.0000     0.0000E+00    0.0000E+00    1.000000E+07  0.00800  1.215E-02    0   0.8827   age070_m52            0.0000     3.4707E-04     4.9247   3.4117    92.8820
 23      0.0000     0.0000E+00    0.0000E+00    1.445000E+07  0.00800  8.717E-03    0   0.8552   age078_m52            0.0000     3.5033E-04     4.8448   3.5492    91.1574
 24      0.0000     0.0000E+00    0.0000E+00    2.512000E+07  0.00800  5.592E-03    0   0.8162   age090_m52            0.0000     3.5179E-04     4.8252   3.1840    93.9364
 25      0.0000     0.0000E+00    0.0000E+00    4.000000E+07  0.00800  3.896E-03    0   0.7841   age104_m52            0.0000     3.6887E-04     4.9656   3.1131    93.8994
 26      0.4957     6.5566E-02    9.1192E-02    1.015200E+08  0.00800  2.148E-03    0   0.7226   age116_m52            0.0000     3.7676E-04     4.9210   3.0853    92.4293
 27      0.0000     0.0000E+00    0.0000E+00    2.861200E+08  0.00800  9.925E-04    0   0.6683   age125_m52            0.0000     4.2487E-04     5.2616   2.6319    94.6526
 28      0.7352     6.6498E-01    7.8563E-01    9.047900E+08  0.00800  3.141E-04    0   0.6138   age135_m52            0.0000     5.0812E-04     5.6525   1.8920    96.0659
 29      0.0000     0.0000E+00    0.0000E+00    1.434000E+09  0.00800  1.719E-04    0   0.5853   age139_m52            0.0000     5.1142E-04     5.9362   1.3073    94.3716
 30      0.0000     0.0000E+00    0.0000E+00    2.500000E+09  0.00800  7.872E-05    0   0.5600   age150_m52            0.0000     5.5460E-04     6.1233   1.0871    90.3153
 31      0.0000     0.0000E+00    0.0000E+00    4.250000E+09  0.00800  4.336E-05    0   0.5426   age158_m52            0.0000     5.5749E-04     6.1284   1.0738    89.4314
 32      0.0000     0.0000E+00    0.0000E+00    6.250000E+09  0.00800  3.159E-05    0   0.5319   age166_m52            0.0000     6.1323E-04     6.4956   0.8980    88.4605
 33      1.2356     2.5792E+01    2.5184E+01    1.300000E+10  0.00800  1.361E-05    0   0.5073   age193_m52            0.0000     6.9141E-04     7.0426   0.4654    86.6267
 34      0.7306     2.0996E+01    2.0166E+01    1.800000E+10  0.00800  9.886E-06    0   0.4990   age213_m52            0.0000     7.6010E-04     7.4874   0.3829    85.3131
 35      3.4846     6.4117E-02    1.2341E-01    1.000000E+06  0.02000  1.544E-02    0   1.0000   age020_m62            0.0000     7.0143E-04     9.7963   4.0000    97.4755
 36      9.1313     6.8957E-02    1.3084E-01    3.160000E+06  0.02000  3.762E-02    0   0.9858   age045_m62            0.0000     6.2798E-04     9.0876   4.0000    95.9807
 37      0.0000     0.0000E+00    0.0000E+00    5.010000E+06  0.02000  3.296E-02    0   0.9342   age055_m62            0.0000     4.2600E-04     5.4288   3.9551    86.8165
 38      0.0000     0.0000E+00    0.0000E+00    8.710000E+06  0.02000  1.154E-02    0   0.8861   age067_m62            0.0000     4.0341E-04     6.0912   2.7398   100.4481
 39      0.0000     0.0000E+00    0.0000E+00    1.445000E+07  0.02000  7.663E-03    0   0.8472   age078_m62            0.0000     3.7597E-04     5.3686   3.0203    96.3247
 40      0.0000     0.0000E+00    0.0000E+00    2.512000E+07  0.02000  4.532E-03    0   0.8099   age090_m62            0.0000     3.8900E-04     5.5714   3.0031    96.3598
 41      2.3927     2.4872E-01    3.6360E-01    5.500000E+07  0.02000  2.733E-03    0   0.7595   age110_m62            0.0000     3.5711E-04     4.9200   3.0912    93.4632
 42      0.0000     0.0000E+00    0.0000E+00    1.609000E+08  0.02000  1.369E-03    0   0.6985   age120_m62            0.0000     3.8422E-04     4.9649   2.9783    93.9435
 43      0.0000     0.0000E+00    0.0000E+00    2.861200E+08  0.02000  9.013E-04    0   0.6714   age125_m62            0.0000     4.1136E-04     4.9812   2.7598    95.2591
 44      0.0000     0.0000E+00    0.0000E+00    5.088000E+08  0.02000  5.028E-04    0   0.6449   age130_m62            0.0000     4.8753E-04     5.3183   2.4391    95.4020
 45      0.0000     0.0000E+00    0.0000E+00    9.047900E+08  0.02000  2.428E-04    0   0.6179   age135_m62            0.0000     5.2157E-04     5.6584   1.8700    94.2393
 46      0.0000     0.0000E+00    0.0000E+00    1.434000E+09  0.02000  1.263E-04    0   0.5908   age139_m62            0.0000     5.4314E-04     5.9509   1.4355    92.6095
 47      0.0000     0.0000E+00    0.0000E+00    2.500000E+09  0.02000  5.985E-05    0   0.5673   age150_m62            0.0000     6.1383E-04     6.4865   1.1044    90.1402
 48      0.0000     0.0000E+00    0.0000E+00    4.250000E+09  0.02000  3.271E-05    0   0.5468   age158_m62            0.0000     7.0702E-04     7.1638   0.8387    87.9862
 49      0.0000     0.0000E+00    0.0000E+00    1.000000E+10  0.02000  1.360E-05    0   0.5167   age181_m62            0.0000     8.3682E-04     7.9996   0.5310    86.1723
 50      0.0000     0.0000E+00    0.0000E+00    1.800000E+10  0.02000  7.124E-06    0   0.5013   age213_m62            0.0000     9.5000E-04     8.7072   0.3508    84.4521
 51      2.4866     2.7254E-02    5.2448E-02    1.000000E+06  0.05000  2.592E-02    0   0.9998   age020_m72            0.0000     6.8141E-04     9.6324   4.0000    97.2355
 52      0.0000     0.0000E+00    0.0000E+00    3.160000E+06  0.05000  4.845E-02    0   0.9577   age045_m72            0.0000     5.2649E-04     7.7993   4.0000    92.6437
 53      0.0000     0.0000E+00    0.0000E+00    5.010000E+06  0.05000  3.072E-02    0   0.9147   age055_m72            0.0000     4.2693E-04     5.9854   3.6149    92.3377
 54      0.0000     0.0000E+00    0.0000E+00    6.610000E+06  0.05000  1.455E-02    0   0.8877   age061_m72            0.0000     8.5397E-04     9.2320   2.6822   104.7438
 55      0.0000     0.0000E+00    0.0000E+00    1.000000E+07  0.05000  9.074E-03    0   0.8524   age070_m72            0.0000     6.2560E-04     7.6166   3.7524    93.2302
 56      0.0000     0.0000E+00    0.0000E+00    2.512000E+07  0.05000  4.250E-03    0   0.7902   age090_m72            0.0000     4.8654E-04     6.4700   3.4952    93.5330
 57      0.0000     0.0000E+00    0.0000E+00    4.000000E+07  0.05000  3.087E-03    0   0.7618   age104_m72            0.0000     4.8985E-04     6.4124   3.2682    94.9764
 58      0.0000     0.0000E+00    0.0000E+00    1.015200E+08  0.05000  1.700E-03    0   0.7096   age116_m72            0.0000     3.9247E-04     5.2065   3.0912    94.6245
 59      0.0000     0.0000E+00    0.0000E+00    2.861200E+08  0.05000  7.384E-04    0   0.6633   age125_m72            0.0000     4.5250E-04     5.2072   2.6548    95.4536
 60      0.0000     0.0000E+00    0.0000E+00    5.088000E+08  0.05000  3.819E-04    0   0.6372   age130_m72            0.0000     5.0954E-04     5.4595   2.2121    95.1224
 61      0.0000     0.0000E+00    0.0000E+00    9.047900E+08  0.05000  1.676E-04    0   0.6110   age135_m72            0.0000     6.0923E-04     6.2964   1.5685    91.6699
 62      0.9536     3.0657E+00    3.4662E+00    1.434000E+09  0.05000  8.837E-05    0   0.5874   age139_m72            0.0000     6.5265E-04     6.7465   1.1072    91.2928
 63      0.0000     0.0000E+00    0.0000E+00    2.500000E+09  0.05000  4.233E-05    0   0.5598   age150_m72            0.0000     7.5401E-04     7.4876   0.8480    88.3879
 64      0.0000     0.0000E+00    0.0000E+00    6.250000E+09  0.05000  1.435E-05    0   0.5249   age166_m72            0.0000     8.9802E-04     8.4187   0.4435    85.5013
 65      0.0000     0.0000E+00    0.0000E+00    1.300000E+10  0.05000  6.513E-06    0   0.5036   age193_m72            0.0000     1.0381E-03     9.3252   0.1995    85.0182
 66      0.0000     0.0000E+00    0.0000E+00    1.800000E+10  0.05000  4.527E-06    0   0.4945   age213_m72            0.0000     1.1440E-03     9.9115   0.0614    84.0140


## Synthesis Results - Average & Chains ##

# j      x_j: min, <> & last-chain-values for 1 ...  7 chains
  1     21.8072      8.3964      7.3883      6.8505      8.1061      7.3502      7.5292     17.1698      8.1453
  2      0.0000      0.3570      0.0369      0.2115      0.2364      0.1717      0.5007      0.1833      0.8539
  3      0.0000      0.2022      0.1264      0.0000      0.2659      0.0000      0.1320      0.0528      0.0000
  4      0.0000      0.2707      0.1857      0.0730      0.2681      0.0359      0.0000      0.3513      0.1406
  5      0.0000      0.3163      0.3543      0.3149      0.5632      0.2748      0.0241      0.0794      0.0347
  6      0.0000      0.2866      0.5120      0.2662      0.2948      0.0014      0.0000      0.0000      0.1566
  7     29.0811      0.3187      0.1281      0.5234      0.1913      0.0062      2.0807      0.1023      0.7054
  8     14.4210      0.3113      0.0865      0.5218      0.5301      0.1487      0.9444      0.0182      0.1207
  9      0.0000      0.2470      0.1713      0.0001      0.0395      0.2054      0.0486      0.0000      0.6620
 10      0.0000      0.3979      0.0636      0.2422      0.6707      0.1331      0.4163      0.1837      0.0000
 11      0.0000      0.2273      0.0825      0.1238      0.0000      0.4641      0.2615      0.0095      0.0449
 12      0.0000      0.2304      0.0773      0.6371      0.0000      0.1296      0.2099      0.1902      0.0961
 13      0.0000      0.1933      0.1385      0.4258      0.1788      0.0233      0.0000      0.0653      0.2065
 14      0.0000      0.2709      0.0383      0.2459      0.0000      0.1174      0.0000      0.0297      0.2768
 15      0.0000      0.1774      0.0005      0.4755      0.1608      0.1408      0.0803      0.0513      0.0000
 16      3.2244      0.2774      0.0000      0.1198      0.2429      0.1931      0.7194      0.0000      0.2588
 17      0.0000      0.2139      0.1114      0.3908      0.4012      0.2434      0.0000      0.0428      0.0000
 18      1.1594      1.8272      1.4980      2.0317      1.3101      1.2853      1.7164      1.3837      2.1733
 19      0.0000      0.3567      0.0145      0.1796      0.7230      0.0575      0.0000      0.0578      0.0910
 20      2.8603      0.2663      0.2049      0.1269      0.0000      0.1429      0.3002      0.0919      0.6433
 21      0.0000      0.3646      0.0575      0.3413      0.2630      0.1267      0.0000      0.0000      0.1095
 22      0.0000      0.2546      0.1352      0.3845      0.0680      0.2477      0.0000      0.0494      0.0000
 23      0.0000      0.3459      0.2283      0.5005      0.1085      0.0886      0.1058      0.0548      0.0535
 24      0.0000      0.2100      0.1051      0.4172      0.0960      0.0286      0.5563      0.0659      0.0000
 25      0.0000      0.2444      0.2437      0.0000      0.2233      0.0637      0.6452      0.0293      0.5859
 26      0.4957      0.2802      0.1922      0.2988      0.1754      0.2269      0.5594      0.1311      0.1336
 27      0.0000      0.1819      0.2929      0.2187      0.2046      0.0094      1.0300      0.0000      0.0541
 28      0.7352      0.2905      0.1035      0.0000      0.1422      0.2811      0.2982      0.2221      0.1702
 29      0.0000      0.1951      0.0000      0.0000      0.1698      0.2135      0.2516      0.0000      0.2441
 30      0.0000      0.2044      0.1422      0.0000      0.0000      0.1087      0.0000      0.0000      0.4353
 31      0.0000      0.1722      0.0791      0.2996      0.0323      0.0247      0.2783      0.1277      0.0000
 32      0.0000      0.2548      0.0301      0.1088      0.2143      0.1165      0.2485      0.0874      0.0000
 33      1.2356      0.2905      0.2385      0.4049      0.0000      0.0587      0.5067      0.1887      0.0253
 34      0.7306      0.1791      0.1032      0.0000      0.0325      0.3112      0.3033      0.3384      0.0000
 35      3.4846      3.6024      2.6570      5.6372      4.0064      2.6721      3.1376      2.3715      3.0070
 36      9.1313      0.3021      0.0000      0.0000      0.7756      0.0843      0.4913      0.1521      0.2066
 37      0.0000      0.4029      0.1115      0.0137      0.0000      0.0544      0.0000      0.0000      0.1087
 38      0.0000      0.2146      0.2206      0.0000      0.7739      0.3051      0.0000      0.0340      0.0727
 39      0.0000      0.2452      0.0803      0.8371      0.1737      0.1720      0.0292      0.0000      0.0008
 40      0.0000      0.1606      0.0000      0.3047      0.3595      0.1668      0.6174      0.0441      0.0000
 41      2.3927      0.2157      0.0241      0.0000      0.0105      0.1678      0.5193      0.0000      0.5124
 42      0.0000      0.2351      0.0318      0.0000      0.5260      0.0255      0.2679      0.0994      0.3581
 43      0.0000      0.3158      0.0000      0.0000      0.0764      0.0626      0.0000      0.2465      0.1292
 44      0.0000      0.2636      0.1373      0.0000      0.3250      0.0537      1.5332      0.0525      0.4038
 45      0.0000      0.2426      0.0060      0.3705      0.0000      0.1616      0.0000      0.1164      0.0000
 46      0.0000      0.2744      0.4630      0.1711      0.0227      0.2149      0.0000      0.0926      0.1104
