###################################################################
## OUTPUT of StarlightChains_v04.for    [Cid@UFSC - 01/Apr/2007] ##
###################################################################

## Some input info
KUG0210-078._34_36.txt                   [arq_obs]
Base.CB07.vall.4m                        [arq_base]
Masks.EmLines.NEW.gm                     [arq_masks]
StCv04.C11.config                        [arq_config]
   66                                    [N_base]
    0                                    [N_YAV_components = # of components with extra extinction!]
    0                                    [i_FitPowerLaw (1/0 = Yes/No)]
-9.99                                    [alpha_PowerLaw]
CCM                                      [red_law_option]
 1.458241                                [q_norm = A(l_norm)/A(V)]

## (Re)Sampling Parameters
 3741.00                                 [l_ini (A)]
 7218.00                                 [l_fin (A)]
    1.00                                 [dl    (A)]     (OBS: dl_cushion =    50.00 A)

## Normalization info
 4020.00                                 [l_norm (A) - for base]
 4010.00                                 [llow_norm (A) - window for f_obs]
 4060.00                                 [lupp_norm (A) - window for f_obs]
2.825111E-17                             [fobs_norm (in input units)]

## S/N
 3691.00                                 [llow_SN (A) - window for S/N]
 7268.00                                 [lupp_SN (A) - window for S/N]
   4.078                                 [S/N in S/N window]
   2.695                                 [S/N in norm. window]
   0.057                                 [S/N_err in S/N window]
   0.037                                 [S/N_err in norm. window]
  1.0000                                 [fscale_chi2]

## etc...
    -2007541                             [idum_orig]
  2432                                   [NOl_eff]
  2408                                   [Nl_eff]
    24    NSIGMA                         [Ntot_cliped & clip_method]
 10294830                                [Nglobal_steps]
   7                                     [N_chains]
  21                                     [NEX0s_base = N_base in EX0s-fits]
 0   0   1       24   2.0   5.773E+03    [Clip-Bug, RC-Crash & Burn-In warning-flags, n_censored_weights, wei_nsig_threshold & wei_limit]
    68     67.840     67.347      0.493  [idt_all, wdt_TotTime, wdt_UsrTime & wdt_SysTime (sec)]

## Synthesis Results - Best model ##

 1.47628E-05                             [chi2/Nl_eff]
     5.37931                             [adev (%)]

   114.33260                             [sum-of-x (%)]
 6.60332E-17                             [Flux_tot (units of input spectrum!)]
 1.44708E-12                             [Mini_tot (???)]
 7.95231E-13                             [Mcor_tot (???)]

 -58.05                                  [v0_min  (km/s)]
 123.43                                  [vd_min  (km/s)]
 0.5324                                  [AV_min  (mag)]
 0.0000                                  [YAV_min (mag)]

# j     x_j(%)      Mini_j(%)     Mcor_j(%)     age_j(yr)     Z_j      (L/M)_j    YAV?  Mstars   component_j        a/Fe...       SSP_chi2r SSP_adev(%)   SSP_AV   SSP_x(%)
  1      0.6867     2.5053E-03    4.5590E-03    1.000000E+06  0.00400  1.094E-02    0   1.0000   age020_m42            0.0000     7.2879E-05    11.9065   4.0000    98.0107
  2      0.0000     0.0000E+00    0.0000E+00    3.160000E+06  0.00400  4.007E-02    0   0.9999   age045_m42            0.0000     5.7312E-05    10.6035   3.3363   102.6044
  3      0.0000     0.0000E+00    0.0000E+00    5.010000E+06  0.00400  2.539E-02    0   0.9488   age055_m42            0.0000     6.3866E-05    11.1746   3.6612    99.8954
  4      0.0000     0.0000E+00    0.0000E+00    6.610000E+06  0.00400  2.620E-02    0   0.9220   age061_m42            0.0000     5.7064E-05    10.5612   3.2646   102.7535
  5      0.0000     0.0000E+00    0.0000E+00    1.000000E+07  0.00400  1.322E-02    0   0.8862   age070_m42            0.0000     6.4593E-05    11.5808   2.9859   104.7625
  6      0.0000     0.0000E+00    0.0000E+00    1.445000E+07  0.00400  7.883E-03    0   0.8571   age078_m42            0.0000     6.8030E-05    11.8378   3.3126   102.1115
  7      0.0000     0.0000E+00    0.0000E+00    2.512000E+07  0.00400  5.251E-03    0   0.8174   age090_m42            0.0000     6.5604E-05    11.7389   2.8558   105.3615
  8      0.0000     0.0000E+00    0.0000E+00    4.000000E+07  0.00400  3.649E-03    0   0.7851   age104_m42            0.0000     6.1370E-05    11.3312   2.6269   106.3389
  9      0.0000     0.0000E+00    0.0000E+00    5.500000E+07  0.00400  3.098E-03    0   0.7629   age110_m42            0.0000     5.6078E-05    10.6007   2.7776   106.4770
 10      0.0000     0.0000E+00    0.0000E+00    1.015200E+08  0.00400  2.228E-03    0   0.7207   age116_m42            0.0000     5.2553E-05    10.0956   2.7959   106.7635
 11      0.0000     0.0000E+00    0.0000E+00    2.861200E+08  0.00400  1.093E-03    0   0.6648   age125_m42            0.0000     5.2078E-05    10.2356   2.2195   110.0593
 12      0.0000     0.0000E+00    0.0000E+00    5.088000E+08  0.00400  6.597E-04    0   0.6365   age130_m42            0.0000     4.5001E-05     9.2608   2.2076   111.1498
 13     13.1145     2.4551E+00    2.5903E+00    1.434000E+09  0.00400  2.132E-04    0   0.5798   age139_m42            0.0000     3.0938E-05     7.7977   1.2379   113.5168
 14      0.0000     0.0000E+00    0.0000E+00    4.250000E+09  0.00400  5.895E-05    0   0.5377   age158_m42            0.0000     2.5602E-05     7.1301   0.8015   109.0164
 15      0.0000     0.0000E+00    0.0000E+00    7.500000E+09  0.00400  3.510E-05    0   0.5212   age171_m42            0.0000     2.3202E-05     6.7806   0.6117   108.3597
 16      0.0000     0.0000E+00    0.0000E+00    1.300000E+10  0.00400  2.005E-05    0   0.5034   age193_m42            0.0000     2.2073E-05     6.5627   0.4449   107.8148
 17      0.0000     0.0000E+00    0.0000E+00    1.800000E+10  0.00400  1.525E-05    0   0.4967   age213_m42            0.0000     2.2692E-05     6.6776   0.4225   107.3078
 18      0.0000     0.0000E+00    0.0000E+00    1.000000E+06  0.00800  1.238E-02    0   1.0000   age020_m52            0.0000     7.2692E-05    11.8887   4.0000    98.0830
 19      0.0000     0.0000E+00    0.0000E+00    3.160000E+06  0.00800  3.074E-02    0   0.9966   age045_m52            0.0000     7.0472E-05    11.7194   3.9904    96.7550
 20      0.0000     0.0000E+00    0.0000E+00    5.010000E+06  0.00800  2.668E-02    0   0.9443   age055_m52            0.0000     6.5454E-05    11.3086   3.7442    99.0013
 21      0.0000     0.0000E+00    0.0000E+00    6.610000E+06  0.00800  2.136E-02    0   0.9177   age061_m52            0.0000     5.8771E-05    11.1597   2.4871   106.0167
 22      0.0000     0.0000E+00    0.0000E+00    1.000000E+07  0.00800  1.215E-02    0   0.8827   age070_m52            0.0000     6.9739E-05    12.1456   3.1628   104.5617
 23      0.0000     0.0000E+00    0.0000E+00    1.445000E+07  0.00800  8.717E-03    0   0.8552   age078_m52            0.0000     6.6410E-05    11.7055   3.2778   103.5580
 24      0.0000     0.0000E+00    0.0000E+00    2.512000E+07  0.00800  5.592E-03    0   0.8162   age090_m52            0.0000     6.5050E-05    11.7009   2.9165   106.7137
 25      0.0000     0.0000E+00    0.0000E+00    4.000000E+07  0.00800  3.896E-03    0   0.7841   age104_m52            0.0000     6.0181E-05    11.1858   2.8256   107.6651
 26      0.0000     0.0000E+00    0.0000E+00    1.015200E+08  0.00800  2.148E-03    0   0.7226   age116_m52            0.0000     5.3156E-05    10.3112   2.7621   107.6173
 27      0.0000     0.0000E+00    0.0000E+00    2.861200E+08  0.00800  9.925E-04    0   0.6683   age125_m52            0.0000     4.3714E-05     9.1281   2.2697   112.3222
 28      0.0000     0.0000E+00    0.0000E+00    9.047900E+08  0.00800  3.141E-04    0   0.6138   age135_m52            0.0000     2.7720E-05     7.2765   1.4648   117.3981
 29      0.0000     0.0000E+00    0.0000E+00    1.434000E+09  0.00800  1.719E-04    0   0.5853   age139_m52            0.0000     2.4625E-05     7.0609   0.8864   114.8893
 30      0.0000     0.0000E+00    0.0000E+00    2.500000E+09  0.00800  7.872E-05    0   0.5600   age150_m52            0.0000     1.9497E-05     6.2217   0.6235   111.7522
 31      0.0000     0.0000E+00    0.0000E+00    4.250000E+09  0.00800  4.336E-05    0   0.5426   age158_m52            0.0000     1.9971E-05     6.3089   0.6097   110.6381
 32      0.0000     0.0000E+00    0.0000E+00    6.250000E+09  0.00800  3.159E-05    0   0.5319   age166_m52            0.0000     1.7389E-05     5.8346   0.4054   110.7443
 33      0.0000     0.0000E+00    0.0000E+00    1.300000E+10  0.00800  1.361E-05    0   0.5073   age193_m52            0.0000     1.5562E-05     5.4400  -0.0650   110.1606
 34      0.0000     0.0000E+00    0.0000E+00    1.800000E+10  0.00800  9.886E-06    0   0.4990   age213_m52            0.0000     1.5355E-05     5.3794  -0.1772   109.8108
 35      0.0000     0.0000E+00    0.0000E+00    1.000000E+06  0.02000  1.544E-02    0   1.0000   age020_m62            0.0000     7.3025E-05    11.9070   4.0000    98.1843
 36      0.0000     0.0000E+00    0.0000E+00    3.160000E+06  0.02000  3.762E-02    0   0.9858   age045_m62            0.0000     7.2076E-05    11.8405   4.0000    97.0387
 37      0.0000     0.0000E+00    0.0000E+00    5.010000E+06  0.02000  3.296E-02    0   0.9342   age055_m62            0.0000     6.0126E-05    10.7691   3.6186   101.2646
 38      0.0000     0.0000E+00    0.0000E+00    8.710000E+06  0.02000  1.154E-02    0   0.8861   age067_m62            0.0000     1.0278E-04    15.6194   2.6119   107.3159
 39      0.0000     0.0000E+00    0.0000E+00    1.445000E+07  0.02000  7.663E-03    0   0.8472   age078_m62            0.0000     7.6265E-05    12.9918   2.8041   107.0148
 40      0.0000     0.0000E+00    0.0000E+00    2.512000E+07  0.02000  4.532E-03    0   0.8099   age090_m62            0.0000     7.7940E-05    13.1460   2.7959   106.6767
 41      0.0000     0.0000E+00    0.0000E+00    5.500000E+07  0.02000  2.733E-03    0   0.7595   age110_m62            0.0000     6.0438E-05    11.1754   2.8101   106.8175
 42      0.0000     0.0000E+00    0.0000E+00    1.609000E+08  0.02000  1.369E-03    0   0.6985   age120_m62            0.0000     4.9960E-05     9.8387   2.6415   110.1292
 43      0.0000     0.0000E+00    0.0000E+00    2.861200E+08  0.02000  9.013E-04    0   0.6714   age125_m62            0.0000     4.3378E-05     8.9242   2.3857   113.6128
 44      0.0000     0.0000E+00    0.0000E+00    5.088000E+08  0.02000  5.028E-04    0   0.6449   age130_m62            0.0000     3.2558E-05     7.5261   2.0007   117.0596
 45      0.0000     0.0000E+00    0.0000E+00    9.047900E+08  0.02000  2.428E-04    0   0.6179   age135_m62            0.0000     2.2682E-05     6.6102   1.4132   116.4594
 46      0.0000     0.0000E+00    0.0000E+00    1.434000E+09  0.02000  1.263E-04    0   0.5908   age139_m62            0.0000     1.9678E-05     6.2855   0.9725   114.6263
 47      1.8342     1.2232E+00    1.2627E+00    2.500000E+09  0.02000  5.985E-05    0   0.5673   age150_m62            0.0000     1.7174E-05     5.8295   0.6055   113.1439
 48      0.0000     0.0000E+00    0.0000E+00    4.250000E+09  0.02000  3.271E-05    0   0.5468   age158_m62            0.0000     1.5143E-05     5.4578   0.2964   112.4097
 49      0.0000     0.0000E+00    0.0000E+00    1.000000E+10  0.02000  1.360E-05    0   0.5167   age181_m62            0.0000     1.5516E-05     5.4227  -0.0586   112.2472
 50      0.0000     0.0000E+00    0.0000E+00    1.800000E+10  0.02000  7.124E-06    0   0.5013   age213_m62            0.0000     1.8153E-05     5.7671  -0.2751   111.6275
 51      0.0000     0.0000E+00    0.0000E+00    1.000000E+06  0.05000  2.592E-02    0   0.9998   age020_m72            0.0000     7.4406E-05    12.0146   4.0000    97.9330
 52      0.0000     0.0000E+00    0.0000E+00    3.160000E+06  0.05000  4.845E-02    0   0.9577   age045_m72            0.0000     6.7197E-05    11.3926   3.8823    98.3609
 53      0.0000     0.0000E+00    0.0000E+00    5.010000E+06  0.05000  3.072E-02    0   0.9147   age055_m72            0.0000     7.5085E-05    12.5682   3.3851   103.0251
 54      0.0000     0.0000E+00    0.0000E+00    6.610000E+06  0.05000  1.455E-02    0   0.8877   age061_m72            0.0000     1.3778E-04    18.6596   2.6246   108.6750
 55      0.0000     0.0000E+00    0.0000E+00    1.000000E+07  0.05000  9.074E-03    0   0.8524   age070_m72            0.0000     8.3719E-05    13.3890   3.5455   103.1070
 56      0.0000     0.0000E+00    0.0000E+00    2.512000E+07  0.05000  4.250E-03    0   0.7902   age090_m72            0.0000     7.3284E-05    12.4425   3.2586   104.8690
 57      0.0000     0.0000E+00    0.0000E+00    4.000000E+07  0.05000  3.087E-03    0   0.7618   age104_m72            0.0000     7.2506E-05    12.4361   3.0298   106.6740
 58      0.0000     0.0000E+00    0.0000E+00    1.015200E+08  0.05000  1.700E-03    0   0.7096   age116_m72            0.0000     5.5353E-05    10.4646   2.7813   109.6661
 59      0.0000     0.0000E+00    0.0000E+00    2.861200E+08  0.05000  7.384E-04    0   0.6633   age125_m72            0.0000     3.6555E-05     8.0963   2.2491   115.4501
 60      0.0000     0.0000E+00    0.0000E+00    5.088000E+08  0.05000  3.819E-04    0   0.6372   age130_m72            0.0000     2.5206E-05     6.7910   1.7545   117.5844
 61     36.5002     8.6920E+00    9.6641E+00    9.047900E+08  0.05000  1.676E-04    0   0.6110   age135_m72            0.0000     1.7714E-05     5.9607   1.0620   115.4343
 62      0.0000     0.0000E+00    0.0000E+00    1.434000E+09  0.05000  8.837E-05    0   0.5874   age139_m72            0.0000     1.6101E-05     5.6582   0.6001   115.0055
 63     46.4315     4.3779E+01    4.4596E+01    2.500000E+09  0.05000  4.233E-05    0   0.5598   age150_m72            0.0000     1.4880E-05     5.4523   0.2918   113.5573
 64     15.7655     4.3848E+01    4.1882E+01    6.250000E+09  0.05000  1.435E-05    0   0.5249   age166_m72            0.0000     1.6274E-05     5.5509  -0.1596   111.9673
 65      0.0000     0.0000E+00    0.0000E+00    1.300000E+10  0.05000  6.513E-06    0   0.5036   age193_m72            0.0000     2.0929E-05     6.1562  -0.4461   113.2569
 66      0.0000     0.0000E+00    0.0000E+00    1.800000E+10  0.05000  4.527E-06    0   0.4945   age213_m72            0.0000     2.5078E-05     6.6945  -0.6118   113.1656


## Synthesis Results - Average & Chains ##

# j      x_j: min, <> & last-chain-values for 1 ...  7 chains
  1      0.6867      9.4992      3.7115     10.6326      8.6593      9.7352      9.3426      9.0469      9.6519
  2      0.0000      0.2576      0.1092      0.1071      0.2815      0.0750      0.0456      0.0000      0.0524
  3      0.0000      0.2287      0.0000      0.4219      0.0000      0.0576      0.7094      0.0313      0.0651
  4      0.0000      0.3214      0.0782      0.0281      0.6453      0.2166      0.2278      0.1604      0.0231
  5      0.0000      0.1759      0.0000      0.0000      0.1125      0.0497      0.0000      0.2360      0.1032
  6      0.0000      0.2540      0.1122      0.0892      0.8281      0.1988      0.0397      0.4342      0.1921
  7      0.0000      0.2245      0.2320      0.1097      0.1541      0.1321      0.3847      0.1573      0.1669
  8      0.0000      0.2782      0.1413      0.1339      0.0000      0.2964      0.2593      0.5811      0.3273
  9      0.0000      0.1917      0.1527      0.0000      0.6137      0.1403      0.0636      0.1210      0.0641
 10      0.0000      0.2282      0.1181      0.0751      0.4726      0.0504      0.0000      0.3972      0.0000
 11      0.0000      0.1658      0.0790      0.0000      0.2175      0.1599      0.0000      0.0000      0.0970
 12      0.0000      0.1850      0.1127      0.0926      0.0741      0.4537      0.7596      0.2734      0.0062
 13     13.1145      0.2163      0.2449      0.0471      0.1865      0.2660      0.0373      0.3873      0.0608
 14      0.0000      0.1855      0.1614      0.0568      0.1783      0.0000      0.0000      0.0192      0.1109
 15      0.0000      0.1651      0.1354      0.0870      0.3110      0.0759      0.0475      0.0000      0.0022
 16      0.0000      0.1963      0.0736      0.0497      0.0853      0.2841      0.5194      0.3219      0.4653
 17      0.0000      0.1718      0.0550      0.0858      0.0000      0.0000      0.0410      0.1671      0.1063
 18      0.0000      2.3400      2.2352      2.5105      2.0933      2.4568      2.3909      1.5823      2.6455
 19      0.0000      0.2782      0.2033      0.3484      0.4023      0.3442      0.3519      0.4287      0.3462
 20      0.0000      0.2150      0.0000      0.0392      0.2027      0.0908      0.0662      0.0898      0.1324
 21      0.0000      0.2255      0.0178      0.1308      0.2927      0.1161      0.2063      0.3401      0.0000
 22      0.0000      0.2067      0.1762      0.0214      0.2572      0.1030      0.0000      0.0235      0.0202
 23      0.0000      0.1966      0.1860      0.0465      0.2946      0.2195      0.1794      0.2050      0.2692
 24      0.0000      0.1747      0.0000      0.0000      0.0881      0.4937      0.2009      0.1923      0.1294
 25      0.0000      0.1360      0.0237      0.0700      0.1459      0.1791      0.1501      0.2740      0.3244
 26      0.0000      0.1378      0.0123      0.1106      0.1138      0.2588      0.0182      0.1421      0.0000
 27      0.0000      0.2652      0.0584      0.3110      0.0825      0.1091      0.2776      0.9000      0.3596
 28      0.0000      0.2117      0.1178      0.0250      0.1472      0.0619      0.0000      0.3552      0.0000
 29      0.0000      0.1626      0.0408      0.1851      0.3503      0.1315      0.0683      0.0645      0.0873
 30      0.0000      0.2524      0.0351      0.0000      0.3719      0.0075      0.2444      0.5344      0.0000
 31      0.0000      0.1578      0.0868      0.0687      0.1230      0.0000      0.3004      0.0572      0.2064
 32      0.0000      0.1862      0.1908      0.0631      0.0771      0.0255      0.0254      0.1538      0.1694
 33      0.0000      0.1465      0.0481      0.0370      0.5128      0.1434      0.0000      0.0893      0.1363
 34      0.0000      0.2794      0.1058      0.0893      0.2599      0.3329      0.2922      0.2427      0.1743
 35      0.0000      1.8030      1.8910      1.7584      1.9652      2.2444      2.1823      1.9729      1.7950
 36      0.0000     12.0857     14.0023     13.0781     11.9575     11.5773     12.0784     12.4240     12.1658
 37      0.0000      0.2621      0.0403      0.0000      0.0000      0.0317      0.0360      0.2709      0.5990
 38      0.0000      0.2470      0.1023      0.0000      0.3949      0.1838      0.2001      0.0632      0.0523
 39      0.0000      0.2729      0.0000      0.0000      0.3135      0.1084      0.1839      0.1365      0.1206
 40      0.0000      0.1527      0.0161      0.0178      0.0956      0.0000      0.7442      0.3819      0.0000
 41      0.0000      0.3129      0.0687      0.2321      0.0000      0.5058      0.1685      0.0000      0.2595
 42      0.0000      0.2600      0.0299      0.0747      0.2948      0.0406      0.2715      0.2632      0.4854
 43      0.0000      0.2344      0.0396      0.0548      0.2819      0.0935      0.0000      0.8574      0.1551
 44      0.0000      0.2150      0.0000      0.0091      0.1561      0.0002      0.4073      0.0000      0.1030
 45      0.0000      0.1750      0.0453      0.0000      0.0127      0.2477      0.1516      0.0191      0.1634
 46      0.0000      0.2341      0.0694      0.1445      0.0000      0.3208      0.0000      0.0000      0.3690
