###################################################################
## OUTPUT of StarlightChains_v04.for    [Cid@UFSC - 01/Apr/2007] ##
###################################################################

## Some input info
KUG0210-078._35_33.txt                   [arq_obs]
Base.CB07.vall.4m                        [arq_base]
Masks.EmLines.NEW.gm                     [arq_masks]
StCv04.C11.config                        [arq_config]
   66                                    [N_base]
    0                                    [N_YAV_components = # of components with extra extinction!]
    0                                    [i_FitPowerLaw (1/0 = Yes/No)]
-9.99                                    [alpha_PowerLaw]
CCM                                      [red_law_option]
 1.458241                                [q_norm = A(l_norm)/A(V)]

## (Re)Sampling Parameters
 3741.00                                 [l_ini (A)]
 7218.00                                 [l_fin (A)]
    1.00                                 [dl    (A)]     (OBS: dl_cushion =    50.00 A)

## Normalization info
 4020.00                                 [l_norm (A) - for base]
 4010.00                                 [llow_norm (A) - window for f_obs]
 4060.00                                 [lupp_norm (A) - window for f_obs]
4.212457E-17                             [fobs_norm (in input units)]

## S/N
 3691.00                                 [llow_SN (A) - window for S/N]
 7268.00                                 [lupp_SN (A) - window for S/N]
   3.907                                 [S/N in S/N window]
   2.653                                 [S/N in norm. window]
   0.085                                 [S/N_err in S/N window]
   0.058                                 [S/N_err in norm. window]
  1.0000                                 [fscale_chi2]

## etc...
    -2007568                             [idum_orig]
  2432                                   [NOl_eff]
  2410                                   [Nl_eff]
    22    NSIGMA                         [Ntot_cliped & clip_method]
 10495240                                [Nglobal_steps]
   7                                     [N_chains]
   7                                     [NEX0s_base = N_base in EX0s-fits]
 0   0   1       22   2.0   8.228E+03    [Clip-Bug, RC-Crash & Burn-In warning-flags, n_censored_weights, wei_nsig_threshold & wei_limit]
   233    232.119    231.052      1.067  [idt_all, wdt_TotTime, wdt_UsrTime & wdt_SysTime (sec)]

## Synthesis Results - Best model ##

 4.87877E-05                             [chi2/Nl_eff]
     6.90439                             [adev (%)]

   116.18764                             [sum-of-x (%)]
 2.26981E-17                             [Flux_tot (units of input spectrum!)]
 4.30190E-12                             [Mini_tot (???)]
 2.13112E-12                             [Mcor_tot (???)]

 -27.90                                  [v0_min  (km/s)]
 223.28                                  [vd_min  (km/s)]
-0.5721                                  [AV_min  (mag)]
 0.0000                                  [YAV_min (mag)]

# j     x_j(%)      Mini_j(%)     Mcor_j(%)     age_j(yr)     Z_j      (L/M)_j    YAV?  Mstars   component_j        a/Fe...       SSP_chi2r SSP_adev(%)   SSP_AV   SSP_x(%)
  1      0.0000     0.0000E+00    0.0000E+00    1.000000E+06  0.00400  1.094E-02    0   1.0000   age020_m42            0.0000     2.1061E-04    15.0713   3.9867    96.9565
  2      0.0000     0.0000E+00    0.0000E+00    3.160000E+06  0.00400  4.007E-02    0   0.9999   age045_m42            0.0000     1.9456E-04    14.5895   3.2527   103.8357
  3      0.0000     0.0000E+00    0.0000E+00    5.010000E+06  0.00400  2.539E-02    0   0.9488   age055_m42            0.0000     2.0285E-04    14.8601   3.5765   101.1813
  4      0.0000     0.0000E+00    0.0000E+00    6.610000E+06  0.00400  2.620E-02    0   0.9220   age061_m42            0.0000     1.9925E-04    14.7312   3.1793   104.0140
  5      0.0000     0.0000E+00    0.0000E+00    1.000000E+07  0.00400  1.322E-02    0   0.8862   age070_m42            0.0000     2.4318E-04    16.5211   2.9001   105.7817
  6      0.0000     0.0000E+00    0.0000E+00    1.445000E+07  0.00400  7.883E-03    0   0.8571   age078_m42            0.0000     2.4314E-04    16.4894   3.2276   103.1317
  7      0.0000     0.0000E+00    0.0000E+00    2.512000E+07  0.00400  5.251E-03    0   0.8174   age090_m42            0.0000     2.5213E-04    16.8343   2.7708   106.2878
  8      0.0000     0.0000E+00    0.0000E+00    4.000000E+07  0.00400  3.649E-03    0   0.7851   age104_m42            0.0000     2.4219E-04    16.5008   2.5410   107.3247
  9      0.0000     0.0000E+00    0.0000E+00    5.500000E+07  0.00400  3.098E-03    0   0.7629   age110_m42            0.0000     2.2188E-04    15.6283   2.6918   107.5624
 10      0.0000     0.0000E+00    0.0000E+00    1.015200E+08  0.00400  2.228E-03    0   0.7207   age116_m42            0.0000     2.0984E-04    15.0792   2.7110   107.8863
 11      0.0000     0.0000E+00    0.0000E+00    2.861200E+08  0.00400  1.093E-03    0   0.6648   age125_m42            0.0000     2.2729E-04    15.7776   2.1308   111.2376
 12      0.0000     0.0000E+00    0.0000E+00    5.088000E+08  0.00400  6.597E-04    0   0.6365   age130_m42            0.0000     2.0169E-04    14.7681   2.1190   112.4606
 13      0.0000     0.0000E+00    0.0000E+00    1.434000E+09  0.00400  2.132E-04    0   0.5798   age139_m42            0.0000     1.6373E-04    13.4308   1.1487   114.9587
 14      0.0000     0.0000E+00    0.0000E+00    4.250000E+09  0.00400  5.895E-05    0   0.5377   age158_m42            0.0000     1.2126E-04    11.7396   0.7048   111.0745
 15      0.0000     0.0000E+00    0.0000E+00    7.500000E+09  0.00400  3.510E-05    0   0.5212   age171_m42            0.0000     1.0829E-04    11.0438   0.5127   110.6028
 16      3.7945     8.5942E-01    8.7332E-01    1.300000E+10  0.00400  2.005E-05    0   0.5034   age193_m42            0.0000     9.8763E-05    10.4985   0.3437   110.2215
 17     14.3717     4.2797E+00    4.2910E+00    1.800000E+10  0.00400  1.525E-05    0   0.4967   age213_m42            0.0000     1.0135E-04    10.6612   0.3212   109.7012
 18      0.0000     0.0000E+00    0.0000E+00    1.000000E+06  0.00800  1.238E-02    0   1.0000   age020_m52            0.0000     2.1004E-04    15.0543   3.9828    97.1612
 19      0.0000     0.0000E+00    0.0000E+00    3.160000E+06  0.00800  3.074E-02    0   0.9966   age045_m52            0.0000     2.0656E-04    14.9339   3.9054    98.0792
 20      0.0000     0.0000E+00    0.0000E+00    5.010000E+06  0.00800  2.668E-02    0   0.9443   age055_m52            0.0000     2.0550E-04    14.9730   3.6594   100.2747
 21      0.0000     0.0000E+00    0.0000E+00    6.610000E+06  0.00800  2.136E-02    0   0.9177   age061_m52            0.0000     2.2121E-04    16.0160   2.4013   107.1392
 22      0.0000     0.0000E+00    0.0000E+00    1.000000E+07  0.00800  1.215E-02    0   0.8827   age070_m52            0.0000     2.6165E-04    17.1924   3.0776   105.4676
 23      0.0000     0.0000E+00    0.0000E+00    1.445000E+07  0.00800  8.717E-03    0   0.8552   age078_m52            0.0000     2.4242E-04    16.4908   3.1924   104.5824
 24      0.0000     0.0000E+00    0.0000E+00    2.512000E+07  0.00800  5.592E-03    0   0.8162   age090_m52            0.0000     2.5563E-04    16.9495   2.8315   107.6044
 25      0.0000     0.0000E+00    0.0000E+00    4.000000E+07  0.00800  3.896E-03    0   0.7841   age104_m52            0.0000     2.4354E-04    16.4914   2.7398   108.6346
 26      0.0000     0.0000E+00    0.0000E+00    1.015200E+08  0.00800  2.148E-03    0   0.7226   age116_m52            0.0000     2.1821E-04    15.5018   2.6762   108.7252
 27      0.0000     0.0000E+00    0.0000E+00    2.861200E+08  0.00800  9.925E-04    0   0.6683   age125_m52            0.0000     2.0185E-04    14.7439   2.1825   113.5457
 28      0.0000     0.0000E+00    0.0000E+00    9.047900E+08  0.00800  3.141E-04    0   0.6138   age135_m52            0.0000     1.5605E-04    12.9014   1.3753   118.9351
 29      0.0000     0.0000E+00    0.0000E+00    1.434000E+09  0.00800  1.719E-04    0   0.5853   age139_m52            0.0000     1.3936E-04    12.4140   0.7929   116.7135
 30      0.0000     0.0000E+00    0.0000E+00    2.500000E+09  0.00800  7.872E-05    0   0.5600   age150_m52            0.0000     1.0209E-04    10.6655   0.5260   114.0019
 31      0.0000     0.0000E+00    0.0000E+00    4.250000E+09  0.00800  4.336E-05    0   0.5426   age158_m52            0.0000     1.0032E-04    10.5896   0.5101   112.9904
 32      0.0000     0.0000E+00    0.0000E+00    6.250000E+09  0.00800  3.159E-05    0   0.5319   age166_m52            0.0000     8.5495E-05     9.6900   0.3023   113.3773
 33      0.0000     0.0000E+00    0.0000E+00    1.300000E+10  0.00800  1.361E-05    0   0.5073   age193_m52            0.0000     6.9989E-05     8.6517  -0.1711   113.0671
 34      0.0000     0.0000E+00    0.0000E+00    1.800000E+10  0.00800  9.886E-06    0   0.4990   age213_m52            0.0000     6.0839E-05     8.0189  -0.2860   112.9424
 35      0.0000     0.0000E+00    0.0000E+00    1.000000E+06  0.02000  1.544E-02    0   1.0000   age020_m62            0.0000     2.1033E-04    15.0618   3.9785    97.4041
 36      0.0000     0.0000E+00    0.0000E+00    3.160000E+06  0.02000  3.762E-02    0   0.9858   age045_m62            0.0000     2.0876E-04    15.0060   3.9173    98.2851
 37      0.0000     0.0000E+00    0.0000E+00    5.010000E+06  0.02000  3.296E-02    0   0.9342   age055_m62            0.0000     1.9467E-04    14.5123   3.5336   102.5787
 38      0.0000     0.0000E+00    0.0000E+00    8.710000E+06  0.02000  1.154E-02    0   0.8861   age067_m62            0.0000     3.8811E-04    21.0899   2.5300   107.5150
 39      0.0000     0.0000E+00    0.0000E+00    1.445000E+07  0.02000  7.663E-03    0   0.8472   age078_m62            0.0000     2.9515E-04    18.3899   2.7192   107.7426
 40      0.0000     0.0000E+00    0.0000E+00    2.512000E+07  0.02000  4.532E-03    0   0.8099   age090_m62            0.0000     3.0485E-04    18.6233   2.7110   107.3683
 41      0.0000     0.0000E+00    0.0000E+00    5.500000E+07  0.02000  2.733E-03    0   0.7595   age110_m62            0.0000     2.4177E-04    16.4439   2.7237   107.8364
 42      0.0000     0.0000E+00    0.0000E+00    1.609000E+08  0.02000  1.369E-03    0   0.6985   age120_m62            0.0000     2.1447E-04    15.2665   2.5551   111.2669
 43      0.0000     0.0000E+00    0.0000E+00    2.861200E+08  0.02000  9.013E-04    0   0.6714   age125_m62            0.0000     2.0012E-04    14.6684   2.3008   114.7556
 44      0.0000     0.0000E+00    0.0000E+00    5.088000E+08  0.02000  5.028E-04    0   0.6449   age130_m62            0.0000     1.6379E-04    13.1722   1.9157   118.3948
 45      0.0000     0.0000E+00    0.0000E+00    9.047900E+08  0.02000  2.428E-04    0   0.6179   age135_m62            0.0000     1.2797E-04    11.7735   1.3223   118.2508
 46      0.0000     0.0000E+00    0.0000E+00    1.434000E+09  0.02000  1.263E-04    0   0.5908   age139_m62            0.0000     1.0995E-04    11.0247   0.8765   116.7744
 47      0.0000     0.0000E+00    0.0000E+00    2.500000E+09  0.02000  5.985E-05    0   0.5673   age150_m62            0.0000     8.5387E-05     9.7181   0.5052   115.6848
 48      0.0000     0.0000E+00    0.0000E+00    4.250000E+09  0.02000  3.271E-05    0   0.5468   age158_m62            0.0000     6.5763E-05     8.3959   0.1931   115.2606
 49      0.0000     0.0000E+00    0.0000E+00    1.000000E+10  0.02000  1.360E-05    0   0.5167   age181_m62            0.0000     5.4629E-05     7.5895  -0.1671   115.5178
 50      0.0000     0.0000E+00    0.0000E+00    1.800000E+10  0.02000  7.124E-06    0   0.5013   age213_m62            0.0000     5.0343E-05     7.1438  -0.3863   115.1489
 51      0.0000     0.0000E+00    0.0000E+00    1.000000E+06  0.05000  2.592E-02    0   0.9998   age020_m72            0.0000     2.1344E-04    15.1778   3.9712    97.3978
 52      0.0000     0.0000E+00    0.0000E+00    3.160000E+06  0.05000  4.845E-02    0   0.9577   age045_m72            0.0000     1.9993E-04    14.6740   3.7967    99.7319
 53      0.0000     0.0000E+00    0.0000E+00    5.010000E+06  0.05000  3.072E-02    0   0.9147   age055_m72            0.0000     2.6905E-04    17.3723   3.3016   103.9221
 54      0.0000     0.0000E+00    0.0000E+00    6.610000E+06  0.05000  1.455E-02    0   0.8877   age061_m72            0.0000     4.9981E-04    23.9751   2.5447   108.5083
 55      0.0000     0.0000E+00    0.0000E+00    1.000000E+07  0.05000  9.074E-03    0   0.8524   age070_m72            0.0000     2.9658E-04    17.8879   3.4605   104.0119
 56      0.0000     0.0000E+00    0.0000E+00    2.512000E+07  0.05000  4.250E-03    0   0.7902   age090_m72            0.0000     2.7852E-04    17.4773   3.1716   105.8354
 57      0.0000     0.0000E+00    0.0000E+00    4.000000E+07  0.05000  3.087E-03    0   0.7618   age104_m72            0.0000     2.8586E-04    17.6852   2.9439   107.5349
 58      0.0000     0.0000E+00    0.0000E+00    1.015200E+08  0.05000  1.700E-03    0   0.7096   age116_m72            0.0000     2.3535E-04    15.9966   2.6954   110.6883
 59      0.0000     0.0000E+00    0.0000E+00    2.861200E+08  0.05000  7.384E-04    0   0.6633   age125_m72            0.0000     1.8097E-04    13.9186   2.1633   116.7119
 60      0.0000     0.0000E+00    0.0000E+00    5.088000E+08  0.05000  3.819E-04    0   0.6372   age130_m72            0.0000     1.3713E-04    12.1349   1.6667   119.1859
 61      0.0000     0.0000E+00    0.0000E+00    9.047900E+08  0.05000  1.676E-04    0   0.6110   age135_m72            0.0000     8.9753E-05     9.8611   0.9646   117.8557
 62      0.0000     0.0000E+00    0.0000E+00    1.434000E+09  0.05000  8.837E-05    0   0.5874   age139_m72            0.0000     8.4072E-05     9.5789   0.4998   117.6150
 63      0.0000     0.0000E+00    0.0000E+00    2.500000E+09  0.05000  4.233E-05    0   0.5598   age150_m72            0.0000     6.1593E-05     8.0964   0.1877   116.5470
 64      0.0000     0.0000E+00    0.0000E+00    6.250000E+09  0.05000  1.435E-05    0   0.5249   age166_m72            0.0000     5.1986E-05     7.3086  -0.2677   115.2778
 65     11.3364     7.9043E+00    8.0353E+00    1.300000E+10  0.05000  6.513E-06    0   0.5036   age193_m72            0.0000     4.9495E-05     6.9071  -0.5583   116.9765
 66     86.6851     8.6957E+01    8.6800E+01    1.800000E+10  0.05000  4.527E-06    0   0.4945   age213_m72            0.0000     5.1442E-05     6.8167  -0.7259   117.0815


## Synthesis Results - Average & Chains ##

# j      x_j: min, <> & last-chain-values for 1 ...  7 chains
  1      0.0000      0.2487      0.0089      0.0157      0.0000      0.0000      0.0019      0.1538      0.0000
  2      0.0000      0.3200      0.0000      0.0001      0.0000      0.0241      0.0000      0.0290      0.2566
  3      0.0000      0.2733      0.0000      0.0395      0.0001      0.0054      0.0174      0.0465      0.3737
  4      0.0000      0.1964      0.0000      0.0000      0.0455      0.0000      0.0918      0.0313      0.0750
  5      0.0000      0.2801      0.0395      0.0000      0.0000      0.0128      0.0035      0.1185      0.0564
  6      0.0000      0.2698      0.0455      0.0561      0.0076      0.0023      0.0030      0.0781      0.1043
  7      0.0000      0.3035      0.0000      0.0000      0.0611      0.0218      0.0288      0.0000      0.0441
  8      0.0000      0.2497      0.0005      0.0000      0.0251      0.0612      0.0230      0.0423      0.1200
  9      0.0000      0.2989      0.0566      0.0101      0.0253      0.0326      0.0309      0.0000      0.0000
 10      0.0000      0.2960      0.0278      0.0034      0.0059      0.0693      0.2721      0.0143      1.5435
 11      0.0000      0.2854      0.0081      0.0188      0.0492      0.0855      0.0080      0.1978      2.1086
 12      0.0000      0.1952      0.0000      0.0034      0.0000      0.0420      0.0000      0.0359      0.0000
 13      0.0000      0.2284      0.0000      0.0425      0.0054      0.0246      0.1143      0.0000      0.7110
 14      0.0000      0.2164      0.0000      0.0067      0.0084      0.0362      0.0057      0.0862      0.6238
 15      0.0000      0.2611      0.0380      0.0173      0.0028      0.0398      0.1196      0.2000      1.2627
 16      3.7945     17.5735     20.0035     19.2555     17.6810     19.7820     19.1871     19.4028     18.2875
 17     14.3717     39.4416     42.2066     35.8993     27.9891     53.3306     51.2874     58.7540     37.9917
 18      0.0000      0.3299      0.0000      0.0003      0.0350      0.1915      0.0739      0.1102      0.0000
 19      0.0000      0.2314      0.0000      0.0000      0.0329      0.0871      0.0027      0.0000      0.0000
 20      0.0000      0.2818      0.0136      0.0101      0.0000      0.0098      0.1715      0.2310      0.0000
 21      0.0000      0.2749      0.0000      0.0541      0.0000      0.1476      0.0000      0.0281      0.3980
 22      0.0000      0.1916      0.0061      0.0051      0.0000      0.0689      0.1475      0.0492      0.0000
 23      0.0000      0.2287      0.0196      0.0059      0.0479      0.1034      0.1020      0.0000      0.0000
 24      0.0000      0.2018      0.0000      0.0198      0.0032      0.0274      0.1050      0.1087      0.1376
 25      0.0000      0.2398      0.0000      0.0292      0.0747      0.1838      0.1116      0.0635      0.0000
 26      0.0000      0.3273      0.0115      0.0394      0.0717      0.0000      0.0000      0.0000      1.1124
 27      0.0000      0.2826      0.0000      0.0072      0.0000      0.0561      0.0336      0.0000      0.0000
 28      0.0000      0.2190      0.0308      0.0000      0.0203      0.0889      0.0983      0.0397      0.2900
 29      0.0000      0.2352      0.0000      0.0016      0.0096      0.0000      0.0300      0.0278      0.0000
 30      0.0000      2.4706      0.0741      4.6401      4.6289      2.6525      2.4123      2.8816      3.0290
 31      0.0000      0.2049      0.0000      0.0290      0.0252      0.0551      0.2300      0.1572      0.6507
 32      0.0000      0.2147      0.0152      0.0200      0.0604      0.1205      0.0680      0.0092      0.3289
 33      0.0000      0.1836      0.0000      0.0000      0.0000      0.1636      0.0000      0.0398      0.6368
 34      0.0000      0.2573      0.0000      0.0196      0.0000      0.0705      0.5692      0.0282      0.2194
 35      0.0000      0.2324      0.0000      0.0031      0.0128      0.0839      0.0000      0.0956      0.8547
 36      0.0000      0.2904      0.0468      0.0116      0.0015      0.0000      0.0204      0.0805      0.5832
 37      0.0000      0.2387      0.0164      0.0206      0.0000      0.0490      0.0169      0.0000      0.0000
 38      0.0000      0.3196      0.0000      0.0036      0.0023      0.2298      0.1020      0.0260      2.2787
 39      0.0000      0.3540      0.0630      0.0000      0.0023      0.0000      0.0468      0.1070      0.5137
 40      0.0000      0.2692      0.0014      0.0514      0.0000      0.1760      0.1244      0.1585      0.8054
 41      0.0000      0.1931      0.0096      0.0170      0.0000      0.0000      0.0365      0.0000      0.0000
 42      0.0000      0.2268      0.0135      0.0153      0.0067      0.0182      0.0339      0.0157      0.0000
 43      0.0000      0.2464      0.0100      0.0153      0.0000      0.1004      0.0121      0.0362      0.0000
 44      0.0000      0.2315      0.0000      0.0202      0.0480      0.2066      0.0506      0.0878      0.0000
 45      0.0000      0.2524      0.0000      0.0269      0.0000      0.1485      0.3244      0.2584      0.2795
 46      0.0000      0.2569      0.0965      0.0386      0.0000      0.0444      0.0000      0.0196      0.0000
