###################################################################
## OUTPUT of StarlightChains_v04.for    [Cid@UFSC - 01/Apr/2007] ##
###################################################################

## Some input info
KUG0210-078._35_36.txt                   [arq_obs]
Base.CB07.vall.4m                        [arq_base]
Masks.EmLines.NEW.gm                     [arq_masks]
StCv04.C11.config                        [arq_config]
   66                                    [N_base]
    0                                    [N_YAV_components = # of components with extra extinction!]
    0                                    [i_FitPowerLaw (1/0 = Yes/No)]
-9.99                                    [alpha_PowerLaw]
CCM                                      [red_law_option]
 1.458241                                [q_norm = A(l_norm)/A(V)]

## (Re)Sampling Parameters
 3741.00                                 [l_ini (A)]
 7218.00                                 [l_fin (A)]
    1.00                                 [dl    (A)]     (OBS: dl_cushion =    50.00 A)

## Normalization info
 4020.00                                 [l_norm (A) - for base]
 4010.00                                 [llow_norm (A) - window for f_obs]
 4060.00                                 [lupp_norm (A) - window for f_obs]
2.344836E-17                             [fobs_norm (in input units)]

## S/N
 3691.00                                 [llow_SN (A) - window for S/N]
 7268.00                                 [lupp_SN (A) - window for S/N]
   3.808                                 [S/N in S/N window]
   2.456                                 [S/N in norm. window]
   0.045                                 [S/N_err in S/N window]
   0.029                                 [S/N_err in norm. window]
  1.0000                                 [fscale_chi2]

## etc...
    -2007571                             [idum_orig]
  2432                                   [NOl_eff]
  2405                                   [Nl_eff]
    27    NSIGMA                         [Ntot_cliped & clip_method]
  6552000                                [Nglobal_steps]
   7                                     [N_chains]
  33                                     [NEX0s_base = N_base in EX0s-fits]
 0   0   1       27   2.0   5.094E+03    [Clip-Bug, RC-Crash & Burn-In warning-flags, n_censored_weights, wei_nsig_threshold & wei_limit]
    67     66.728     66.275      0.453  [idt_all, wdt_TotTime, wdt_UsrTime & wdt_SysTime (sec)]

## Synthesis Results - Best model ##

 1.40899E-05                             [chi2/Nl_eff]
     6.43349                             [adev (%)]

   111.10461                             [sum-of-x (%)]
 3.59541E-17                             [Flux_tot (units of input spectrum!)]
 2.70112E-12                             [Mini_tot (???)]
 1.37432E-12                             [Mcor_tot (???)]

 -15.52                                  [v0_min  (km/s)]
 330.07                                  [vd_min  (km/s)]
 0.2399                                  [AV_min  (mag)]
 0.0000                                  [YAV_min (mag)]

# j     x_j(%)      Mini_j(%)     Mcor_j(%)     age_j(yr)     Z_j      (L/M)_j    YAV?  Mstars   component_j        a/Fe...       SSP_chi2r SSP_adev(%)   SSP_AV   SSP_x(%)
  1      0.0000     0.0000E+00    0.0000E+00    1.000000E+06  0.00400  1.094E-02    0   1.0000   age020_m42            0.0000     5.4060E-05    13.7240   4.0000    98.9483
  2      0.0000     0.0000E+00    0.0000E+00    3.160000E+06  0.00400  4.007E-02    0   0.9999   age045_m42            0.0000     4.1129E-05    11.6920   3.4427    98.7101
  3      0.1376     6.4920E-05    1.2106E-04    5.010000E+06  0.00400  2.539E-02    0   0.9488   age055_m42            0.0000     4.4604E-05    12.1820   3.7679    96.2304
  4      0.0000     0.0000E+00    0.0000E+00    6.610000E+06  0.00400  2.620E-02    0   0.9220   age061_m42            0.0000     4.1216E-05    11.7133   3.3687    98.9000
  5      0.0000     0.0000E+00    0.0000E+00    1.000000E+07  0.00400  1.322E-02    0   0.8862   age070_m42            0.0000     4.8720E-05    13.1434   3.0806   100.6187
  6      0.0000     0.0000E+00    0.0000E+00    1.445000E+07  0.00400  7.883E-03    0   0.8571   age078_m42            0.0000     4.9971E-05    13.3045   3.4103    98.1479
  7      2.2933     5.2322E-03    8.4057E-03    2.512000E+07  0.00400  5.251E-03    0   0.8174   age090_m42            0.0000     4.9866E-05    13.3692   2.9498   101.1336
  8      0.7469     2.4521E-03    3.7837E-03    4.000000E+07  0.00400  3.649E-03    0   0.7851   age104_m42            0.0000     4.7315E-05    12.9712   2.7214   102.0487
  9      0.0000     0.0000E+00    0.0000E+00    5.500000E+07  0.00400  3.098E-03    0   0.7629   age110_m42            0.0000     4.2872E-05    12.0966   2.8781   102.2008
 10      2.4820     1.3346E-02    1.8905E-02    1.015200E+08  0.00400  2.228E-03    0   0.7207   age116_m42            0.0000     4.0063E-05    11.4814   2.8987   102.5257
 11      0.0000     0.0000E+00    0.0000E+00    2.861200E+08  0.00400  1.093E-03    0   0.6648   age125_m42            0.0000     4.1316E-05    11.9073   2.3177   105.6383
 12      4.0911     7.4297E-02    9.2945E-02    5.088000E+08  0.00400  6.597E-04    0   0.6365   age130_m42            0.0000     3.6038E-05    10.8051   2.3104   106.7157
 13      0.0000     0.0000E+00    0.0000E+00    1.434000E+09  0.00400  2.132E-04    0   0.5798   age139_m42            0.0000     2.8431E-05     9.5738   1.3347   109.1353
 14      0.9227     1.8753E-01    1.9818E-01    4.250000E+09  0.00400  5.895E-05    0   0.5377   age158_m42            0.0000     2.3183E-05     8.7002   0.8962   105.4520
 15      0.0000     0.0000E+00    0.0000E+00    7.500000E+09  0.00400  3.510E-05    0   0.5212   age171_m42            0.0000     2.1193E-05     8.2644   0.7080   104.9623
 16      0.0000     0.0000E+00    0.0000E+00    1.300000E+10  0.00400  2.005E-05    0   0.5034   age193_m42            0.0000     1.9993E-05     7.9838   0.5443   104.5074
 17      0.0000     0.0000E+00    0.0000E+00    1.800000E+10  0.00400  1.525E-05    0   0.4967   age213_m42            0.0000     2.0583E-05     8.1231   0.5197   104.0371
 18      0.0000     0.0000E+00    0.0000E+00    1.000000E+06  0.00800  1.238E-02    0   1.0000   age020_m52            0.0000     5.3771E-05    13.6830   4.0000    99.0098
 19      0.0000     0.0000E+00    0.0000E+00    3.160000E+06  0.00800  3.074E-02    0   0.9966   age045_m52            0.0000     4.9583E-05    12.9673   4.0000    96.9924
 20      0.0000     0.0000E+00    0.0000E+00    5.010000E+06  0.00800  2.668E-02    0   0.9443   age055_m52            0.0000     4.5719E-05    12.3364   3.8507    95.3676
 21      0.0000     0.0000E+00    0.0000E+00    6.610000E+06  0.00800  2.136E-02    0   0.9177   age061_m52            0.0000     4.4990E-05    12.7683   2.5831   101.9258
 22      0.0000     0.0000E+00    0.0000E+00    1.000000E+07  0.00800  1.215E-02    0   0.8827   age070_m52            0.0000     5.2809E-05    13.8341   3.2527   100.4142
 23      0.0000     0.0000E+00    0.0000E+00    1.445000E+07  0.00800  8.717E-03    0   0.8552   age078_m52            0.0000     4.9499E-05    13.2177   3.3710    99.5681
 24      0.0000     0.0000E+00    0.0000E+00    2.512000E+07  0.00800  5.592E-03    0   0.8162   age090_m52            0.0000     5.0309E-05    13.4101   3.0060   102.4037
 25      0.0000     0.0000E+00    0.0000E+00    4.000000E+07  0.00800  3.896E-03    0   0.7841   age104_m52            0.0000     4.6980E-05    12.8944   2.9188   103.2875
 26      0.0000     0.0000E+00    0.0000E+00    1.015200E+08  0.00800  2.148E-03    0   0.7226   age116_m52            0.0000     4.1377E-05    11.8717   2.8594   103.3888
 27      0.0000     0.0000E+00    0.0000E+00    2.861200E+08  0.00800  9.925E-04    0   0.6683   age125_m52            0.0000     3.5866E-05    10.7456   2.3711   107.8235
 28      0.0000     0.0000E+00    0.0000E+00    9.047900E+08  0.00800  3.141E-04    0   0.6138   age135_m52            0.0000     2.6190E-05     9.0990   1.5645   112.8479
 29      0.0000     0.0000E+00    0.0000E+00    1.434000E+09  0.00800  1.719E-04    0   0.5853   age139_m52            0.0000     2.4335E-05     9.0748   0.9770   110.8537
 30      3.8040     5.7894E-01    6.3720E-01    2.500000E+09  0.00800  7.872E-05    0   0.5600   age150_m52            0.0000     1.9028E-05     7.8132   0.7193   108.2465
 31      0.0000     0.0000E+00    0.0000E+00    4.250000E+09  0.00800  4.336E-05    0   0.5426   age158_m52            0.0000     1.9158E-05     7.8447   0.7057   107.2636
 32      0.0000     0.0000E+00    0.0000E+00    6.250000E+09  0.00800  3.159E-05    0   0.5319   age166_m52            0.0000     1.6893E-05     7.2295   0.5028   107.5734
 33     13.2862     1.1695E+01    1.1661E+01    1.300000E+10  0.00800  1.361E-05    0   0.5073   age193_m52            0.0000     1.4879E-05     6.5476   0.0350   107.2067
 34      0.0000     0.0000E+00    0.0000E+00    1.800000E+10  0.00800  9.886E-06    0   0.4990   age213_m52            0.0000     1.4008E-05     6.2169  -0.0746   107.0152
 35      0.0000     0.0000E+00    0.0000E+00    1.000000E+06  0.02000  1.544E-02    0   1.0000   age020_m62            0.0000     5.3739E-05    13.6680   4.0000    99.1127
 36      0.6043     1.9246E-04    3.7289E-04    3.160000E+06  0.02000  3.762E-02    0   0.9858   age045_m62            0.0000     5.0695E-05    13.1558   4.0000    97.6478
 37      0.0000     0.0000E+00    0.0000E+00    5.010000E+06  0.02000  3.296E-02    0   0.9342   age055_m62            0.0000     4.2170E-05    11.7691   3.7273    97.5032
 38      3.1840     3.3055E-03    5.7567E-03    8.710000E+06  0.02000  1.154E-02    0   0.8861   age067_m62            0.0000     7.8785E-05    17.8717   2.6881   102.5393
 39      0.0000     0.0000E+00    0.0000E+00    1.445000E+07  0.02000  7.663E-03    0   0.8472   age078_m62            0.0000     5.8989E-05    15.0057   2.8877   102.6067
 40      0.0000     0.0000E+00    0.0000E+00    2.512000E+07  0.02000  4.532E-03    0   0.8099   age090_m62            0.0000     6.0438E-05    15.2144   2.8772   102.2880
 41      0.0000     0.0000E+00    0.0000E+00    5.500000E+07  0.02000  2.733E-03    0   0.7595   age110_m62            0.0000     4.6735E-05    12.8839   2.9046   102.5699
 42      0.0000     0.0000E+00    0.0000E+00    1.609000E+08  0.02000  1.369E-03    0   0.6985   age120_m62            0.0000     3.9315E-05    11.3754   2.7429   105.7319
 43      0.0000     0.0000E+00    0.0000E+00    2.861200E+08  0.02000  9.013E-04    0   0.6714   age125_m62            0.0000     3.5426E-05    10.4737   2.4894   108.9824
 44      0.0000     0.0000E+00    0.0000E+00    5.088000E+08  0.02000  5.028E-04    0   0.6449   age130_m62            0.0000     2.8170E-05     9.0896   2.1108   112.2459
 45      0.0000     0.0000E+00    0.0000E+00    9.047900E+08  0.02000  2.428E-04    0   0.6179   age135_m62            0.0000     2.1775E-05     8.2595   1.5202   112.1607
 46      0.0000     0.0000E+00    0.0000E+00    1.434000E+09  0.02000  1.263E-04    0   0.5908   age139_m62            0.0000     1.9476E-05     7.8993   1.0752   110.8245
 47      0.0000     0.0000E+00    0.0000E+00    2.500000E+09  0.02000  5.985E-05    0   0.5673   age150_m62            0.0000     1.6574E-05     7.1433   0.7080   109.7921
 48      0.0000     0.0000E+00    0.0000E+00    4.250000E+09  0.02000  3.271E-05    0   0.5468   age158_m62            0.0000     1.3940E-05     6.3550   0.4035   109.3339
 49     38.9948     3.4351E+01    3.4885E+01    1.000000E+10  0.02000  1.360E-05    0   0.5167   age181_m62            0.0000     1.3123E-05     5.8975   0.0519   109.4893
 50      0.0000     0.0000E+00    0.0000E+00    1.800000E+10  0.02000  7.124E-06    0   0.5013   age213_m62            0.0000     1.3849E-05     5.9058  -0.1622   109.0966
 51      0.0000     0.0000E+00    0.0000E+00    1.000000E+06  0.05000  2.592E-02    0   0.9998   age020_m72            0.0000     5.4280E-05    13.7122   4.0000    98.8418
 52      0.0000     0.0000E+00    0.0000E+00    3.160000E+06  0.05000  4.845E-02    0   0.9577   age045_m72            0.0000     4.5845E-05    12.2813   3.9904    94.8508
 53      0.0000     0.0000E+00    0.0000E+00    5.010000E+06  0.05000  3.072E-02    0   0.9147   age055_m72            0.0000     5.5648E-05    14.3690   3.4760    99.0386
 54      0.0000     0.0000E+00    0.0000E+00    6.610000E+06  0.05000  1.455E-02    0   0.8877   age061_m72            0.0000     1.0399E-04    21.1987   2.6895   103.5418
 55      0.0000     0.0000E+00    0.0000E+00    1.000000E+07  0.05000  9.074E-03    0   0.8524   age070_m72            0.0000     6.1014E-05    15.2878   3.6470    98.9576
 56      0.0000     0.0000E+00    0.0000E+00    2.512000E+07  0.05000  4.250E-03    0   0.7902   age090_m72            0.0000     5.5260E-05    14.3497   3.3496   100.6905
 57      0.0000     0.0000E+00    0.0000E+00    4.000000E+07  0.05000  3.087E-03    0   0.7618   age104_m72            0.0000     5.5849E-05    14.4402   3.1142   102.3939
 58      0.0000     0.0000E+00    0.0000E+00    1.015200E+08  0.05000  1.700E-03    0   0.7096   age116_m72            0.0000     4.3726E-05    12.1230   2.8744   105.2771
 59      0.6610     1.0724E-02    1.3980E-02    2.861200E+08  0.05000  7.384E-04    0   0.6633   age125_m72            0.0000     3.1118E-05     9.6784   2.3547   110.7878
 60      0.0000     0.0000E+00    0.0000E+00    5.088000E+08  0.05000  3.819E-04    0   0.6372   age130_m72            0.0000     2.3104E-05     8.3014   1.8663   113.0259
 61     14.1247     1.0097E+00    1.2125E+00    9.047900E+08  0.05000  1.676E-04    0   0.6110   age135_m72            0.0000     1.6938E-05     7.1268   1.1715   111.7197
 62      0.0000     0.0000E+00    0.0000E+00    1.434000E+09  0.05000  8.837E-05    0   0.5874   age139_m72            0.0000     1.6162E-05     7.0053   0.7034   111.5948
 63      0.0000     0.0000E+00    0.0000E+00    2.500000E+09  0.05000  4.233E-05    0   0.5598   age150_m72            0.0000     1.3640E-05     6.2338   0.3971   110.5896
 64      0.0000     0.0000E+00    0.0000E+00    6.250000E+09  0.05000  1.435E-05    0   0.5249   age166_m72            0.0000     1.3245E-05     5.9397  -0.0509   109.3526
 65     19.9962     3.6782E+01    3.6406E+01    1.300000E+10  0.05000  6.513E-06    0   0.5036   age193_m72            0.0000     1.4828E-05     6.1538  -0.3353   110.9020
 66      5.7758     1.5285E+01    1.4856E+01    1.800000E+10  0.05000  4.527E-06    0   0.4945   age213_m72            0.0000     1.6852E-05     6.4998  -0.4984   110.9188


## Synthesis Results - Average & Chains ##

# j      x_j: min, <> & last-chain-values for 1 ...  7 chains
  1      0.0000      0.1879      0.0076      0.0000      0.0611      0.0000      0.0467      0.0078      0.1241
  2      0.0000      0.2285      0.0000      0.0012      0.3303      0.0360      0.0095      0.0166      0.0000
  3      0.1376      0.1998      0.0000      0.0069      0.0000      0.0000      0.2080      0.0212      0.9645
  4      0.0000      0.1928      0.0000      0.0293      0.0000      0.0000      0.0523      0.0000      0.0000
  5      0.0000      0.2234      0.0000      0.0000      0.2307      0.0643      0.0000      0.0983      0.0480
  6      0.0000      0.1844      0.0141      0.0157      0.1059      0.0898      0.1066      0.0477      0.0000
  7      2.2933      0.3033      0.0777      0.1254      0.1244      0.0192      0.2099      0.1132      1.2180
  8      0.7469      2.6222      2.8971      2.6616      2.5264      2.9623      2.6391      2.8349      2.5062
  9      0.0000      4.8219      5.8266      4.6991      3.5558      5.2565      4.6778      5.0967      3.9508
 10      2.4820      2.3580      2.6665      2.4560      1.8782      2.2015      2.5228      1.9675      2.9223
 11      0.0000      0.1861      0.0150      0.0094      0.2722      0.0271      0.0000      0.0000      0.0326
 12      4.0911      0.2055      0.0491      0.0118      0.0000      0.0142      0.2980      0.0513      2.0545
 13      0.0000      0.2283      0.0868      0.0013      0.0000      0.0811      0.0789      0.0000      0.0000
 14      0.9227     25.1350     27.9467     27.5334     26.9170     26.7455     26.6815     27.4511     19.7967
 15      0.0000      1.0757      1.1736      1.6298      0.5997      1.1153      0.9337      1.2078      1.1414
 16      0.0000      7.9425      8.6528      8.1734      7.9802      8.4814      7.9055      8.5228      9.5089
 17      0.0000     35.2513     37.1907     38.3014     35.4874     38.3285     37.4038     37.8776     34.4051
 18      0.0000      0.1805      0.0006      0.0037      0.4524      0.0096      0.1926      0.1420      0.6384
 19      0.0000      0.2017      0.0110      0.0000      0.0000      0.0000      0.0348      0.0933      0.0000
 20      0.0000      0.2121      0.0001      0.0079      0.0000      0.1100      0.0000      0.0216      0.0000
 21      0.0000      0.2544      0.0189      0.0166      0.2852      0.0000      0.3241      0.0000      0.3043
 22      0.0000      0.1690      0.0310      0.0000      0.1015      0.0292      0.0000      0.0000      0.0000
 23      0.0000      0.2367      0.0050      0.0382      0.0634      0.0000      0.3755      0.0000      1.3508
 24      0.0000      0.2106      0.0074      0.0000      0.1825      0.0000      0.1810      0.0798      0.3503
 25      0.0000      0.6300      0.6704      0.6391      0.7086      0.4826      0.7341      0.6835      0.0000
 26      0.0000      1.5230      1.5397      1.6067      1.6268      1.5406      1.4856      1.5707      1.0747
 27      0.0000      0.2407      0.1170      0.0819      0.3697      0.0418      0.0000      0.0000      0.8294
 28      0.0000      0.1525      0.0785      0.0056      0.0081      0.0677      0.0339      0.0000      0.0959
 29      0.0000      0.1851      0.0077      0.0050      0.2397      0.0013      0.1316      0.1660      0.2197
 30      3.8040      0.2350      0.0154      0.0000      0.3207      0.0059      0.0000      0.1247      0.6705
 31      0.0000      0.2144      0.0111      0.0103      0.0000      0.0573      0.1469      0.2398      0.0665
 32      0.0000      0.2082      0.0108      0.0000      0.4121      0.0257      0.0552      0.0000      0.0000
 33     13.2862      0.2342      0.0845      0.0771      0.3415      0.0000      0.3574      0.1830      0.4395
 34      0.0000      0.1559      0.0915      0.0077      0.1645      0.0425      0.1417      0.0000      0.0000
 35      0.0000      0.1740      0.0000      0.0086      0.1619      0.0238      0.0000      0.0160      0.5440
 36      0.6043      0.1716      0.0142      0.0000      0.0614      0.0828      0.0234      0.0000      0.2757
 37      0.0000      0.2439      0.0000      0.0000      0.0000      0.0000      0.6832      0.0150      0.0000
 38      3.1840      0.1984      0.0000      0.0413      0.0934      0.0229      0.0000      0.0203      0.4011
 39      0.0000      0.1189      0.0016      0.0481      0.0000      0.0914      0.0000      0.0000      0.0566
 40      0.0000      0.1628      0.0152      0.0007      0.0000      0.0066      0.0000      0.0326      0.2557
 41      0.0000      0.2919      0.0607      0.0000      0.1204      0.2280      0.1311      0.0605      0.1639
 42      0.0000      0.2547      0.0006      0.0000      0.2056      0.2267      0.2564      0.0690      0.0000
 43      0.0000      0.2438      0.0000      0.0013      0.2592      0.0859      0.1527      0.1830      0.6935
 44      0.0000      0.1726      0.0737      0.0000      0.3993      0.0050      0.0000      0.0767      0.0813
 45      0.0000      7.7259      8.3681      8.9603      8.5177      8.0902      7.7703      8.1838      7.3601
 46      0.0000      0.2312      0.0588      0.0354      0.0000      0.1193      0.2383      0.0426      0.4173
