###################################################################
## OUTPUT of StarlightChains_v04.for    [Cid@UFSC - 01/Apr/2007] ##
###################################################################

## Some input info
KUG0210-078._35_22.txt                   [arq_obs]
Base.CB07.vall.4m                        [arq_base]
Masks.EmLines.NEW.gm                     [arq_masks]
StCv04.C11.config                        [arq_config]
   66                                    [N_base]
    0                                    [N_YAV_components = # of components with extra extinction!]
    0                                    [i_FitPowerLaw (1/0 = Yes/No)]
-9.99                                    [alpha_PowerLaw]
CCM                                      [red_law_option]
 1.458241                                [q_norm = A(l_norm)/A(V)]

## (Re)Sampling Parameters
 3741.00                                 [l_ini (A)]
 7218.00                                 [l_fin (A)]
    1.00                                 [dl    (A)]     (OBS: dl_cushion =    50.00 A)

## Normalization info
 4020.00                                 [l_norm (A) - for base]
 4010.00                                 [llow_norm (A) - window for f_obs]
 4060.00                                 [lupp_norm (A) - window for f_obs]
7.983803E-18                             [fobs_norm (in input units)]

## S/N
 3691.00                                 [llow_SN (A) - window for S/N]
 7268.00                                 [lupp_SN (A) - window for S/N]
   3.013                                 [S/N in S/N window]
   3.631                                 [S/N in norm. window]
   0.009                                 [S/N_err in S/N window]
   0.011                                 [S/N_err in norm. window]
  1.0000                                 [fscale_chi2]

## etc...
    -2007557                             [idum_orig]
  2404                                   [NOl_eff]
  1914                                   [Nl_eff]
   490    NSIGMA                         [Ntot_cliped & clip_method]
 11452350                                [Nglobal_steps]
   7                                     [N_chains]
  39                                     [NEX0s_base = N_base in EX0s-fits]
 0   0   1        0   2.0   7.935E+03    [Clip-Bug, RC-Crash & Burn-In warning-flags, n_censored_weights, wei_nsig_threshold & wei_limit]
    78     77.473     76.902      0.571  [idt_all, wdt_TotTime, wdt_UsrTime & wdt_SysTime (sec)]

## Synthesis Results - Best model ##

 8.70760E-06                             [chi2/Nl_eff]
    43.85578                             [adev (%)]

   107.99123                             [sum-of-x (%)]
 5.77144E-18                             [Flux_tot (units of input spectrum!)]
 9.94637E-14                             [Mini_tot (???)]
 5.16235E-14                             [Mcor_tot (???)]

-257.75                                  [v0_min  (km/s)]
  49.24                                  [vd_min  (km/s)]
-0.2988                                  [AV_min  (mag)]
 0.0000                                  [YAV_min (mag)]

# j     x_j(%)      Mini_j(%)     Mcor_j(%)     age_j(yr)     Z_j      (L/M)_j    YAV?  Mstars   component_j        a/Fe...       SSP_chi2r SSP_adev(%)   SSP_AV   SSP_x(%)
  1      0.0080     3.9236E-05    7.5596E-05    1.000000E+06  0.00400  1.094E-02    0   1.0000   age020_m42            0.0000     9.2206E-06    46.5703   2.3702    96.6217
  2      0.4180     5.6053E-04    1.0799E-03    3.160000E+06  0.00400  4.007E-02    0   0.9999   age045_m42            0.0000     9.1084E-06    45.7764   1.7238    99.9407
  3      0.0000     0.0000E+00    0.0000E+00    5.010000E+06  0.00400  2.539E-02    0   0.9488   age055_m42            0.0000     9.1704E-06    46.1952   2.0066    99.0132
  4      0.0000     0.0000E+00    0.0000E+00    6.610000E+06  0.00400  2.620E-02    0   0.9220   age061_m42            0.0000     9.0996E-06    45.8146   1.6503   100.2308
  5      0.0000     0.0000E+00    0.0000E+00    1.000000E+07  0.00400  1.322E-02    0   0.8862   age070_m42            0.0000     9.0077E-06    45.5314   1.3584   103.4658
  6      0.0000     0.0000E+00    0.0000E+00    1.445000E+07  0.00400  7.883E-03    0   0.8571   age078_m42            0.0000     9.0720E-06    45.8991   1.6667   101.5074
  7      0.0000     0.0000E+00    0.0000E+00    2.512000E+07  0.00400  5.251E-03    0   0.8174   age090_m42            0.0000     8.9817E-06    45.4945   1.2328   103.9861
  8      0.9800     1.4430E-02    2.1828E-02    4.000000E+07  0.00400  3.649E-03    0   0.7851   age104_m42            0.0000     8.9625E-06    45.3177   1.0180   104.2253
  9      0.0000     0.0000E+00    0.0000E+00    5.500000E+07  0.00400  3.098E-03    0   0.7629   age110_m42            0.0000     8.9889E-06    45.2425   1.1871   103.2268
 10      0.1962     4.7321E-03    6.5710E-03    1.015200E+08  0.00400  2.228E-03    0   0.7207   age116_m42            0.0000     8.9906E-06    45.1863   1.2218   102.6702
 11      0.0000     0.0000E+00    0.0000E+00    2.861200E+08  0.00400  1.093E-03    0   0.6648   age125_m42            0.0000     8.9337E-06    45.1076   0.6614   105.4939
 12      0.0736     5.9944E-03    7.3512E-03    5.088000E+08  0.00400  6.597E-04    0   0.6365   age130_m42            0.0000     8.9373E-06    44.8056   0.6692   105.3322
 13      0.0000     0.0000E+00    0.0000E+00    1.434000E+09  0.00400  2.132E-04    0   0.5798   age139_m42            0.0000     8.7731E-06    43.8579  -0.2829   106.2412
 14      3.9191     3.5722E+00    3.7008E+00    4.250000E+09  0.00400  5.895E-05    0   0.5377   age158_m42            0.0000     8.8719E-06    44.2542  -0.7345   102.0198
 15      0.0000     0.0000E+00    0.0000E+00    7.500000E+09  0.00400  3.510E-05    0   0.5212   age171_m42            0.0000     8.9418E-06    44.1449  -0.9223   101.0599
 16      0.0000     0.0000E+00    0.0000E+00    1.300000E+10  0.00400  2.005E-05    0   0.5034   age193_m42            0.0000     9.0624E-06    43.3130  -1.0000    97.9474
 17      0.0000     0.0000E+00    0.0000E+00    1.800000E+10  0.00400  1.525E-05    0   0.4967   age213_m42            0.0000     9.0649E-06    43.2242  -1.0000    96.9563
 18      0.0000     0.0000E+00    0.0000E+00    1.000000E+06  0.00800  1.238E-02    0   1.0000   age020_m52            0.0000     9.2131E-06    46.5521   2.3665    96.8058
 19      0.0000     0.0000E+00    0.0000E+00    3.160000E+06  0.00800  3.074E-02    0   0.9966   age045_m52            0.0000     9.2083E-06    46.5742   2.2948    97.4519
 20      0.7887     1.5883E-03    2.8898E-03    5.010000E+06  0.00800  2.668E-02    0   0.9443   age055_m52            0.0000     9.1669E-06    46.3317   2.0792    98.5725
 21      2.5906     6.5168E-03    1.1523E-02    6.610000E+06  0.00800  2.136E-02    0   0.9177   age061_m52            0.0000     8.9477E-06    45.3105   0.8385   105.2917
 22      0.0000     0.0000E+00    0.0000E+00    1.000000E+07  0.00800  1.215E-02    0   0.8827   age070_m52            0.0000     9.0019E-06    45.7460   1.5256   103.9049
 23      0.0000     0.0000E+00    0.0000E+00    1.445000E+07  0.00800  8.717E-03    0   0.8552   age078_m52            0.0000     9.0154E-06    45.7854   1.6393   102.6753
 24      0.0000     0.0000E+00    0.0000E+00    2.512000E+07  0.00800  5.592E-03    0   0.8162   age090_m52            0.0000     8.9388E-06    45.4331   1.3054   104.8693
 25      0.0000     0.0000E+00    0.0000E+00    4.000000E+07  0.00800  3.896E-03    0   0.7841   age104_m52            0.0000     8.9451E-06    45.3418   1.2359   104.6853
 26      0.0000     0.0000E+00    0.0000E+00    1.015200E+08  0.00800  2.148E-03    0   0.7226   age116_m52            0.0000     8.9552E-06    45.2936   1.1921   103.5132
 27      0.0000     0.0000E+00    0.0000E+00    2.861200E+08  0.00800  9.925E-04    0   0.6683   age125_m52            0.0000     8.8834E-06    44.6094   0.7396   106.0909
 28      0.0000     0.0000E+00    0.0000E+00    9.047900E+08  0.00800  3.141E-04    0   0.6138   age135_m52            0.0000     8.8176E-06    43.8797  -0.0009   107.2380
 29     39.8980     1.2471E+01    1.4064E+01    1.434000E+09  0.00800  1.719E-04    0   0.5853   age139_m52            0.0000     8.7485E-06    44.0008  -0.6034   105.7934
 30      0.0000     0.0000E+00    0.0000E+00    2.500000E+09  0.00800  7.872E-05    0   0.5600   age150_m52            0.0000     8.8730E-06    43.7973  -0.8754   102.5218
 31      0.0297     3.6779E-02    3.8450E-02    4.250000E+09  0.00800  4.336E-05    0   0.5426   age158_m52            0.0000     8.9295E-06    43.9540  -0.8916   101.5985
 32      0.6212     1.0566E+00    1.0828E+00    6.250000E+09  0.00800  3.159E-05    0   0.5319   age166_m52            0.0000     9.0504E-06    42.9634  -1.0000    98.6333
 33      0.0000     0.0000E+00    0.0000E+00    1.300000E+10  0.00800  1.361E-05    0   0.5073   age193_m52            0.0000     9.8227E-06    41.3515  -1.0000    84.8327
 34      0.3259     1.7711E+00    1.7027E+00    1.800000E+10  0.00800  9.886E-06    0   0.4990   age213_m52            0.0000     1.0180E-05    41.1845  -1.0000    81.2280
 35      0.6609     2.3000E-03    4.4314E-03    1.000000E+06  0.02000  1.544E-02    0   1.0000   age020_m62            0.0000     9.2052E-06    46.5622   2.3583    97.1951
 36      0.0000     0.0000E+00    0.0000E+00    3.160000E+06  0.02000  3.762E-02    0   0.9858   age045_m62            0.0000     9.2177E-06    46.7012   2.2912    98.2356
 37      0.0000     0.0000E+00    0.0000E+00    5.010000E+06  0.02000  3.296E-02    0   0.9342   age055_m62            0.0000     9.1298E-06    46.1115   1.9755    99.8032
 38     31.4335     1.4636E-01    2.4987E-01    8.710000E+06  0.02000  1.154E-02    0   0.8861   age067_m62            0.0000     8.8773E-06    45.9529   0.9259   110.5668
 39      0.0000     0.0000E+00    0.0000E+00    1.445000E+07  0.02000  7.663E-03    0   0.8472   age078_m62            0.0000     8.9032E-06    45.6669   1.1633   107.0385
 40      0.0000     0.0000E+00    0.0000E+00    2.512000E+07  0.02000  4.532E-03    0   0.8099   age090_m62            0.0000     8.9200E-06    45.7857   1.1611   106.5578
 41      0.0000     0.0000E+00    0.0000E+00    5.500000E+07  0.02000  2.733E-03    0   0.7595   age110_m62            0.0000     8.9137E-06    45.3586   1.2077   104.4322
 42      0.0000     0.0000E+00    0.0000E+00    1.609000E+08  0.02000  1.369E-03    0   0.6985   age120_m62            0.0000     8.8958E-06    44.8972   1.0834   105.2978
 43      0.0210     1.2547E-03    1.6231E-03    2.861200E+08  0.02000  9.013E-04    0   0.6714   age125_m62            0.0000     8.8582E-06    44.3501   0.8610   106.9120
 44      0.0000     0.0000E+00    0.0000E+00    5.088000E+08  0.02000  5.028E-04    0   0.6449   age130_m62            0.0000     8.8685E-06    43.8945   0.5279   107.2219
 45      0.0000     0.0000E+00    0.0000E+00    9.047900E+08  0.02000  2.428E-04    0   0.6179   age135_m62            0.0000     8.7699E-06    43.8636  -0.0426   105.5135
 46      0.0000     0.0000E+00    0.0000E+00    1.434000E+09  0.02000  1.263E-04    0   0.5908   age139_m62            0.0000     8.7655E-06    43.8468  -0.4996   104.1819
 47      0.0000     0.0000E+00    0.0000E+00    2.500000E+09  0.02000  5.985E-05    0   0.5673   age150_m62            0.0000     8.9241E-06    43.5634  -0.8642   102.2011
 48      0.0000     0.0000E+00    0.0000E+00    4.250000E+09  0.02000  3.271E-05    0   0.5468   age158_m62            0.0000     9.1475E-06    41.6458  -1.0000    96.1968
 49      0.0000     0.0000E+00    0.0000E+00    1.000000E+10  0.02000  1.360E-05    0   0.5167   age181_m62            0.0000     9.7537E-06    40.1666  -1.0000    85.6578
 50      0.0000     0.0000E+00    0.0000E+00    1.800000E+10  0.02000  7.124E-06    0   0.5013   age213_m62            0.0000     1.0319E-05    39.9942  -1.0000    79.0219
 51      0.0000     0.0000E+00    0.0000E+00    1.000000E+06  0.05000  2.592E-02    0   0.9998   age020_m72            0.0000     9.2123E-06    46.5891   2.3451    97.4387
 52      0.0000     0.0000E+00    0.0000E+00    3.160000E+06  0.05000  4.845E-02    0   0.9577   age045_m72            0.0000     9.1969E-06    46.6082   2.1980    98.5200
 53      0.0000     0.0000E+00    0.0000E+00    5.010000E+06  0.05000  3.072E-02    0   0.9147   age055_m72            0.0000     9.0403E-06    46.3256   1.7334   103.0846
 54      0.0000     0.0000E+00    0.0000E+00    6.610000E+06  0.05000  1.455E-02    0   0.8877   age061_m72            0.0000     9.0798E-06    47.6215   0.9578   112.8751
 55      0.0000     0.0000E+00    0.0000E+00    1.000000E+07  0.05000  9.074E-03    0   0.8524   age070_m72            0.0000     9.1119E-06    46.8476   1.9239   102.5759
 56      0.0000     0.0000E+00    0.0000E+00    2.512000E+07  0.05000  4.250E-03    0   0.7902   age090_m72            0.0000     9.0476E-06    46.2887   1.6576   103.0668
 57      0.0000     0.0000E+00    0.0000E+00    4.000000E+07  0.05000  3.087E-03    0   0.7618   age104_m72            0.0000     9.0040E-06    46.1043   1.4411   104.3795
 58      0.0026     8.0722E-05    1.1036E-04    1.015200E+08  0.05000  1.700E-03    0   0.7096   age116_m72            0.0000     8.9201E-06    45.1513   1.2218   105.2909
 59      0.0000     0.0000E+00    0.0000E+00    2.861200E+08  0.05000  7.384E-04    0   0.6633   age125_m72            0.0000     8.8309E-06    44.0572   0.7627   106.5817
 60     16.4717     2.3175E+00    2.8452E+00    5.088000E+08  0.05000  3.819E-04    0   0.6372   age130_m72            0.0000     8.7596E-06    43.8200   0.2990   106.4959
 61      0.0000     0.0000E+00    0.0000E+00    9.047900E+08  0.05000  1.676E-04    0   0.6110   age135_m72            0.0000     8.8118E-06    43.8071  -0.3896   103.5476
 62      0.0284     1.7277E-02    1.9553E-02    1.434000E+09  0.05000  8.837E-05    0   0.5874   age139_m72            0.0000     8.8681E-06    43.4503  -0.8483   102.9087
 63      0.0000     0.0000E+00    0.0000E+00    2.500000E+09  0.05000  4.233E-05    0   0.5598   age150_m72            0.0000     9.1474E-06    41.7583  -1.0000    96.6426
 64      0.0000     0.0000E+00    0.0000E+00    6.250000E+09  0.05000  1.435E-05    0   0.5249   age166_m72            0.0000     9.9657E-06    40.2287  -1.0000    82.5606
 65      9.5242     7.8574E+01    7.6239E+01    1.300000E+10  0.05000  6.513E-06    0   0.5036   age193_m72            0.0000     1.0891E-05    40.0970  -1.0000    75.4816
 66      0.0000     0.0000E+00    0.0000E+00    1.800000E+10  0.05000  4.527E-06    0   0.4945   age213_m72            0.0000     1.1509E-05    40.3573  -1.0000    70.9688


## Synthesis Results - Average & Chains ##

# j      x_j: min, <> & last-chain-values for 1 ...  7 chains
  1      0.0080     40.5503     38.9078     34.4320     40.1662     33.2659     33.0444     33.8145     35.6326
  2      0.4180      0.1072      0.1390      0.5899      0.1583      0.1434      0.0000      0.2532      0.3410
  3      0.0000      0.1738      0.2389      1.6371      0.0305      1.0993      0.0138      0.0000      0.3507
  4      0.0000      0.1042      0.2571      0.0000      0.0000      1.3039      0.5352      0.0080      0.2949
  5      0.0000      0.1542      0.1874      0.8614      0.3526      0.8703      0.3047      0.4540      0.1880
  6      0.0000      0.1626      0.0000      1.3668      0.3142      0.3406      0.0000      0.5646      0.0000
  7      0.0000      0.1851      0.0390      0.0552      0.6480      0.0625      0.0941      0.7116      1.4896
  8      0.9800      0.1860      0.3367      0.0000      0.0000      0.8193      1.1721      1.5263      0.1024
  9      0.0000      0.1076      0.2362      0.5902      0.1463      1.5580      0.6379      0.0000      0.0066
 10      0.1962      0.1319      0.2904      0.1060      0.3328      0.0643      0.5823      1.0809      0.9553
 11      0.0000      0.1420      0.2311      0.2818      0.3183      0.0000      0.0000      0.2349      0.0886
 12      0.0736      0.1449      0.0770      0.6388      0.0000      0.2242      0.3411      0.3056      0.4971
 13      0.0000      0.1416      0.1927      0.5893      0.4135      0.2187      0.5742      0.1528      0.0228
 14      3.9191      0.1105      0.0887      0.0475      0.1799      0.0000      0.0000      0.2198      0.0000
 15      0.0000      0.1910      0.5708      0.5601      0.0914      0.0181      0.0000      0.2000      0.2733
 16      0.0000      0.1625      0.0000      0.0000      0.0000      0.6833      0.4265      0.6476      0.0000
 17      0.0000      0.1211      0.0000      0.0000      0.1007      0.1069      0.2516      0.0000      0.0000
 18      0.0000     23.1380     22.5934     18.0562     22.3286     17.1137     19.5047     21.5820     21.5842
 19      0.0000      0.1878      0.1732      0.2030      0.2176      0.6415      0.6466      0.0000      0.1488
 20      0.7887      0.1236      0.3553      0.0026      0.0000      0.1295      0.4940      0.4041      0.0743
 21      2.5906      0.1203      0.0000      1.0129      0.0057      0.0000      0.4824      0.2187      0.8288
 22      0.0000      0.1558      0.4680      0.1462      0.0384      0.9626      0.3099      0.2067      0.0000
 23      0.0000      0.1042      0.3124      0.3337      0.0343      0.2858      0.3005      0.0103      0.0000
 24      0.0000      0.1296      0.0877      0.4183      0.2533      0.5313      0.3459      0.2994      0.1808
 25      0.0000      0.1121      0.0000      0.0000      0.3041      0.0593      0.0245      0.0000      0.5272
 26      0.0000      0.0954      0.0000      0.4667      0.0000      0.2804      0.5548      0.2919      0.0411
 27      0.0000      0.1668      0.2460      1.3026      0.0409      0.2216      0.3048      0.2009      0.3933
 28      0.0000      0.0766      0.0000      0.0000      0.0376      0.0000      0.1708      0.0000      0.0521
 29     39.8980      0.1620      0.2067      0.4864      0.0602      0.2084      0.4572      0.3944      0.3296
 30      0.0000      0.1446      0.0000      0.2988      0.0000      1.8307      0.0000      0.3590      0.0000
 31      0.0297      0.1246      0.1963      0.8792      0.0000      0.3026      0.0000      0.7712      0.1181
 32      0.6212      0.1326      0.0000      0.0000      0.0781      0.2464      0.1206      0.4028      0.3356
 33      0.0000      1.1847      1.0902      1.7341      1.3753      1.5354      0.6325      1.1906      1.3595
 34      0.3259     16.3216     15.8913     12.7617     15.8892     14.0307     14.9673     13.8390     15.3069
 35      0.6609      3.2096      3.0681      2.7097      3.3942      3.2083      3.3642      3.1449      2.8718
 36      0.0000      0.1551      0.0000      0.2930      0.4219      0.1886      0.6442      0.7563      0.0292
 37      0.0000      0.1708      0.4366      0.0763      0.1220      0.1013      1.0379      0.4948      0.9188
 38     31.4335      0.1618      0.2128      0.1105      0.4205      0.2666      0.0000      0.6069      0.4981
 39      0.0000      0.1520      0.0000      0.3806      0.1195      0.0000      0.5831      0.1681      0.0000
 40      0.0000      0.1233      0.1104      0.9241      0.0855      0.0012      0.0873      0.0823      0.3665
 41      0.0000      0.1464      0.3035      0.0941      0.1029      1.0639      0.6577      0.1261      0.4969
 42      0.0000      0.1154      0.1206      0.1596      0.0899      0.0000      0.0000      0.9161      0.1811
 43      0.0210      0.1346      0.0000      0.3113      0.0000      0.4959      0.0000      1.1516      0.0000
 44      0.0000      0.1558      0.1021      0.3956      0.1028      0.0000      0.0981      0.2992      0.0000
 45      0.0000      0.1355      0.1559      0.1667      0.1714      0.0383      0.0559      0.0948      0.1074
 46      0.0000      0.1281      0.5313      0.0373      0.1790      0.7045      0.4003      0.0000      0.1919
