###################################################################
## OUTPUT of StarlightChains_v04.for    [Cid@UFSC - 01/Apr/2007] ##
###################################################################

## Some input info
KUG0210-078._29_34.txt                   [arq_obs]
Base.CB07.vall.4m                        [arq_base]
Masks.EmLines.NEW.gm                     [arq_masks]
StCv04.C11.config                        [arq_config]
   66                                    [N_base]
    0                                    [N_YAV_components = # of components with extra extinction!]
    0                                    [i_FitPowerLaw (1/0 = Yes/No)]
-9.99                                    [alpha_PowerLaw]
CCM                                      [red_law_option]
 1.458241                                [q_norm = A(l_norm)/A(V)]

## (Re)Sampling Parameters
 3741.00                                 [l_ini (A)]
 7218.00                                 [l_fin (A)]
    1.00                                 [dl    (A)]     (OBS: dl_cushion =    50.00 A)

## Normalization info
 4020.00                                 [l_norm (A) - for base]
 4010.00                                 [llow_norm (A) - window for f_obs]
 4060.00                                 [lupp_norm (A) - window for f_obs]
1.534285E-16                             [fobs_norm (in input units)]

## S/N
 3691.00                                 [llow_SN (A) - window for S/N]
 7268.00                                 [lupp_SN (A) - window for S/N]
   9.313                                 [S/N in S/N window]
   9.037                                 [S/N in norm. window]
   0.324                                 [S/N_err in S/N window]
   0.314                                 [S/N_err in norm. window]
  1.0000                                 [fscale_chi2]

## etc...
    -2007410                             [idum_orig]
  2432                                   [NOl_eff]
  2334                                   [Nl_eff]
    98    NSIGMA                         [Ntot_cliped & clip_method]
 15983380                                [Nglobal_steps]
   7                                     [N_chains]
  23                                     [NEX0s_base = N_base in EX0s-fits]
 0   0   1       97   2.0   6.514E+04    [Clip-Bug, RC-Crash & Burn-In warning-flags, n_censored_weights, wei_nsig_threshold & wei_limit]
   109    107.907    107.090      0.817  [idt_all, wdt_TotTime, wdt_UsrTime & wdt_SysTime (sec)]

## Synthesis Results - Best model ##

 1.19402E-03                             [chi2/Nl_eff]
     6.43604                             [adev (%)]

   106.35018                             [sum-of-x (%)]
 9.20448E-16                             [Flux_tot (units of input spectrum!)]
 7.73961E-12                             [Mini_tot (???)]
 4.20437E-12                             [Mcor_tot (???)]

 144.50                                  [v0_min  (km/s)]
 241.51                                  [vd_min  (km/s)]
 1.2881                                  [AV_min  (mag)]
 0.0000                                  [YAV_min (mag)]

# j     x_j(%)      Mini_j(%)     Mcor_j(%)     age_j(yr)     Z_j      (L/M)_j    YAV?  Mstars   component_j        a/Fe...       SSP_chi2r SSP_adev(%)   SSP_AV   SSP_x(%)
  1     12.0231     1.2290E-01    2.2623E-01    1.000000E+06  0.00400  1.094E-02    0   1.0000   age020_m42            0.0000     1.0141E-03     4.1548   3.0097    97.4587
  2      0.0000     0.0000E+00    0.0000E+00    3.160000E+06  0.00400  4.007E-02    0   0.9999   age045_m42            0.0000     1.9862E-03     5.3172   2.2578   105.0992
  3      0.0000     0.0000E+00    0.0000E+00    5.010000E+06  0.00400  2.539E-02    0   0.9488   age055_m42            0.0000     1.5270E-03     4.7126   2.5913   102.0712
  4      0.0000     0.0000E+00    0.0000E+00    6.610000E+06  0.00400  2.620E-02    0   0.9220   age061_m42            0.0000     2.1636E-03     5.3780   2.1893   105.1645
  5      0.0000     0.0000E+00    0.0000E+00    1.000000E+07  0.00400  1.322E-02    0   0.8862   age070_m42            0.0000     1.9735E-03     5.9134   1.9468   106.0438
  6      0.0000     0.0000E+00    0.0000E+00    1.445000E+07  0.00400  7.883E-03    0   0.8571   age078_m42            0.0000     1.6727E-03     5.4885   2.2756   103.2654
  7      0.0000     0.0000E+00    0.0000E+00    2.512000E+07  0.00400  5.251E-03    0   0.8174   age090_m42            0.0000     2.0655E-03     6.2376   1.8234   106.4393
  8      0.0000     0.0000E+00    0.0000E+00    4.000000E+07  0.00400  3.649E-03    0   0.7851   age104_m42            0.0000     2.2609E-03     6.3048   1.5868   107.6877
  9      0.0000     0.0000E+00    0.0000E+00    5.500000E+07  0.00400  3.098E-03    0   0.7629   age110_m42            0.0000     2.6852E-03     6.2566   1.7198   108.3555
 10      0.0000     0.0000E+00    0.0000E+00    1.015200E+08  0.00400  2.228E-03    0   0.7207   age116_m42            0.0000     3.1343E-03     6.3807   1.7280   108.9643
 11      0.0000     0.0000E+00    0.0000E+00    2.861200E+08  0.00400  1.093E-03    0   0.6648   age125_m42            0.0000     3.6094E-03     7.3863   1.1647   111.9739
 12      0.0000     0.0000E+00    0.0000E+00    5.088000E+08  0.00400  6.597E-04    0   0.6365   age130_m42            0.0000     4.2482E-03     7.3774   1.1360   113.6063
 13      0.0000     0.0000E+00    0.0000E+00    1.434000E+09  0.00400  2.132E-04    0   0.5798   age139_m42            0.0000     4.2908E-03     7.5784   0.1456   116.8397
 14      0.0000     0.0000E+00    0.0000E+00    4.250000E+09  0.00400  5.895E-05    0   0.5377   age158_m42            0.0000     3.4728E-03     7.3656  -0.3310   113.8780
 15      0.0000     0.0000E+00    0.0000E+00    7.500000E+09  0.00400  3.510E-05    0   0.5212   age171_m42            0.0000     3.6829E-03     7.8452  -0.5345   113.6686
 16      0.0000     0.0000E+00    0.0000E+00    1.300000E+10  0.00400  2.005E-05    0   0.5034   age193_m42            0.0000     3.9334E-03     8.2893  -0.7097   113.3472
 17      0.0000     0.0000E+00    0.0000E+00    1.800000E+10  0.00400  1.525E-05    0   0.4967   age213_m42            0.0000     3.7907E-03     8.1292  -0.7290   112.7658
 18      3.6393     3.2873E-02    6.0514E-02    1.000000E+06  0.00800  1.238E-02    0   1.0000   age020_m52            0.0000     1.0123E-03     4.1320   3.0074    97.6175
 19      1.5456     5.6226E-03    1.0315E-02    3.160000E+06  0.00800  3.074E-02    0   0.9966   age045_m52            0.0000     1.0786E-03     4.1520   2.9275    98.6136
 20      0.0000     0.0000E+00    0.0000E+00    5.010000E+06  0.00800  2.668E-02    0   0.9443   age055_m52            0.0000     1.3891E-03     4.5062   2.6799   100.9642
 21      0.2216     1.1604E-03    1.9602E-03    6.610000E+06  0.00800  2.136E-02    0   0.9177   age061_m52            0.0000     1.5647E-03     5.3958   1.4429   107.5705
 22      0.0000     0.0000E+00    0.0000E+00    1.000000E+07  0.00800  1.215E-02    0   0.8827   age070_m52            0.0000     1.7752E-03     6.1090   2.1404   105.2699
 23      0.0000     0.0000E+00    0.0000E+00    1.445000E+07  0.00800  8.717E-03    0   0.8552   age078_m52            0.0000     1.7653E-03     5.6084   2.2409   104.7215
 24      0.0000     0.0000E+00    0.0000E+00    2.512000E+07  0.00800  5.592E-03    0   0.8162   age090_m52            0.0000     2.1607E-03     6.4556   1.8878   107.6560
 25      0.0000     0.0000E+00    0.0000E+00    4.000000E+07  0.00800  3.896E-03    0   0.7841   age104_m52            0.0000     2.4635E-03     6.5777   1.7869   108.9525
 26      0.0000     0.0000E+00    0.0000E+00    1.015200E+08  0.00800  2.148E-03    0   0.7226   age116_m52            0.0000     2.9332E-03     6.4578   1.7028   109.6069
 27      0.0000     0.0000E+00    0.0000E+00    2.861200E+08  0.00800  9.925E-04    0   0.6683   age125_m52            0.0000     4.3251E-03     7.4775   1.2012   114.6347
 28      0.0000     0.0000E+00    0.0000E+00    9.047900E+08  0.00800  3.141E-04    0   0.6138   age135_m52            0.0000     5.0591E-03     8.5669   0.3613   121.1405
 29      0.0000     0.0000E+00    0.0000E+00    1.434000E+09  0.00800  1.719E-04    0   0.5853   age139_m52            0.0000     4.1210E-03     8.2088  -0.2308   119.3585
 30      0.0000     0.0000E+00    0.0000E+00    2.500000E+09  0.00800  7.872E-05    0   0.5600   age150_m52            0.0000     4.1578E-03     8.5538  -0.5319   117.5292
 31      0.0000     0.0000E+00    0.0000E+00    4.250000E+09  0.00800  4.336E-05    0   0.5426   age158_m52            0.0000     4.0847E-03     8.5328  -0.5484   116.4807
 32      0.0000     0.0000E+00    0.0000E+00    6.250000E+09  0.00800  3.159E-05    0   0.5319   age166_m52            0.0000     4.6610E-03     9.3508  -0.7728   117.3230
 33      0.0000     0.0000E+00    0.0000E+00    1.300000E+10  0.00800  1.361E-05    0   0.5073   age193_m52            0.0000     5.9083E-03     7.9597  -1.0000   109.6056
 34      0.0000     0.0000E+00    0.0000E+00    1.800000E+10  0.00800  9.886E-06    0   0.4990   age213_m52            0.0000     7.0880E-03     9.1067  -1.0000   105.7415
 35     18.5677     1.3448E-01    2.4756E-01    1.000000E+06  0.02000  1.544E-02    0   1.0000   age020_m62            0.0000     9.9918E-04     4.1069   3.0037    97.8316
 36      7.4381     2.2110E-02    4.0123E-02    3.160000E+06  0.02000  3.762E-02    0   0.9858   age045_m62            0.0000     1.0367E-03     4.1138   2.9408    98.7543
 37      0.0090     3.0420E-05    5.2314E-05    5.010000E+06  0.02000  3.296E-02    0   0.9342   age055_m62            0.0000     1.8053E-03     4.9307   2.5424   103.6387
 38      0.0000     0.0000E+00    0.0000E+00    8.710000E+06  0.02000  1.154E-02    0   0.8861   age067_m62            0.0000     1.7882E-03     8.8295   1.6690   105.3515
 39      0.0000     0.0000E+00    0.0000E+00    1.445000E+07  0.02000  7.663E-03    0   0.8472   age078_m62            0.0000     1.7407E-03     7.0263   1.8065   106.9524
 40      0.0000     0.0000E+00    0.0000E+00    2.512000E+07  0.02000  4.532E-03    0   0.8099   age090_m62            0.0000     1.9304E-03     7.4197   1.8011   106.5518
 41      0.0000     0.0000E+00    0.0000E+00    5.500000E+07  0.02000  2.733E-03    0   0.7595   age110_m62            0.0000     2.3635E-03     6.4114   1.7723   108.1027
 42      0.0000     0.0000E+00    0.0000E+00    1.609000E+08  0.02000  1.369E-03    0   0.6985   age120_m62            0.0000     3.6852E-03     6.9466   1.5803   112.1503
 43      0.0000     0.0000E+00    0.0000E+00    2.861200E+08  0.02000  9.013E-04    0   0.6714   age125_m62            0.0000     4.7910E-03     7.5208   1.3155   115.9164
 44      0.0000     0.0000E+00    0.0000E+00    5.088000E+08  0.02000  5.028E-04    0   0.6449   age130_m62            0.0000     5.5874E-03     8.3015   0.9008   120.4580
 45      0.0000     0.0000E+00    0.0000E+00    9.047900E+08  0.02000  2.428E-04    0   0.6179   age135_m62            0.0000     4.8390E-03     8.5927   0.2808   121.3416
 46      0.0000     0.0000E+00    0.0000E+00    1.434000E+09  0.02000  1.263E-04    0   0.5908   age139_m62            0.0000     4.3669E-03     8.6044  -0.1785   120.3424
 47      0.0000     0.0000E+00    0.0000E+00    2.500000E+09  0.02000  5.985E-05    0   0.5673   age150_m62            0.0000     4.5826E-03     9.3527  -0.5743   119.9020
 48      6.3513     2.1713E+01    2.1856E+01    4.250000E+09  0.02000  3.271E-05    0   0.5468   age158_m62            0.0000     5.4518E-03    10.5240  -0.9129   120.1588
 49      0.0000     0.0000E+00    0.0000E+00    1.000000E+10  0.02000  1.360E-05    0   0.5167   age181_m62            0.0000     7.3340E-03     8.8404  -1.0000   111.8695
 50      0.0000     0.0000E+00    0.0000E+00    1.800000E+10  0.02000  7.124E-06    0   0.5013   age213_m62            0.0000     9.3844E-03    10.7150  -1.0000   104.1978
 51     36.6909     1.5829E-01    2.9134E-01    1.000000E+06  0.05000  2.592E-02    0   0.9998   age020_m72            0.0000     9.4436E-04     4.0264   2.9992    97.7375
 52      0.0000     0.0000E+00    0.0000E+00    3.160000E+06  0.05000  4.845E-02    0   0.9577   age045_m72            0.0000     1.3128E-03     4.4119   2.8123   100.4713
 53      0.0000     0.0000E+00    0.0000E+00    5.010000E+06  0.05000  3.072E-02    0   0.9147   age055_m72            0.0000     1.4812E-03     5.9975   2.3725   103.4192
 54      0.0000     0.0000E+00    0.0000E+00    6.610000E+06  0.05000  1.455E-02    0   0.8877   age061_m72            0.0000     2.3601E-03    11.2621   1.7316   105.1590
 55      0.0000     0.0000E+00    0.0000E+00    1.000000E+07  0.05000  9.074E-03    0   0.8524   age070_m72            0.0000     1.6605E-03     6.7259   2.5484   103.1074
 56      0.0000     0.0000E+00    0.0000E+00    2.512000E+07  0.05000  4.250E-03    0   0.7902   age090_m72            0.0000     2.1206E-03     6.9858   2.2432   105.4218
 57      0.0000     0.0000E+00    0.0000E+00    4.000000E+07  0.05000  3.087E-03    0   0.7618   age104_m72            0.0000     2.4573E-03     7.5399   2.0185   107.1029
 58      0.0000     0.0000E+00    0.0000E+00    1.015200E+08  0.05000  1.700E-03    0   0.7096   age116_m72            0.0000     3.4857E-03     7.1738   1.7353   111.1910
 59      0.0000     0.0000E+00    0.0000E+00    2.861200E+08  0.05000  7.384E-04    0   0.6633   age125_m72            0.0000     5.2807E-03     7.9106   1.1656   118.2245
 60      0.0000     0.0000E+00    0.0000E+00    5.088000E+08  0.05000  3.819E-04    0   0.6372   age130_m72            0.0000     5.1512E-03     8.4513   0.6289   122.1017
 61      0.0000     0.0000E+00    0.0000E+00    9.047900E+08  0.05000  1.676E-04    0   0.6110   age135_m72            0.0000     4.7911E-03     9.3838  -0.1169   122.1830
 62      0.0000     0.0000E+00    0.0000E+00    1.434000E+09  0.05000  8.837E-05    0   0.5874   age139_m72            0.0000     4.9398E-03     9.7012  -0.5829   121.9735
 63     17.2178     4.5485E+01    4.6873E+01    2.500000E+09  0.05000  4.233E-05    0   0.5598   age150_m72            0.0000     5.7314E-03    11.0095  -0.9316   121.9567
 64      1.3971     1.0888E+01    1.0520E+01    6.250000E+09  0.05000  1.435E-05    0   0.5249   age166_m72            0.0000     7.8408E-03     9.5303  -1.0000   108.4352
 65      1.2485     2.1436E+01    1.9872E+01    1.300000E+10  0.05000  6.513E-06    0   0.5036   age193_m72            0.0000     1.0872E-02    12.8876  -1.0000   100.0166
 66      0.0000     0.0000E+00    0.0000E+00    1.800000E+10  0.05000  4.527E-06    0   0.4945   age213_m72            0.0000     1.2899E-02    15.0464  -1.0000    94.2592


## Synthesis Results - Average & Chains ##

# j      x_j: min, <> & last-chain-values for 1 ...  7 chains
  1     12.0231      6.0273      6.8667      7.1361      6.8389      7.5374      6.4822      6.6217      5.9295
  2      0.0000      0.2600      0.0367      0.0012      0.0000      0.0275      0.0000      0.0186      0.0224
  3      0.0000      0.6753      0.8647      0.2694      0.6962      0.1411      0.5299      0.7489      0.7763
  4      0.0000      0.2668      0.1264      0.0000      0.0675      0.0164      0.0000      0.0073      0.0070
  5      0.0000      0.2574      0.0790      0.0000      0.0228      0.0940      0.0000      0.0422      0.0308
  6      0.0000      0.2720      0.1381      0.0016      0.0194      0.0161      0.0005      0.1602      0.0545
  7      0.0000      0.2323      0.0883      0.1080      0.1206      0.0910      0.4784      0.0947      0.1183
  8      0.0000      0.2835      0.1285      0.0414      0.0185      0.0129      0.0000      0.2282      0.0000
  9      0.0000      0.2517      0.0044      0.0384      0.0218      0.0019      0.0000      0.0000      0.0146
 10      0.0000      0.2410      0.0080      0.0000      0.0000      0.0282      0.4930      0.0000      0.0008
 11      0.0000      0.2418      0.0151      0.0300      0.0565      0.0221      0.0822      0.0000      0.0146
 12      0.0000      0.2600      0.0000      0.0238      0.0542      0.0217      0.1365      0.1325      0.0072
 13      0.0000      0.2040      0.0300      0.0036      0.0410      0.0181      0.2796      0.0000      0.0000
 14      0.0000      0.3906      0.0014      0.0595      0.0437      0.0268      0.4842      0.1093      0.0162
 15      0.0000      0.2732      0.0218      0.0349      0.0033      0.0121      0.0950      0.0622      0.0373
 16      0.0000      0.2889      0.0627      0.0000      0.0994      0.0323      0.0496      0.2865      0.0000
 17      0.0000      0.8996      0.8725      0.3911      1.1041      0.1424      0.6925      1.3475      1.0808
 18      3.6393      7.5022      7.2089     16.0393      6.9980      6.9974      8.9029      7.2815      6.8430
 19      1.5456      9.4047     12.1263      9.9499     12.1580      8.0659     10.1174     11.0781     10.6245
 20      0.0000      0.3176      0.0000      0.0777      0.1771      0.1303      0.0160      0.0790      0.2335
 21      0.2216      1.8191      2.9684      0.2880      2.7901      0.2015      2.1889      2.4411      2.7666
 22      0.0000      0.1810      0.0895      0.0069      0.0350      0.0029      0.0000      0.1496      0.0159
 23      0.0000      0.4919      0.3879      0.2448      0.3519      0.1194      0.2411      0.3435      0.4485
 24      0.0000      0.3027      0.0100      0.0066      0.0218      0.0513      0.0889      0.3011      0.0337
 25      0.0000      0.5285      0.4726      0.2781      0.4289      0.1459      0.1176      0.2969      0.5285
 26      0.0000      0.2921      0.1211      0.0000      0.0000      0.0000      0.1009      0.0000      0.0078
 27      0.0000      0.2170      0.0627      0.0005      0.0582      0.0124      0.2576      0.0000      0.0342
 28      0.0000      0.2802      0.0074      0.0000      0.0000      0.0260      0.0706      0.0573      0.0345
 29      0.0000      0.2702      0.0422      0.0142      0.0547      0.0142      0.2189      0.0000      0.0000
 30      0.0000      0.2562      0.0000      0.0000      0.0306      0.0090      0.0691      0.0523      0.0368
 31      0.0000      1.3225      1.4167      1.1019      1.3932      0.1020      1.4742      1.2417      2.9563
 32      0.0000      0.3778      0.2536      0.2230      0.3389      0.1765      0.2102      0.4576      0.2625
 33      0.0000      1.4591      1.7551      0.8949      1.6386      1.5674      1.4183      1.6284      1.7199
 34      0.0000      0.3517      0.2343      0.2015      0.1991      0.1231      0.6115      0.2691      0.2257
 35     18.5677      4.1509      4.4156      4.4771      4.4593      4.7427      4.4214      4.2672      4.5840
 36      7.4381      4.3846      4.2120      9.9076      4.3104      2.2610      4.5098      4.6640      4.2609
 37      0.0090      0.4018      0.2712      0.3364      0.2880      0.1510      0.1097      0.2656      0.3306
 38      0.0000      2.8447      2.0792      0.7151      2.2269      9.2131      2.8250      3.0459      2.0997
 39      0.0000      0.2422      0.0000      0.0208      0.0159      0.0167      0.1108      0.0558      0.0000
 40      0.0000      0.2022      0.0562      0.0298      0.0747      0.0000      0.9284      0.0000      0.0000
 41      0.0000      0.2746      0.0420      0.0258      0.0474      0.0286      0.0000      0.0933      0.0037
 42      0.0000      0.3256      0.0000      0.0128      0.0110      0.0000      0.0000      0.0000      0.0384
 43      0.0000      0.2111      0.0519      0.0000      0.0764      0.0000      0.1473      0.0108      0.0473
 44      0.0000      0.2225      0.0595      0.0350      0.0000      0.0110      0.0000      0.1926      0.0156
 45      0.0000      0.2599      0.0071      0.0003      0.0132      0.0044      0.3273      0.1324      0.0247
 46      0.0000      0.2172      0.0000      0.0000      0.0709      0.0314      0.2071      0.4102      0.0273
