###################################################################
## OUTPUT of StarlightChains_v04.for    [Cid@UFSC - 01/Apr/2007] ##
###################################################################

## Some input info
KUG0210-078._53_44.txt                   [arq_obs]
Base.CB07.vall.4m                        [arq_base]
Masks.EmLines.NEW.gm                     [arq_masks]
StCv04.C11.config                        [arq_config]
   66                                    [N_base]
    0                                    [N_YAV_components = # of components with extra extinction!]
    0                                    [i_FitPowerLaw (1/0 = Yes/No)]
-9.99                                    [alpha_PowerLaw]
CCM                                      [red_law_option]
 1.458241                                [q_norm = A(l_norm)/A(V)]

## (Re)Sampling Parameters
 3741.00                                 [l_ini (A)]
 7218.00                                 [l_fin (A)]
    1.00                                 [dl    (A)]     (OBS: dl_cushion =    50.00 A)

## Normalization info
 4020.00                                 [l_norm (A) - for base]
 4010.00                                 [llow_norm (A) - window for f_obs]
 4060.00                                 [lupp_norm (A) - window for f_obs]
5.898311E-18                             [fobs_norm (in input units)]

## S/N
 3691.00                                 [llow_SN (A) - window for S/N]
 7268.00                                 [lupp_SN (A) - window for S/N]
   2.460                                 [S/N in S/N window]
   2.599                                 [S/N in norm. window]
   0.007                                 [S/N_err in S/N window]
   0.007                                 [S/N_err in norm. window]
  1.0000                                 [fscale_chi2]

## etc...
    -2008000                             [idum_orig]
  2400                                   [NOl_eff]
  2079                                   [Nl_eff]
   321    NSIGMA                         [Ntot_cliped & clip_method]
  3943590                                [Nglobal_steps]
   7                                     [N_chains]
  44                                     [NEX0s_base = N_base in EX0s-fits]
 0   0   1      321   2.0   4.730E+03    [Clip-Bug, RC-Crash & Burn-In warning-flags, n_censored_weights, wei_nsig_threshold & wei_limit]
    52     50.797     49.883      0.913  [idt_all, wdt_TotTime, wdt_UsrTime & wdt_SysTime (sec)]

## Synthesis Results - Best model ##

 9.86127E-06                             [chi2/Nl_eff]
    19.87173                             [adev (%)]

   128.76001                             [sum-of-x (%)]
 5.34494E-17                             [Flux_tot (units of input spectrum!)]
 1.30607E-14                             [Mini_tot (???)]
 9.01774E-15                             [Mcor_tot (???)]

 429.85                                  [v0_min  (km/s)]
  65.69                                  [vd_min  (km/s)]
 1.4528                                  [AV_min  (mag)]
 0.0000                                  [YAV_min (mag)]

# j     x_j(%)      Mini_j(%)     Mcor_j(%)     age_j(yr)     Z_j      (L/M)_j    YAV?  Mstars   component_j        a/Fe...       SSP_chi2r SSP_adev(%)   SSP_AV   SSP_x(%)
  1     23.6777     6.8789E+00    9.9629E+00    1.000000E+06  0.00400  1.094E-02    0   1.0000   age020_m42            0.0000     9.0651E-06    18.3214   1.6453   145.0706
  2      0.0000     0.0000E+00    0.0000E+00    3.160000E+06  0.00400  4.007E-02    0   0.9999   age045_m42            0.0000     8.7401E-06    18.2963   0.9861   151.7454
  3      0.4787     5.9924E-02    8.2347E-02    5.010000E+06  0.00400  2.539E-02    0   0.9488   age055_m42            0.0000     8.9001E-06    18.3202   1.2689   149.8161
  4      0.0000     0.0000E+00    0.0000E+00    6.610000E+06  0.00400  2.620E-02    0   0.9220   age061_m42            0.0000     8.7991E-06    18.3178   0.9175   151.9325
  5      0.0000     0.0000E+00    0.0000E+00    1.000000E+07  0.00400  1.322E-02    0   0.8862   age070_m42            0.0000     8.8819E-06    18.4609   0.6659   154.7242
  6      1.3734     5.5371E-01    6.8736E-01    1.445000E+07  0.00400  7.883E-03    0   0.8571   age078_m42            0.0000     8.9906E-06    18.4049   0.9761   151.4695
  7      0.0000     0.0000E+00    0.0000E+00    2.512000E+07  0.00400  5.251E-03    0   0.8174   age090_m42            0.0000     8.9216E-06    18.5514   0.5521   155.0329
  8      0.0000     0.0000E+00    0.0000E+00    4.000000E+07  0.00400  3.649E-03    0   0.7851   age104_m42            0.0000     8.9160E-06    18.5867   0.3379   155.5158
  9      0.0000     0.0000E+00    0.0000E+00    5.500000E+07  0.00400  3.098E-03    0   0.7629   age110_m42            0.0000     8.8209E-06    18.4725   0.4818   155.5119
 10      0.0000     0.0000E+00    0.0000E+00    1.015200E+08  0.00400  2.228E-03    0   0.7207   age116_m42            0.0000     8.7536E-06    18.4003   0.4979   155.7151
 11      9.8468     2.8633E+01    2.7570E+01    2.861200E+08  0.00400  1.093E-03    0   0.6648   age125_m42            0.0000     8.7647E-06    18.8327  -0.0409   158.8672
 12      1.4952     7.2037E+00    6.6409E+00    5.088000E+08  0.00400  6.597E-04    0   0.6365   age130_m42            0.0000     8.7427E-06    18.6834  -0.0557   159.7833
 13      0.0000     0.0000E+00    0.0000E+00    1.434000E+09  0.00400  2.132E-04    0   0.5798   age139_m42            0.0000     9.0213E-06    18.6878  -0.9644   158.6236
 14      0.0000     0.0000E+00    0.0000E+00    4.250000E+09  0.00400  5.895E-05    0   0.5377   age158_m42            0.0000     9.9308E-06    21.9575  -1.0000   138.3370
 15      0.0000     0.0000E+00    0.0000E+00    7.500000E+09  0.00400  3.510E-05    0   0.5212   age171_m42            0.0000     1.0631E-05    24.6949  -1.0000   130.5132
 16      0.0477     7.5574E+00    5.5100E+00    1.300000E+10  0.00400  2.005E-05    0   0.5034   age193_m42            0.0000     1.1418E-05    27.5205  -1.0000   123.7996
 17      0.0222     4.6267E+00    3.3284E+00    1.800000E+10  0.00400  1.525E-05    0   0.4967   age213_m42            0.0000     1.1468E-05    28.0483  -1.0000   122.6364
 18      0.7656     1.9656E-01    2.8469E-01    1.000000E+06  0.00800  1.238E-02    0   1.0000   age020_m52            0.0000     9.0413E-06    18.3178   1.6371   145.5159
 19     24.6171     2.5452E+00    3.6738E+00    3.160000E+06  0.00800  3.074E-02    0   0.9966   age045_m52            0.0000     9.0570E-06    18.2854   1.5676   146.3498
 20      4.2291     5.0380E-01    6.8902E-01    5.010000E+06  0.00800  2.668E-02    0   0.9443   age055_m52            0.0000     9.0105E-06    18.2761   1.3556   148.2321
 21      0.0000     0.0000E+00    0.0000E+00    6.610000E+06  0.00800  2.136E-02    0   0.9177   age061_m52            0.0000     9.1875E-06    18.4935   0.1845   154.9946
 22      0.0000     0.0000E+00    0.0000E+00    1.000000E+07  0.00800  1.215E-02    0   0.8827   age070_m52            0.0000     8.9497E-06    18.5666   0.8491   154.3388
 23      0.3405     1.2415E-01    1.5377E-01    1.445000E+07  0.00800  8.717E-03    0   0.8552   age078_m52            0.0000     8.9921E-06    18.4109   0.9491   153.1497
 24      0.0000     0.0000E+00    0.0000E+00    2.512000E+07  0.00800  5.592E-03    0   0.8162   age090_m52            0.0000     8.9137E-06    18.6213   0.6225   156.4675
 25     16.6119     1.3552E+01    1.5390E+01    4.000000E+07  0.00800  3.896E-03    0   0.7841   age104_m52            0.0000     8.8848E-06    18.6622   0.5465   156.7861
 26      0.0000     0.0000E+00    0.0000E+00    1.015200E+08  0.00800  2.148E-03    0   0.7226   age116_m52            0.0000     8.8559E-06    18.5387   0.4841   155.9523
 27      0.0000     0.0000E+00    0.0000E+00    2.861200E+08  0.00800  9.925E-04    0   0.6683   age125_m52            0.0000     8.7908E-06    18.6793  -0.0004   161.4794
 28      0.0000     0.0000E+00    0.0000E+00    9.047900E+08  0.00800  3.141E-04    0   0.6138   age135_m52            0.0000     8.9104E-06    18.8265  -0.7302   163.1905
 29      0.8647     1.5987E+01    1.3553E+01    1.434000E+09  0.00800  1.719E-04    0   0.5853   age139_m52            0.0000     9.5052E-06    21.2129  -1.0000   148.9163
 30      0.0000     0.0000E+00    0.0000E+00    2.500000E+09  0.00800  7.872E-05    0   0.5600   age150_m52            0.0000     1.0439E-05    24.4891  -1.0000   134.9374
 31      0.0000     0.0000E+00    0.0000E+00    4.250000E+09  0.00800  4.336E-05    0   0.5426   age158_m52            0.0000     1.0577E-05    24.6263  -1.0000   132.9191
 32      0.0000     0.0000E+00    0.0000E+00    6.250000E+09  0.00800  3.159E-05    0   0.5319   age166_m52            0.0000     1.1519E-05    27.8794  -1.0000   125.2642
 33      0.0000     0.0000E+00    0.0000E+00    1.300000E+10  0.00800  1.361E-05    0   0.5073   age193_m52            0.0000     1.4193E-05    36.3706  -1.0000   107.5891
 34      0.0000     0.0000E+00    0.0000E+00    1.800000E+10  0.00800  9.886E-06    0   0.4990   age213_m52            0.0000     1.5056E-05    37.8737  -1.0000   102.9628
 35      0.0000     0.0000E+00    0.0000E+00    1.000000E+06  0.02000  1.544E-02    0   1.0000   age020_m62            0.0000     9.0514E-06    18.3108   1.6334   145.8404
 36     16.3966     1.3853E+00    1.9778E+00    3.160000E+06  0.02000  3.762E-02    0   0.9858   age045_m62            0.0000     9.1072E-06    18.3248   1.5749   146.9592
 37      0.0000     0.0000E+00    0.0000E+00    5.010000E+06  0.02000  3.296E-02    0   0.9342   age055_m62            0.0000     8.8771E-06    18.3253   1.2387   151.1291
 38     13.8848     3.8241E+00    4.9077E+00    8.710000E+06  0.02000  1.154E-02    0   0.8861   age067_m62            0.0000     9.1873E-06    19.8479   0.3368   159.3086
 39      0.0000     0.0000E+00    0.0000E+00    1.445000E+07  0.02000  7.663E-03    0   0.8472   age078_m62            0.0000     9.0997E-06    19.1227   0.5225   157.1284
 40      0.0000     0.0000E+00    0.0000E+00    2.512000E+07  0.02000  4.532E-03    0   0.8099   age090_m62            0.0000     9.1139E-06    19.2721   0.5202   156.4929
 41      0.0000     0.0000E+00    0.0000E+00    5.500000E+07  0.02000  2.733E-03    0   0.7595   age110_m62            0.0000     8.9492E-06    18.6600   0.5174   156.2027
 42      0.0000     0.0000E+00    0.0000E+00    1.609000E+08  0.02000  1.369E-03    0   0.6985   age120_m62            0.0000     8.7621E-06    18.5843   0.3571   159.9682
 43      0.0000     0.0000E+00    0.0000E+00    2.861200E+08  0.02000  9.013E-04    0   0.6714   age125_m62            0.0000     8.7072E-06    18.5945   0.1230   163.5303
 44      0.0000     0.0000E+00    0.0000E+00    5.088000E+08  0.02000  5.028E-04    0   0.6449   age130_m62            0.0000     8.6809E-06    18.6017  -0.2341   165.5932
 45      0.0412     5.3926E-01    4.8260E-01    9.047900E+08  0.02000  2.428E-04    0   0.6179   age135_m62            0.0000     8.9746E-06    18.7264  -0.7945   161.6764
 46      0.0000     0.0000E+00    0.0000E+00    1.434000E+09  0.02000  1.263E-04    0   0.5908   age139_m62            0.0000     9.4386E-06    19.9010  -1.0000   150.6222
 47      0.0000     0.0000E+00    0.0000E+00    2.500000E+09  0.02000  5.985E-05    0   0.5673   age150_m62            0.0000     1.0621E-05    24.4163  -1.0000   135.3661
 48      0.0000     0.0000E+00    0.0000E+00    4.250000E+09  0.02000  3.271E-05    0   0.5468   age158_m62            0.0000     1.2143E-05    29.3768  -1.0000   122.6900
 49      0.0196     4.5690E+00    3.4192E+00    1.000000E+10  0.02000  1.360E-05    0   0.5167   age181_m62            0.0000     1.4303E-05    35.2704  -1.0000   109.1910
 50      0.0000     0.0000E+00    0.0000E+00    1.800000E+10  0.02000  7.124E-06    0   0.5013   age213_m62            0.0000     1.5905E-05    38.5827  -1.0000   100.7122
 51      0.0000     0.0000E+00    0.0000E+00    1.000000E+06  0.05000  2.592E-02    0   0.9998   age020_m72            0.0000     9.0164E-06    18.2682   1.6238   145.9708
 52     10.9783     7.2017E-01    9.9893E-01    3.160000E+06  0.05000  4.845E-02    0   0.9577   age045_m72            0.0000     9.0999E-06    18.3444   1.4702   148.1285
 53      1.5339     1.5870E-01    2.1024E-01    5.010000E+06  0.05000  3.072E-02    0   0.9147   age055_m72            0.0000     9.1369E-06    18.8887   1.0560   152.5528
 54      1.4145     3.0899E-01    3.9727E-01    6.610000E+06  0.05000  1.455E-02    0   0.8877   age061_m72            0.0000     9.5023E-06    21.9182   0.3923   160.5996
 55      0.0906     3.1734E-02    3.9177E-02    1.000000E+07  0.05000  9.074E-03    0   0.8524   age070_m72            0.0000     9.2512E-06    19.6857   1.2337   152.0239
 56      0.0000     0.0000E+00    0.0000E+00    2.512000E+07  0.05000  4.250E-03    0   0.7902   age090_m72            0.0000     9.0853E-06    19.2826   0.9637   153.7445
 57      0.0298     3.0702E-02    3.3874E-02    4.000000E+07  0.05000  3.087E-03    0   0.7618   age104_m72            0.0000     8.9951E-06    19.4286   0.7531   155.8192
 58      0.0000     0.0000E+00    0.0000E+00    1.015200E+08  0.05000  1.700E-03    0   0.7096   age116_m72            0.0000     8.7922E-06    18.7555   0.5115   159.0414
 59      0.0000     0.0000E+00    0.0000E+00    2.861200E+08  0.05000  7.384E-04    0   0.6633   age125_m72            0.0000     8.6564E-06    18.5897  -0.0031   164.7888
 60      0.0000     0.0000E+00    0.0000E+00    5.088000E+08  0.05000  3.819E-04    0   0.6372   age130_m72            0.0000     8.7421E-06    18.5878  -0.4791   165.2393
 61      0.0000     0.0000E+00    0.0000E+00    9.047900E+08  0.05000  1.676E-04    0   0.6110   age135_m72            0.0000     9.4470E-06    19.2349  -1.0000   154.2574
 62      0.0000     0.0000E+00    0.0000E+00    1.434000E+09  0.05000  8.837E-05    0   0.5874   age139_m72            0.0000     1.0596E-05    24.3671  -1.0000   137.0511
 63      0.0001     9.3381E-03    7.5711E-03    2.500000E+09  0.05000  4.233E-05    0   0.5598   age150_m72            0.0000     1.2153E-05    29.3255  -1.0000   123.6965
 64      0.0000     0.0000E+00    0.0000E+00    6.250000E+09  0.05000  1.435E-05    0   0.5249   age166_m72            0.0000     1.4929E-05    37.0428  -1.0000   105.4156
 65      0.0000     0.0000E+00    0.0000E+00    1.300000E+10  0.05000  6.513E-06    0   0.5036   age193_m72            0.0000     1.7333E-05    41.2949  -1.0000    96.1550
 66      0.0000     0.0000E+00    0.0000E+00    1.800000E+10  0.05000  4.527E-06    0   0.4945   age213_m72            0.0000     1.8833E-05    43.4822  -1.0000    90.2071


## Synthesis Results - Average & Chains ##

# j      x_j: min, <> & last-chain-values for 1 ...  7 chains
  1     23.6777     25.1757     45.1676      6.4601     18.2266     46.8551     38.1731      6.5119     33.4200
  2      0.0000      1.0906      0.3902      0.4575      1.4467      0.0000      0.0000      0.1033      0.6353
  3      0.4787      0.9478      0.7313      2.3581      0.9645      0.0254      1.0238      1.4843      0.0000
  4      0.0000      1.2010      0.3290      0.9124      1.1261      0.7232      0.0000      2.3891      3.1036
  5      0.0000      1.3314      0.0000      1.1383      1.7141      0.3210      0.0637      0.3177      0.3646
  6      1.3734      0.7292      0.0000      0.9143      1.4756      0.2214      0.0000      1.9451      0.7916
  7      0.0000      0.7228      0.4260      0.0000      1.8585      0.0000      0.0000      2.5479      0.0000
  8      0.0000      0.8354      0.3955      0.0000      0.3238      0.3197      0.0000      0.0000      3.6649
  9      0.0000      1.0136      0.1226      0.0000      1.6724      0.3093      0.0466      0.3895      1.1799
 10      0.0000      1.1252      0.5711      0.9532      0.0557      0.3143      2.2648      1.1194      1.0003
 11      9.8468      0.8341      0.0000      0.8427      0.0000      0.0998      0.5224      3.5005      0.0000
 12      1.4952      0.7958      0.0848      0.0000      0.5363      0.3510      0.2700      1.1492      0.0656
 13      0.0000      1.1852      0.9980      2.8917      2.1060      0.2319      0.0000      2.1697      0.0000
 14      0.0000      0.8029      0.0000      2.0922      0.0000      0.0000      0.5607      0.7462      0.0729
 15      0.0000      1.1920      0.4367      2.3297      2.2365      0.0317      0.0000      1.3193      0.5626
 16      0.0477      0.9992      1.1397      0.8074      2.4164      0.5046      1.5801      3.2257      1.1195
 17      0.0222      2.2215      2.1093     10.3182      0.7259      3.4070      3.0539      4.2251      4.9161
 18      0.7656      0.6467      0.0000      0.0000      0.0000      0.0000      0.6148      1.0221      0.0393
 19     24.6171      0.9322      0.0000      0.0000      3.8692      0.3913      0.5246      3.3315      0.0085
 20      4.2291      1.0604      0.0000      0.0000      1.8312      0.0000      0.2227      4.9682      1.8626
 21      0.0000      0.9529      0.2912      0.1916      2.5816      0.1746      0.5205      0.0000      0.7402
 22      0.0000      1.0157      0.1307      0.2430      0.0000      0.1036      0.1334      0.5714      1.0325
 23      0.3405      1.0209      0.0565      0.0622      0.3578      0.0000      0.3353      2.5124      0.0000
 24      0.0000      1.1809      0.2258      0.5450      0.4853      0.0000      1.6693      0.0000      0.9619
 25     16.6119      0.8034      0.4707      1.3261      0.4002      0.0072      0.0000      3.2550      2.0774
 26      0.0000      1.5942      0.4408      3.1737      0.0000      0.2367      0.0000      0.0000      1.2417
 27      0.0000      0.9022      0.0957      0.0000      1.1139      0.1788      1.5365      0.2890      0.5283
 28      0.0000      0.6785      0.3416      3.0129      3.2026      0.1567      0.8598      0.3425      0.0000
 29      0.8647      0.7882      0.0945      1.2207      0.4433      0.1637      0.6093      0.6370      0.7736
 30      0.0000      0.8522      0.1078      5.1597      0.0000      0.1548      0.1033      0.0000      0.7472
 31      0.0000      0.9841      0.3201      0.4812      0.0000      0.6774      0.5570      0.0000      0.0000
 32      0.0000      1.1456      0.0000      1.3476      1.6818      0.0000      1.3012      2.2417      0.3931
 33      0.0000      6.7951     10.6111      3.4745      8.4478     11.3700      9.7407      3.5267      8.6681
 34      0.0000     10.6381     18.3575     10.4817      9.4264     18.9355     16.0835     13.0548     13.7457
 35      0.0000      0.9949      0.0494      1.6349      1.1832      0.0065      0.8527      0.0000      0.6489
 36     16.3966      1.4307      0.0309      3.9422      0.0000      0.0285      1.1196      4.1281      0.8042
 37      0.0000      1.0128      0.2740      0.0000      0.3833      0.0000      0.0000      0.0000      1.5680
 38     13.8848      0.7773      0.0000      2.8957      0.7306      0.0000      0.0000      2.2658      0.4293
 39      0.0000      0.9202      0.0000      1.2596      0.5841      0.7472      0.0000      0.0000      0.8192
 40      0.0000      1.1566      0.0000      1.9630      3.2946      0.0989      0.4831      2.8653      0.3860
 41      0.0000      1.1883      0.7826      1.1106      0.8780      0.6982      1.0304      1.2657      0.5085
 42      0.0000      0.7322      0.2705      3.1478      0.5108      0.0000      0.0015      0.0000      0.5614
 43      0.0000      0.9300      0.6917      0.9198      3.0685      0.0000      0.2965      0.1472      0.3411
 44      0.0000      0.6115      0.2615      2.2840      0.3549      0.0000      1.3789      0.0000      0.0691
 45      0.0412      1.3423      0.0000      0.3702      0.0000      0.0000      1.2738      2.7956      1.6927
 46      0.0000      0.8700      0.1733      0.8519      1.1156      1.0094      0.0000      0.8942      0.5199
