###################################################################
## OUTPUT of StarlightChains_v04.for    [Cid@UFSC - 01/Apr/2007] ##
###################################################################

## Some input info
KUG0210-078._39_29.txt                   [arq_obs]
Base.CB07.vall.4m                        [arq_base]
Masks.EmLines.NEW.gm                     [arq_masks]
StCv04.C11.config                        [arq_config]
   66                                    [N_base]
    0                                    [N_YAV_components = # of components with extra extinction!]
    0                                    [i_FitPowerLaw (1/0 = Yes/No)]
-9.99                                    [alpha_PowerLaw]
CCM                                      [red_law_option]
 1.458241                                [q_norm = A(l_norm)/A(V)]

## (Re)Sampling Parameters
 3741.00                                 [l_ini (A)]
 7218.00                                 [l_fin (A)]
    1.00                                 [dl    (A)]     (OBS: dl_cushion =    50.00 A)

## Normalization info
 4020.00                                 [l_norm (A) - for base]
 4010.00                                 [llow_norm (A) - window for f_obs]
 4060.00                                 [lupp_norm (A) - window for f_obs]
7.741983E-18                             [fobs_norm (in input units)]

## S/N
 3691.00                                 [llow_SN (A) - window for S/N]
 7268.00                                 [lupp_SN (A) - window for S/N]
   3.911                                 [S/N in S/N window]
   2.890                                 [S/N in norm. window]
   0.013                                 [S/N_err in S/N window]
   0.009                                 [S/N_err in norm. window]
  1.0000                                 [fscale_chi2]

## etc...
    -2007686                             [idum_orig]
  2399                                   [NOl_eff]
  2287                                   [Nl_eff]
   112    NSIGMA                         [Ntot_cliped & clip_method]
  6900460                                [Nglobal_steps]
   7                                     [N_chains]
  41                                     [NEX0s_base = N_base in EX0s-fits]
 0   0   1      112   2.0   3.572E+03    [Clip-Bug, RC-Crash & Burn-In warning-flags, n_censored_weights, wei_nsig_threshold & wei_limit]
    55     53.974     53.163      0.811  [idt_all, wdt_TotTime, wdt_UsrTime & wdt_SysTime (sec)]

## Synthesis Results - Best model ##

 2.51957E-05                             [chi2/Nl_eff]
    59.34351                             [adev (%)]

   127.47402                             [sum-of-x (%)]
 1.35094E-17                             [Flux_tot (units of input spectrum!)]
 5.27219E-13                             [Mini_tot (???)]
 2.67076E-13                             [Mcor_tot (???)]

-367.04                                  [v0_min  (km/s)]
 181.73                                  [vd_min  (km/s)]
 0.2338                                  [AV_min  (mag)]
 0.0000                                  [YAV_min (mag)]

# j     x_j(%)      Mini_j(%)     Mcor_j(%)     age_j(yr)     Z_j      (L/M)_j    YAV?  Mstars   component_j        a/Fe...       SSP_chi2r SSP_adev(%)   SSP_AV   SSP_x(%)
  1      0.0000     0.0000E+00    0.0000E+00    1.000000E+06  0.00400  1.094E-02    0   1.0000   age020_m42            0.0000     2.5525E-05    57.4386   3.3939   112.7506
  2     12.3633     6.2021E-03    1.2242E-02    3.160000E+06  0.00400  4.007E-02    0   0.9999   age045_m42            0.0000     2.5872E-05    58.3487   2.7237   117.2794
  3      5.2603     4.1646E-03    7.8002E-03    5.010000E+06  0.00400  2.539E-02    0   0.9488   age055_m42            0.0000     2.5736E-05    58.0367   3.0229   115.5887
  4      0.0000     0.0000E+00    0.0000E+00    6.610000E+06  0.00400  2.620E-02    0   0.9220   age061_m42            0.0000     2.6054E-05    58.6358   2.6579   117.0867
  5      0.0000     0.0000E+00    0.0000E+00    1.000000E+07  0.00400  1.322E-02    0   0.8862   age070_m42            0.0000     2.6396E-05    60.6293   2.3903   118.7330
  6      6.7800     1.7289E-02    2.9252E-02    1.445000E+07  0.00400  7.883E-03    0   0.8571   age078_m42            0.0000     2.6274E-05    60.1319   2.6986   116.7870
  7      0.0000     0.0000E+00    0.0000E+00    2.512000E+07  0.00400  5.251E-03    0   0.8174   age090_m42            0.0000     2.6543E-05    61.0661   2.2674   118.9812
  8      0.1128     6.2165E-04    9.6344E-04    4.000000E+07  0.00400  3.649E-03    0   0.7851   age104_m42            0.0000     2.6556E-05    61.0259   2.0459   119.6043
  9      0.1779     1.1545E-03    1.7387E-03    5.500000E+07  0.00400  3.098E-03    0   0.7629   age110_m42            0.0000     2.6598E-05    60.4579   2.2017   119.4637
 10      0.0000     0.0000E+00    0.0000E+00    1.015200E+08  0.00400  2.228E-03    0   0.7207   age116_m42            0.0000     2.6672E-05    59.9945   2.2268   119.3987
 11      0.2027     3.7276E-03    4.8918E-03    2.861200E+08  0.00400  1.093E-03    0   0.6648   age125_m42            0.0000     2.6930E-05    61.2808   1.6676   121.8853
 12      0.0019     5.8309E-05    7.3264E-05    5.088000E+08  0.00400  6.597E-04    0   0.6365   age130_m42            0.0000     2.6794E-05    60.3696   1.6608   122.7841
 13      1.9904     1.8766E-01    2.1479E-01    1.434000E+09  0.00400  2.132E-04    0   0.5798   age139_m42            0.0000     2.6153E-05    59.4220   0.6865   125.2849
 14      0.1868     6.3695E-02    6.7609E-02    4.250000E+09  0.00400  5.895E-05    0   0.5377   age158_m42            0.0000     2.5357E-05    56.7111   0.1995   122.9108
 15      0.0000     0.0000E+00    0.0000E+00    7.500000E+09  0.00400  3.510E-05    0   0.5212   age171_m42            0.0000     2.5334E-05    56.2342   0.0000   122.5781
 16      0.0000     0.0000E+00    0.0000E+00    1.300000E+10  0.00400  2.005E-05    0   0.5034   age193_m42            0.0000     2.5404E-05    56.0030  -0.1760   122.3350
 17      0.0000     0.0000E+00    0.0000E+00    1.800000E+10  0.00400  1.525E-05    0   0.4967   age213_m42            0.0000     2.5424E-05    55.9843  -0.2003   121.8581
 18      0.0000     0.0000E+00    0.0000E+00    1.000000E+06  0.00800  1.238E-02    0   1.0000   age020_m52            0.0000     2.5485E-05    57.4416   3.3902   112.9920
 19      1.7629     1.1528E-03    2.2679E-03    3.160000E+06  0.00800  3.074E-02    0   0.9966   age045_m52            0.0000     2.5422E-05    57.3783   3.3171   113.8252
 20      0.9978     7.5173E-04    1.4013E-03    5.010000E+06  0.00800  2.668E-02    0   0.9443   age055_m52            0.0000     2.5653E-05    57.9162   3.0977   115.0089
 21      0.0000     0.0000E+00    0.0000E+00    6.610000E+06  0.00800  2.136E-02    0   0.9177   age061_m52            0.0000     2.5538E-05    60.0296   1.8714   121.1114
 22      0.3409     5.6405E-04    9.8285E-04    1.000000E+07  0.00800  1.215E-02    0   0.8827   age070_m52            0.0000     2.6424E-05    61.1056   2.5588   118.9696
 23      0.0000     0.0000E+00    0.0000E+00    1.445000E+07  0.00800  8.717E-03    0   0.8552   age078_m52            0.0000     2.6247E-05    60.2753   2.6680   118.1732
 24      1.3053     4.6921E-03    7.5600E-03    2.512000E+07  0.00800  5.592E-03    0   0.8162   age090_m52            0.0000     2.6627E-05    61.3168   2.3296   120.3482
 25      0.0000     0.0000E+00    0.0000E+00    4.000000E+07  0.00800  3.896E-03    0   0.7841   age104_m52            0.0000     2.6684E-05    61.2460   2.2469   120.8910
 26      0.0000     0.0000E+00    0.0000E+00    1.015200E+08  0.00800  2.148E-03    0   0.7226   age116_m52            0.0000     2.6555E-05    60.2877   2.1893   120.4802
 27      0.0000     0.0000E+00    0.0000E+00    2.861200E+08  0.00800  9.925E-04    0   0.6683   age125_m52            0.0000     2.6920E-05    60.6066   1.7280   123.7909
 28      0.0000     0.0000E+00    0.0000E+00    9.047900E+08  0.00800  3.141E-04    0   0.6138   age135_m52            0.0000     2.6243E-05    59.3668   0.9090   129.7250
 29      2.5403     2.9705E-01    3.4322E-01    1.434000E+09  0.00800  1.719E-04    0   0.5853   age139_m52            0.0000     2.5827E-05    58.6055   0.3090   127.9856
 30      0.0000     0.0000E+00    0.0000E+00    2.500000E+09  0.00800  7.872E-05    0   0.5600   age150_m52            0.0000     2.5470E-05    56.6975   0.0191   125.9091
 31      3.4154     1.5833E+00    1.6959E+00    4.250000E+09  0.00800  4.336E-05    0   0.5426   age158_m52            0.0000     2.5399E-05    56.3622  -0.0027   125.1057
 32      0.0000     0.0000E+00    0.0000E+00    6.250000E+09  0.00800  3.159E-05    0   0.5319   age166_m52            0.0000     2.5540E-05    55.9083  -0.2148   125.4607
 33      3.9080     5.7719E+00    5.7802E+00    1.300000E+10  0.00800  1.361E-05    0   0.5073   age193_m52            0.0000     2.5852E-05    55.2844  -0.6919   124.9340
 34     35.5166     7.2216E+01    7.1136E+01    1.800000E+10  0.00800  9.886E-06    0   0.4990   age213_m52            0.0000     2.6179E-05    54.9005  -0.8115   124.7755
 35      0.0000     0.0000E+00    0.0000E+00    1.000000E+06  0.02000  1.544E-02    0   1.0000   age020_m62            0.0000     2.5408E-05    57.4400   3.3829   113.4149
 36      0.8365     4.4694E-04    8.6975E-04    3.160000E+06  0.02000  3.762E-02    0   0.9858   age045_m62            0.0000     2.5354E-05    57.4046   3.3230   114.3889
 37      0.0000     0.0000E+00    0.0000E+00    5.010000E+06  0.02000  3.296E-02    0   0.9342   age055_m62            0.0000     2.5814E-05    58.0906   2.9905   116.5949
 38      7.5801     1.3204E-02    2.3096E-02    8.710000E+06  0.02000  1.154E-02    0   0.8861   age067_m62            0.0000     2.7489E-05    65.0338   2.0052   122.1397
 39      0.0000     0.0000E+00    0.0000E+00    1.445000E+07  0.02000  7.663E-03    0   0.8472   age078_m62            0.0000     2.6663E-05    62.6704   2.2025   121.4833
 40      1.1827     5.2459E-03    8.3870E-03    2.512000E+07  0.02000  4.532E-03    0   0.8099   age090_m62            0.0000     2.7011E-05    63.0951   2.2025   120.6062
 41      0.0000     0.0000E+00    0.0000E+00    5.500000E+07  0.02000  2.733E-03    0   0.7595   age110_m62            0.0000     2.6601E-05    61.0778   2.2268   120.2191
 42      0.0000     0.0000E+00    0.0000E+00    1.609000E+08  0.02000  1.369E-03    0   0.6985   age120_m62            0.0000     2.6944E-05    60.6464   2.0865   122.2358
 43      0.0000     0.0000E+00    0.0000E+00    2.861200E+08  0.02000  9.013E-04    0   0.6714   age125_m62            0.0000     2.7151E-05    60.5482   1.8522   124.8239
 44      0.0000     0.0000E+00    0.0000E+00    5.088000E+08  0.02000  5.028E-04    0   0.6449   age130_m62            0.0000     2.6689E-05    59.5963   1.4612   128.7180
 45      0.0000     0.0000E+00    0.0000E+00    9.047900E+08  0.02000  2.428E-04    0   0.6179   age135_m62            0.0000     2.5782E-05    57.9306   0.8364   129.8448
 46      0.0000     0.0000E+00    0.0000E+00    1.434000E+09  0.02000  1.263E-04    0   0.5908   age139_m62            0.0000     2.5494E-05    56.8824   0.3731   128.9389
 47      7.6663     2.5748E+00    2.8835E+00    2.500000E+09  0.02000  5.985E-05    0   0.5673   age150_m62            0.0000     2.5451E-05    55.9090  -0.0152   128.2819
 48      0.0000     0.0000E+00    0.0000E+00    4.250000E+09  0.02000  3.271E-05    0   0.5468   age158_m62            0.0000     2.5853E-05    55.0556  -0.3315   127.6139
 49      7.1401     1.0553E+01    1.0764E+01    1.000000E+10  0.02000  1.360E-05    0   0.5167   age181_m62            0.0000     2.6689E-05    54.5410  -0.6962   127.6391
 50      1.7512     4.9411E+00    4.8897E+00    1.800000E+10  0.02000  7.124E-06    0   0.5013   age213_m62            0.0000     2.7392E-05    54.2304  -0.9225   127.2744
 51      0.0000     0.0000E+00    0.0000E+00    1.000000E+06  0.05000  2.592E-02    0   0.9998   age020_m72            0.0000     2.5297E-05    57.3516   3.3687   113.7561
 52      0.0000     0.0000E+00    0.0000E+00    3.160000E+06  0.05000  4.845E-02    0   0.9577   age045_m72            0.0000     2.5526E-05    57.4694   3.2213   115.0292
 53      0.0000     0.0000E+00    0.0000E+00    5.010000E+06  0.05000  3.072E-02    0   0.9147   age055_m72            0.0000     2.6239E-05    61.1482   2.7530   118.6914
 54      8.1818     1.1303E-02    1.9807E-02    6.610000E+06  0.05000  1.455E-02    0   0.8877   age061_m72            0.0000     2.9132E-05    68.6931   2.0221   123.3522
 55      0.1075     2.3809E-04    4.0062E-04    1.000000E+07  0.05000  9.074E-03    0   0.8524   age070_m72            0.0000     2.6901E-05    62.2478   2.9188   118.4443
 56      0.0000     0.0000E+00    0.0000E+00    2.512000E+07  0.05000  4.250E-03    0   0.7902   age090_m72            0.0000     2.7021E-05    62.2477   2.6607   118.8362
 57      0.4820     3.1388E-03    4.7202E-03    4.000000E+07  0.05000  3.087E-03    0   0.7618   age104_m72            0.0000     2.7309E-05    62.8318   2.4479   119.9083
 58      1.3309     1.5737E-02    2.2045E-02    1.015200E+08  0.05000  1.700E-03    0   0.7096   age116_m72            0.0000     2.7099E-05    61.3034   2.2277   121.6936
 59      0.0000     0.0000E+00    0.0000E+00    2.861200E+08  0.05000  7.384E-04    0   0.6633   age125_m72            0.0000     2.7147E-05    59.9835   1.7147   126.7139
 60      0.0000     0.0000E+00    0.0000E+00    5.088000E+08  0.05000  3.819E-04    0   0.6372   age130_m72            0.0000     2.6229E-05    58.2055   1.1921   130.4271
 61     14.3514     1.7212E+00    2.0761E+00    9.047900E+08  0.05000  1.676E-04    0   0.6110   age135_m72            0.0000     2.5507E-05    55.8616   0.4457   130.7561
 62      0.0000     0.0000E+00    0.0000E+00    1.434000E+09  0.05000  8.837E-05    0   0.5874   age139_m72            0.0000     2.5583E-05    55.7311  -0.0246   130.4832
 63      0.0000     0.0000E+00    0.0000E+00    2.500000E+09  0.05000  4.233E-05    0   0.5598   age150_m72            0.0000     2.5969E-05    54.8870  -0.3443   129.2618
 64      0.0000     0.0000E+00    0.0000E+00    6.250000E+09  0.05000  1.435E-05    0   0.5249   age166_m72            0.0000     2.6798E-05    54.4521  -0.8034   127.5687
 65      0.0000     0.0000E+00    0.0000E+00    1.300000E+10  0.05000  6.513E-06    0   0.5036   age193_m72            0.0000     2.7962E-05    53.6417  -1.0000   126.1629
 66      0.0000     0.0000E+00    0.0000E+00    1.800000E+10  0.05000  4.527E-06    0   0.4945   age213_m72            0.0000     2.9346E-05    53.0881  -1.0000   120.5734


## Synthesis Results - Average & Chains ##

# j      x_j: min, <> & last-chain-values for 1 ...  7 chains
  1      0.0000      0.2962      0.0957      0.0000      0.2866      0.1649      0.3072      0.2249      1.4822
  2     12.3633      0.2064      0.0868      0.9245      0.0311      0.0648      0.0281      0.0000      0.7463
  3      5.2603      0.2362      0.0878      1.2641      0.0561      0.0686      0.3353      0.1694      0.1560
  4      0.0000      0.2845      0.0106      0.3364      0.0000      0.0106      0.0000      0.3034      0.0034
  5      0.0000      0.2259      0.0000      0.0000      0.3210      0.0793      0.0000      0.1856      0.1786
  6      6.7800      0.2258      0.1052      0.4642      0.2839      0.1570      0.1529      0.2650      0.0000
  7      0.0000      0.2919      0.1597      0.0000      0.0000      0.0087      0.0000      0.0188      0.6824
  8      0.1128      0.1833      0.0519      0.9228      0.1090      0.1362      0.2388      0.1392      0.0582
  9      0.1779      0.2713      0.1227      0.4821      0.0000      0.1211      0.0891      0.0000      1.4563
 10      0.0000      0.3845      0.0767      0.0256      0.0000      0.0995      0.4084      0.1103      0.0000
 11      0.2027      0.3031      0.1858      1.0902      0.3322      0.0000      0.0000      0.0986      0.0000
 12      0.0019      0.2100      0.0759      0.8786      0.0000      0.1181      0.0787      0.1527      0.0000
 13      1.9904      0.2718      0.0000      2.1141      0.0000      0.1683      0.0000      0.0851      0.2443
 14      0.1868      0.2567      0.0000      1.6348      0.0000      0.0048      0.0595      0.2209      0.0000
 15      0.0000      0.1936      0.0000      0.1527      0.1543      0.0367      0.0000      0.0972      1.2010
 16      0.0000      0.1742      0.0780      0.0000      0.0685      0.0113      0.2831      0.0584      0.0815
 17      0.0000      0.2020      0.1857      0.2207      0.0506      0.2498      0.1630      0.0648      0.4116
 18      0.0000      0.2221      0.1157      0.7169      0.0000      0.0185      0.1748      0.2182      0.3671
 19      1.7629      0.2592      0.0578      0.5832      0.0883      0.1730      0.1453      0.1965      0.0437
 20      0.9978      0.2321      0.0000      0.6293      0.0746      0.0809      0.0682      0.0622      1.1731
 21      0.0000      0.2307      0.0816      0.0000      0.0323      0.0613      0.0639      0.0576      0.0287
 22      0.3409      0.2461      0.1045      0.5736      0.0985      0.0852      0.1421      0.1044      0.3188
 23      0.0000      0.2883      0.1870      0.2803      0.1681      0.1699      0.0000      0.0518      0.8030
 24      1.3053      0.2284      0.0661      0.5751      0.0000      0.0369      0.1035      0.0000      0.0000
 25      0.0000      0.3632      0.1624      0.0000      0.0005      0.0273      0.0289      0.2018      0.0000
 26      0.0000      0.2241      0.1738      0.0915      0.1600      0.0998      0.0228      0.2860      1.2642
 27      0.0000      0.2644      0.3777      1.4157      0.2884      0.0275      0.3980      0.0055      1.1726
 28      0.0000      0.1976      0.1608      0.4186      0.3733      0.0245      0.0000      0.0399      0.1360
 29      2.5403      0.2663      0.0000      0.7960      0.1566      0.1063      0.3225      0.0409      0.0000
 30      0.0000      0.2255      0.0638      0.0287      0.0073      0.1123      0.3148      0.0000      0.8560
 31      3.4154      0.2313      0.3632      1.8531      0.1666      0.0837      0.1467      0.3348      0.0000
 32      0.0000      0.2800      0.0265      0.0468      0.1106      0.3170      0.0011      0.3217      0.0187
 33      3.9080      0.2545      0.1234      0.6888      0.1323      0.1321      0.2397      0.1339      0.6463
 34     35.5166      0.2603      0.0000      0.6528      0.3182      0.1713      0.3244      0.2407      1.0888
 35      0.0000      0.2262      0.1358      0.0000      0.0821      0.0000      0.0211      0.0000      0.0000
 36      0.8365      0.2508      0.0220      0.5384      0.0899      0.0216      0.3278      0.1022      0.0000
 37      0.0000      0.2016      0.1866      0.2928      0.2025      0.1967      0.0867      0.0631      0.0000
 38      7.5801      1.6876      3.4258      2.2274      1.5294      1.6287      2.2948      1.2463      1.5732
 39      0.0000      0.2634      0.0000      0.3495      0.0466      0.0266      0.0000      0.2267      0.3383
 40      1.1827      0.2641      0.1595      0.5907      0.0886      0.0738      0.3402      0.1255      0.1974
 41      0.0000      0.2383      0.0000      0.7949      0.2260      0.0407      0.2322      0.0000      0.4669
 42      0.0000      0.3063      0.0631      0.9347      0.0942      0.0540      0.0000      0.0504      1.0159
 43      0.0000      0.2454      0.0574      0.2126      0.1164      0.0984      0.0069      0.0000      1.7212
 44      0.0000      0.1857      0.0000      0.0000      0.1765      0.1442      0.3755      0.1003      0.0000
 45      0.0000      0.2319      0.0487      0.0000      0.0000      0.1330      0.2152      0.0224      0.5770
 46      0.0000      0.2183      0.1138      0.8073      0.0885      0.0000      0.2383      0.0000      0.0000
