###################################################################
## OUTPUT of StarlightChains_v04.for    [Cid@UFSC - 01/Apr/2007] ##
###################################################################

## Some input info
KUG0210-078._34_30.txt                   [arq_obs]
Base.CB07.vall.4m                        [arq_base]
Masks.EmLines.NEW.gm                     [arq_masks]
StCv04.C11.config                        [arq_config]
   66                                    [N_base]
    0                                    [N_YAV_components = # of components with extra extinction!]
    0                                    [i_FitPowerLaw (1/0 = Yes/No)]
-9.99                                    [alpha_PowerLaw]
CCM                                      [red_law_option]
 1.458241                                [q_norm = A(l_norm)/A(V)]

## (Re)Sampling Parameters
 3741.00                                 [l_ini (A)]
 7218.00                                 [l_fin (A)]
    1.00                                 [dl    (A)]     (OBS: dl_cushion =    50.00 A)

## Normalization info
 4020.00                                 [l_norm (A) - for base]
 4010.00                                 [llow_norm (A) - window for f_obs]
 4060.00                                 [lupp_norm (A) - window for f_obs]
5.651144E-17                             [fobs_norm (in input units)]

## S/N
 3691.00                                 [llow_SN (A) - window for S/N]
 7268.00                                 [lupp_SN (A) - window for S/N]
   3.575                                 [S/N in S/N window]
   4.076                                 [S/N in norm. window]
   0.072                                 [S/N_err in S/N window]
   0.082                                 [S/N_err in norm. window]
  1.0000                                 [fscale_chi2]

## etc...
    -2007535                             [idum_orig]
  2428                                   [NOl_eff]
  2227                                   [Nl_eff]
   201    NSIGMA                         [Ntot_cliped & clip_method]
  5457690                                [Nglobal_steps]
   7                                     [N_chains]
  22                                     [NEX0s_base = N_base in EX0s-fits]
 0   0   1      201   2.0   3.527E+04    [Clip-Bug, RC-Crash & Burn-In warning-flags, n_censored_weights, wei_nsig_threshold & wei_limit]
    45     44.587     43.958      0.629  [idt_all, wdt_TotTime, wdt_UsrTime & wdt_SysTime (sec)]

## Synthesis Results - Best model ##

 4.16703E-05                             [chi2/Nl_eff]
     6.57478                             [adev (%)]

   115.82124                             [sum-of-x (%)]
 1.70855E-17                             [Flux_tot (units of input spectrum!)]
 4.11953E-13                             [Mini_tot (???)]
 2.27338E-13                             [Mcor_tot (???)]

-190.64                                  [v0_min  (km/s)]
 190.02                                  [vd_min  (km/s)]
-1.0000                                  [AV_min  (mag)]
 0.0000                                  [YAV_min (mag)]

# j     x_j(%)      Mini_j(%)     Mcor_j(%)     age_j(yr)     Z_j      (L/M)_j    YAV?  Mstars   component_j        a/Fe...       SSP_chi2r SSP_adev(%)   SSP_AV   SSP_x(%)
  1      0.0000     0.0000E+00    0.0000E+00    1.000000E+06  0.00400  1.094E-02    0   1.0000   age020_m42            0.0000     9.6745E-05     8.0593   2.4524   107.6188
  2      0.0000     0.0000E+00    0.0000E+00    3.160000E+06  0.00400  4.007E-02    0   0.9999   age045_m42            0.0000     1.1103E-04     9.0396   1.8079   110.8973
  3      0.0000     0.0000E+00    0.0000E+00    5.010000E+06  0.00400  2.539E-02    0   0.9488   age055_m42            0.0000     1.0306E-04     8.6234   2.0924   109.9579
  4      0.0000     0.0000E+00    0.0000E+00    6.610000E+06  0.00400  2.620E-02    0   0.9220   age061_m42            0.0000     1.1135E-04     9.2147   1.7398   110.8753
  5      0.0000     0.0000E+00    0.0000E+00    1.000000E+07  0.00400  1.322E-02    0   0.8862   age070_m42            0.0000     1.2878E-04    10.6658   1.4758   112.5894
  6      0.0000     0.0000E+00    0.0000E+00    1.445000E+07  0.00400  7.883E-03    0   0.8571   age078_m42            0.0000     1.2209E-04    10.1891   1.7740   111.1123
  7      0.0000     0.0000E+00    0.0000E+00    2.512000E+07  0.00400  5.251E-03    0   0.8174   age090_m42            0.0000     1.3443E-04    11.0732   1.3556   112.7806
  8      0.0000     0.0000E+00    0.0000E+00    4.000000E+07  0.00400  3.649E-03    0   0.7851   age104_m42            0.0000     1.3384E-04    11.0663   1.1414   113.0415
  9      0.0000     0.0000E+00    0.0000E+00    5.500000E+07  0.00400  3.098E-03    0   0.7629   age110_m42            0.0000     1.3014E-04    10.5514   1.2986   112.7399
 10      0.0000     0.0000E+00    0.0000E+00    1.015200E+08  0.00400  2.228E-03    0   0.7207   age116_m42            0.0000     1.2718E-04    10.2576   1.3251   112.5697
 11      0.0000     0.0000E+00    0.0000E+00    2.861200E+08  0.00400  1.093E-03    0   0.6648   age125_m42            0.0000     1.3938E-04    11.2729   0.7825   114.2587
 12      0.0000     0.0000E+00    0.0000E+00    5.088000E+08  0.00400  6.597E-04    0   0.6365   age130_m42            0.0000     1.3047E-04    10.6116   0.7802   114.7877
 13      0.0000     0.0000E+00    0.0000E+00    1.434000E+09  0.00400  2.132E-04    0   0.5798   age139_m42            0.0000     1.0648E-04    10.0357  -0.1629   115.7242
 14      0.0000     0.0000E+00    0.0000E+00    4.250000E+09  0.00400  5.895E-05    0   0.5377   age158_m42            0.0000     6.9912E-05     8.1763  -0.6398   112.9055
 15      0.0000     0.0000E+00    0.0000E+00    7.500000E+09  0.00400  3.510E-05    0   0.5212   age171_m42            0.0000     6.1636E-05     7.6413  -0.8333   112.2785
 16      2.1886     3.9088E+00    3.5656E+00    1.300000E+10  0.00400  2.005E-05    0   0.5034   age193_m42            0.0000     5.7236E-05     7.2595  -1.0000   111.6620
 17      0.0000     0.0000E+00    0.0000E+00    1.800000E+10  0.00400  1.525E-05    0   0.4967   age213_m42            0.0000     5.7217E-05     7.5642  -1.0000   110.7060
 18      0.0000     0.0000E+00    0.0000E+00    1.000000E+06  0.00800  1.238E-02    0   1.0000   age020_m52            0.0000     9.6542E-05     8.0344   2.4479   107.8759
 19      0.0000     0.0000E+00    0.0000E+00    3.160000E+06  0.00800  3.074E-02    0   0.9966   age045_m52            0.0000     9.5595E-05     7.9958   2.3747   108.6782
 20      0.0000     0.0000E+00    0.0000E+00    5.010000E+06  0.00800  2.668E-02    0   0.9443   age055_m52            0.0000     1.0073E-04     8.4743   2.1619   109.6024
 21      0.0000     0.0000E+00    0.0000E+00    6.610000E+06  0.00800  2.136E-02    0   0.9177   age061_m52            0.0000     1.1279E-04    10.1498   0.9751   113.9868
 22      0.0000     0.0000E+00    0.0000E+00    1.000000E+07  0.00800  1.215E-02    0   0.8827   age070_m52            0.0000     1.3265E-04    10.9774   1.6416   112.9858
 23      0.0000     0.0000E+00    0.0000E+00    1.445000E+07  0.00800  8.717E-03    0   0.8552   age078_m52            0.0000     1.2370E-04    10.3335   1.7480   112.2514
 24      0.0000     0.0000E+00    0.0000E+00    2.512000E+07  0.00800  5.592E-03    0   0.8162   age090_m52            0.0000     1.3685E-04    11.2454   1.4214   113.9451
 25      0.0000     0.0000E+00    0.0000E+00    4.000000E+07  0.00800  3.896E-03    0   0.7841   age104_m52            0.0000     1.3528E-04    11.1318   1.3446   114.1464
 26      0.0000     0.0000E+00    0.0000E+00    1.015200E+08  0.00800  2.148E-03    0   0.7226   age116_m52            0.0000     1.2617E-04    10.5749   1.2921   113.4268
 27      0.0000     0.0000E+00    0.0000E+00    2.861200E+08  0.00800  9.925E-04    0   0.6683   age125_m52            0.0000     1.3056E-04    10.6606   0.8491   115.6889
 28      0.0000     0.0000E+00    0.0000E+00    9.047900E+08  0.00800  3.141E-04    0   0.6138   age135_m52            0.0000     1.0882E-04     9.8177   0.0731   119.0222
 29      0.0000     0.0000E+00    0.0000E+00    1.434000E+09  0.00800  1.719E-04    0   0.5853   age139_m52            0.0000     8.4854E-05     9.0735  -0.5267   117.4535
 30      0.0000     0.0000E+00    0.0000E+00    2.500000E+09  0.00800  7.872E-05    0   0.5600   age150_m52            0.0000     5.9052E-05     7.4835  -0.8132   115.2582
 31      0.0000     0.0000E+00    0.0000E+00    4.250000E+09  0.00800  4.336E-05    0   0.5426   age158_m52            0.0000     5.6294E-05     7.3520  -0.8333   114.3997
 32      0.0000     0.0000E+00    0.0000E+00    6.250000E+09  0.00800  3.159E-05    0   0.5319   age166_m52            0.0000     4.8965E-05     7.1372  -1.0000   113.4117
 33      0.0000     0.0000E+00    0.0000E+00    1.300000E+10  0.00800  1.361E-05    0   0.5073   age193_m52            0.0000     1.2931E-04    15.2610  -1.0000   100.3225
 34      0.0000     0.0000E+00    0.0000E+00    1.800000E+10  0.00800  9.886E-06    0   0.4990   age213_m52            0.0000     1.6901E-04    17.3940  -1.0000    96.8141
 35      0.0000     0.0000E+00    0.0000E+00    1.000000E+06  0.02000  1.544E-02    0   1.0000   age020_m62            0.0000     9.6205E-05     7.9920   2.4405   108.2751
 36      0.0000     0.0000E+00    0.0000E+00    3.160000E+06  0.02000  3.762E-02    0   0.9858   age045_m62            0.0000     9.5898E-05     7.9235   2.3770   109.3395
 37      0.0000     0.0000E+00    0.0000E+00    5.010000E+06  0.02000  3.296E-02    0   0.9342   age055_m62            0.0000     1.0435E-04     8.5896   2.0636   110.7321
 38      0.0000     0.0000E+00    0.0000E+00    8.710000E+06  0.02000  1.154E-02    0   0.8861   age067_m62            0.0000     1.8076E-04    14.0201   1.0888   116.5698
 39      0.0000     0.0000E+00    0.0000E+00    1.445000E+07  0.02000  7.663E-03    0   0.8472   age078_m62            0.0000     1.4739E-04    12.0335   1.2940   115.1275
 40      0.0000     0.0000E+00    0.0000E+00    2.512000E+07  0.02000  4.532E-03    0   0.8099   age090_m62            0.0000     1.5234E-04    12.3585   1.2918   114.4703
 41      0.0000     0.0000E+00    0.0000E+00    5.500000E+07  0.02000  2.733E-03    0   0.7595   age110_m62            0.0000     1.2964E-04    10.9637   1.3214   113.6542
 42      0.0000     0.0000E+00    0.0000E+00    1.609000E+08  0.02000  1.369E-03    0   0.6985   age120_m62            0.0000     1.3002E-04    10.6770   1.1930   114.9698
 43      0.0000     0.0000E+00    0.0000E+00    2.861200E+08  0.02000  9.013E-04    0   0.6714   age125_m62            0.0000     1.3276E-04    10.6266   0.9679   116.9099
 44      0.0000     0.0000E+00    0.0000E+00    5.088000E+08  0.02000  5.028E-04    0   0.6449   age130_m62            0.0000     1.2253E-04     9.7959   0.6047   119.0633
 45      0.0000     0.0000E+00    0.0000E+00    9.047900E+08  0.02000  2.428E-04    0   0.6179   age135_m62            0.0000     8.5456E-05     8.6456  -0.0000   118.9959
 46      0.1655     4.6916E-02    5.0227E-02    1.434000E+09  0.02000  1.263E-04    0   0.5908   age139_m62            0.0000     6.4303E-05     7.8619  -0.4566   117.8858
 47      2.1994     1.3159E+00    1.3528E+00    2.500000E+09  0.02000  5.985E-05    0   0.5673   age150_m62            0.0000     4.8797E-05     6.7204  -0.8386   116.9137
 48     71.9927     7.8813E+01    7.8091E+01    4.250000E+09  0.02000  3.271E-05    0   0.5468   age158_m62            0.0000     4.5487E-05     7.8397  -1.0000   112.3017
 49      0.0000     0.0000E+00    0.0000E+00    1.000000E+10  0.02000  1.360E-05    0   0.5167   age181_m62            0.0000     1.2007E-04    14.4051  -1.0000   102.3543
 50      0.0000     0.0000E+00    0.0000E+00    1.800000E+10  0.02000  7.124E-06    0   0.5013   age213_m62            0.0000     2.1337E-04    18.9004  -1.0000    95.5867
 51      0.0000     0.0000E+00    0.0000E+00    1.000000E+06  0.05000  2.592E-02    0   0.9998   age020_m72            0.0000     9.5449E-05     7.9465   2.4241   108.6974
 52      0.0000     0.0000E+00    0.0000E+00    3.160000E+06  0.05000  4.845E-02    0   0.9577   age045_m72            0.0000     9.7148E-05     8.0588   2.2824   109.6945
 53      0.0000     0.0000E+00    0.0000E+00    5.010000E+06  0.05000  3.072E-02    0   0.9147   age055_m72            0.0000     1.2708E-04    10.5540   1.8307   112.7991
 54      0.0000     0.0000E+00    0.0000E+00    6.610000E+06  0.05000  1.455E-02    0   0.8877   age061_m72            0.0000     2.3606E-04    16.2279   1.1021   117.8950
 55      0.0000     0.0000E+00    0.0000E+00    1.000000E+07  0.05000  9.074E-03    0   0.8524   age070_m72            0.0000     1.4142E-04    11.0505   1.9911   112.6975
 56      0.0000     0.0000E+00    0.0000E+00    2.512000E+07  0.05000  4.250E-03    0   0.7902   age090_m72            0.0000     1.4243E-04    11.3524   1.7430   112.7754
 57      0.0000     0.0000E+00    0.0000E+00    4.000000E+07  0.05000  3.087E-03    0   0.7618   age104_m72            0.0000     1.5088E-04    11.8678   1.5366   113.6181
 58      0.0000     0.0000E+00    0.0000E+00    1.015200E+08  0.05000  1.700E-03    0   0.7096   age116_m72            0.0000     1.3867E-04    11.1857   1.3288   114.7302
 59      0.0000     0.0000E+00    0.0000E+00    2.861200E+08  0.05000  7.384E-04    0   0.6633   age125_m72            0.0000     1.2279E-04    10.1255   0.8390   118.2428
 60      0.0000     0.0000E+00    0.0000E+00    5.088000E+08  0.05000  3.819E-04    0   0.6372   age130_m72            0.0000     9.4503E-05     8.8732   0.3419   120.2945
 61      0.0000     0.0000E+00    0.0000E+00    9.047900E+08  0.05000  1.676E-04    0   0.6110   age135_m72            0.0000     5.4798E-05     6.9436  -0.3812   119.3120
 62     39.2751     1.5915E+01    1.6940E+01    1.434000E+09  0.05000  8.837E-05    0   0.5874   age139_m72            0.0000     4.7363E-05     6.6208  -0.8426   118.6875
 63      0.0000     0.0000E+00    0.0000E+00    2.500000E+09  0.05000  4.233E-05    0   0.5598   age150_m72            0.0000     4.4415E-05     7.6980  -1.0000   113.3461
 64      0.0000     0.0000E+00    0.0000E+00    6.250000E+09  0.05000  1.435E-05    0   0.5249   age166_m72            0.0000     1.5997E-04    16.5830  -1.0000    99.2671
 65      0.0000     0.0000E+00    0.0000E+00    1.300000E+10  0.05000  6.513E-06    0   0.5036   age193_m72            0.0000     3.1497E-04    22.4860  -1.0000    91.9315
 66      0.0000     0.0000E+00    0.0000E+00    1.800000E+10  0.05000  4.527E-06    0   0.4945   age213_m72            0.0000     4.3328E-04    25.6348  -1.0000    86.8739


## Synthesis Results - Average & Chains ##

# j      x_j: min, <> & last-chain-values for 1 ...  7 chains
  1      0.0000      0.3779      0.0000      3.3117      0.0324      1.6958      0.9648      1.6473      0.3476
  2      0.0000      0.3364      0.7969      0.1205      0.0000      1.1351      0.1045      0.8238      0.2231
  3      0.0000      0.3846      0.4730      0.9751      0.0497      0.0000      0.0000      0.0208      0.1633
  4      0.0000      0.4438      2.3525      0.9869      0.2512      0.2775      1.3806      1.1205      0.3630
  5      0.0000      0.3921      0.0000      0.0000      0.0212      1.0867      0.1452      0.7377      0.0464
  6      0.0000      0.2609      0.0000      0.0000      0.0385      0.7434      0.6133      1.5382      0.0973
  7      0.0000      0.5539      2.9564      0.8448      0.3547      0.6994      0.8605      1.8372      0.0842
  8      0.0000      0.3828      1.2415      2.9242      0.2962      0.0000      0.4436      1.4867      0.0000
  9      0.0000      0.3858      1.4725      0.5048      0.0000      0.9298      0.0000      1.7256      0.0000
 10      0.0000      0.4311      1.0360      0.0000      0.0000      0.1863      2.0456      1.7538      0.0205
 11      0.0000      0.3436      1.1998      1.8793      0.2795      1.6456      0.2641      0.0000      0.0000
 12      0.0000      0.4843      0.9987      0.0000      0.0806      0.0000      0.0000      0.0000      0.0125
 13      0.0000      0.3224      0.0000      2.1451      0.3361      0.7775      1.3666      0.3050      0.1487
 14      0.0000      0.3711      0.0000      0.0815      0.0082      0.0000      0.0000      0.7364      0.4319
 15      0.0000      0.3255      0.0000      0.1012      0.0544      2.6658      0.5056      0.0936      0.0000
 16      2.1886      0.3408      0.4205      1.4246      0.4051      2.1860      0.0000      0.3907      0.1421
 17      0.0000      0.4165      0.0000      0.0000      0.0384      0.0000      0.0000      1.3092      0.0120
 18      0.0000      0.3538      1.8967      0.4039      0.3805      0.7803      0.0000      0.4935      0.0817
 19      0.0000      0.4408      0.0000      3.6400      0.0000      1.0112      1.4728      0.8693      0.1818
 20      0.0000      0.4341      0.1769      0.2842      0.0000      0.5869      0.7013      0.9180      0.1604
 21      0.0000      0.3765      2.3109      0.0000      0.1197      1.2720      0.2935      1.4340      0.0090
 22      0.0000      0.5192      0.0111      1.0444      0.0000      0.8122      1.2131      0.2609      0.2161
 23      0.0000      0.3890      0.7474      0.0000      0.1183      0.0000      0.0000      0.0000      0.3665
 24      0.0000      0.3184      0.8498      0.0000      0.1040      0.0584      0.3841      1.1947      0.0677
 25      0.0000      0.5035      0.1021      2.7135      0.1887      2.5635      0.4570      0.0000      0.2197
 26      0.0000      0.4357      0.9676      0.0000      0.1478      1.2720      1.4477      0.7767      0.1363
 27      0.0000      0.3971      0.0000      2.3649      0.2594      0.0000      1.6785      0.0000      0.0000
 28      0.0000      0.4746      1.2271      0.5565      0.2871      0.0000      2.7033      0.7468      0.1371
 29      0.0000      0.4979      0.4218      1.0492      0.0000      2.2025      0.8515      1.4702      0.0000
 30      0.0000      0.3708      0.0165      1.1242      0.0217      0.2592      0.6058      1.6296      0.1797
 31      0.0000      0.3888      0.4155      0.4441      0.0000      0.8928      0.0000      0.3766      0.0686
 32      0.0000      0.5278      1.0740      0.0000      0.0436      0.2928      0.6024      0.3555      0.1610
 33      0.0000      0.5428      2.6958      2.1235      0.0813      1.2474      0.3802      0.8788      0.0202
 34      0.0000      0.3697      0.0000      0.0000      0.0019      0.9189      1.1895      0.0000      0.0000
 35      0.0000      0.4887      0.0000      2.0747      0.0136      0.9748      3.5890      1.5663      0.1073
 36      0.0000      0.4501      3.2694      1.0022      0.0923      0.0000      0.6483      0.6411      0.0599
 37      0.0000      0.3203      0.2453      0.0000      0.1408      2.7193      1.1369      1.0060      0.0000
 38      0.0000      0.4256      1.1435      1.2472      0.0000      1.0193      1.7213      0.1363      0.1637
 39      0.0000      0.5446      1.2202      1.1826      0.0000      1.3699      0.0000      2.0745      0.0796
 40      0.0000      0.4551      0.0000      0.0000      0.0000      0.4801      0.4750      0.8886      0.1514
 41      0.0000      0.3635      0.7824      0.0000      0.0000      0.2159      0.1481      1.2343      0.0937
 42      0.0000      0.4689      1.0497      0.1192      0.0000      0.0422      0.0000      0.5459      0.2440
 43      0.0000      0.3971      0.0000      0.6531      0.0321      1.4196      1.3422      1.4822      0.0000
 44      0.0000     28.5701     16.0413     15.9351     36.9808     11.5147     24.3342     15.8852     36.7926
 45      0.0000      0.5223      1.9124      0.5840      0.0525      0.9686      0.6882      1.4794      0.0000
 46      0.1655      0.3461      0.0000      0.0000      0.1939      1.7230      0.2430      0.0000      0.0000
