###################################################################
## OUTPUT of StarlightChains_v04.for    [Cid@UFSC - 01/Apr/2007] ##
###################################################################

## Some input info
KUG0210-078._38_35.txt                   [arq_obs]
Base.CB07.vall.4m                        [arq_base]
Masks.EmLines.NEW.gm                     [arq_masks]
StCv04.C11.config                        [arq_config]
   66                                    [N_base]
    0                                    [N_YAV_components = # of components with extra extinction!]
    0                                    [i_FitPowerLaw (1/0 = Yes/No)]
-9.99                                    [alpha_PowerLaw]
CCM                                      [red_law_option]
 1.458241                                [q_norm = A(l_norm)/A(V)]

## (Re)Sampling Parameters
 3741.00                                 [l_ini (A)]
 7218.00                                 [l_fin (A)]
    1.00                                 [dl    (A)]     (OBS: dl_cushion =    50.00 A)

## Normalization info
 4020.00                                 [l_norm (A) - for base]
 4010.00                                 [llow_norm (A) - window for f_obs]
 4060.00                                 [lupp_norm (A) - window for f_obs]
1.590932E-17                             [fobs_norm (in input units)]

## S/N
 3691.00                                 [llow_SN (A) - window for S/N]
 7268.00                                 [lupp_SN (A) - window for S/N]
   4.384                                 [S/N in S/N window]
   3.332                                 [S/N in norm. window]
   0.024                                 [S/N_err in S/N window]
   0.018                                 [S/N_err in norm. window]
  1.0000                                 [fscale_chi2]

## etc...
    -2007660                             [idum_orig]
  2431                                   [NOl_eff]
  2427                                   [Nl_eff]
     4    NSIGMA                         [Ntot_cliped & clip_method]
  3168130                                [Nglobal_steps]
   7                                     [N_chains]
  34                                     [NEX0s_base = N_base in EX0s-fits]
 0   1   1        6   2.0   1.593E+03    [Clip-Bug, RC-Crash & Burn-In warning-flags, n_censored_weights, wei_nsig_threshold & wei_limit]
    70     69.944     69.347      0.597  [idt_all, wdt_TotTime, wdt_UsrTime & wdt_SysTime (sec)]

## Synthesis Results - Best model ##

 2.35651E-03                             [chi2/Nl_eff]
    19.71492                             [adev (%)]

    98.32280                             [sum-of-x (%)]
 3.09914E-17                             [Flux_tot (units of input spectrum!)]
 1.40503E-12                             [Mini_tot (???)]
 7.27707E-13                             [Mcor_tot (???)]

 371.31                                  [v0_min  (km/s)]
  67.58                                  [vd_min  (km/s)]
 0.5091                                  [AV_min  (mag)]
 0.0000                                  [YAV_min (mag)]

# j     x_j(%)      Mini_j(%)     Mcor_j(%)     age_j(yr)     Z_j      (L/M)_j    YAV?  Mstars   component_j        a/Fe...       SSP_chi2r SSP_adev(%)   SSP_AV   SSP_x(%)
  1      0.0000     0.0000E+00    0.0000E+00    1.000000E+06  0.00400  1.094E-02    0   1.0000   age020_m42            0.0000     1.0727E-01    24.3477   4.0000    90.8977
  2      0.0000     0.0000E+00    0.0000E+00    3.160000E+06  0.00400  4.007E-02    0   0.9999   age045_m42            0.0000     6.7100E-02    29.4698   4.0000    72.1328
  3      0.0000     0.0000E+00    0.0000E+00    5.010000E+06  0.00400  2.539E-02    0   0.9488   age055_m42            0.0000     6.7559E-02    26.5830   4.0000    80.4677
  4      0.0000     0.0000E+00    0.0000E+00    6.610000E+06  0.00400  2.620E-02    0   0.9220   age061_m42            0.0000     6.3967E-02    30.4419   4.0000    70.0998
  5      0.1039     1.7638E-04    3.0179E-04    1.000000E+07  0.00400  1.322E-02    0   0.8862   age070_m42            0.0000     3.4534E-02    35.8672   4.0000    64.3432
  6      1.3985     3.9798E-03    6.5860E-03    1.445000E+07  0.00400  7.883E-03    0   0.8571   age078_m42            0.0000     6.3972E-02    31.7137   4.0000    71.8789
  7      0.0000     0.0000E+00    0.0000E+00    2.512000E+07  0.00400  5.251E-03    0   0.8174   age090_m42            0.0000     4.3600E-02    37.9497   4.0000    61.4384
  8      0.0000     0.0000E+00    0.0000E+00    4.000000E+07  0.00400  3.649E-03    0   0.7851   age104_m42            0.0000     3.6113E-02    40.7340   4.0000    56.0880
  9      0.0000     0.0000E+00    0.0000E+00    5.500000E+07  0.00400  3.098E-03    0   0.7629   age110_m42            0.0000     4.2090E-02    37.6249   4.0000    59.5491
 10      0.5687     5.7263E-03    7.9682E-03    1.015200E+08  0.00400  2.228E-03    0   0.7207   age116_m42            0.0000     4.9274E-02    36.8494   4.0000    60.0337
 11      0.0000     0.0000E+00    0.0000E+00    2.861200E+08  0.00400  1.093E-03    0   0.6648   age125_m42            0.0000     3.8738E-02    46.2988   4.0000    48.9766
 12      0.0000     0.0000E+00    0.0000E+00    5.088000E+08  0.00400  6.597E-04    0   0.6365   age130_m42            0.0000     2.6671E-02    45.4385   4.0000    48.8497
 13      0.0000     0.0000E+00    0.0000E+00    1.434000E+09  0.00400  2.132E-04    0   0.5798   age139_m42            0.0000     1.9426E-02    59.9973   4.0000    32.4427
 14      1.1772     4.4798E-01    4.6508E-01    4.250000E+09  0.00400  5.895E-05    0   0.5377   age158_m42            0.0000     1.2942E-02    64.9596   4.0000    25.4458
 15      5.2362     3.3467E+00    3.3678E+00    7.500000E+09  0.00400  3.510E-05    0   0.5212   age171_m42            0.0000     8.5863E-03    67.3492   4.0000    23.2136
 16      5.1175     5.7259E+00    5.5653E+00    1.300000E+10  0.00400  2.005E-05    0   0.5034   age193_m42            0.0000     6.5145E-03    69.4682   4.0000    21.4267
 17      6.1565     9.0566E+00    8.6854E+00    1.800000E+10  0.00400  1.525E-05    0   0.4967   age213_m42            0.0000     7.3408E-03    69.9569   4.0000    21.1286
 18      0.0000     0.0000E+00    0.0000E+00    1.000000E+06  0.00800  1.238E-02    0   1.0000   age020_m52            0.0000     1.0249E-01    24.3350   4.0000    90.8949
 19      0.0000     0.0000E+00    0.0000E+00    3.160000E+06  0.00800  3.074E-02    0   0.9966   age045_m52            0.0000     9.4731E-02    24.3922   4.0000    88.7384
 20      0.8844     7.4361E-04    1.3558E-03    5.010000E+06  0.00800  2.668E-02    0   0.9443   age055_m52            0.0000     8.3022E-02    25.8537   4.0000    82.2076
 21      1.1126     1.1685E-03    2.0704E-03    6.610000E+06  0.00800  2.136E-02    0   0.9177   age061_m52            0.0000     1.5899E-02    42.1663   4.0000    52.2811
 22      0.0000     0.0000E+00    0.0000E+00    1.000000E+07  0.00800  1.215E-02    0   0.8827   age070_m52            0.0000     3.8431E-02    34.3131   4.0000    69.5651
 23      0.0000     0.0000E+00    0.0000E+00    1.445000E+07  0.00800  8.717E-03    0   0.8552   age078_m52            0.0000     3.7916E-02    32.1238   4.0000    71.8183
 24      0.0000     0.0000E+00    0.0000E+00    2.512000E+07  0.00800  5.592E-03    0   0.8162   age090_m52            0.0000     2.3181E-02    37.2259   4.0000    63.8940
 25      0.0654     3.7643E-04    5.6989E-04    4.000000E+07  0.00800  3.896E-03    0   0.7841   age104_m52            0.0000     1.7951E-02    37.9491   4.0000    61.9512
 26      0.0000     0.0000E+00    0.0000E+00    1.015200E+08  0.00800  2.148E-03    0   0.7226   age116_m52            0.0000     2.0299E-02    37.8565   4.0000    59.8930
 27      0.0000     0.0000E+00    0.0000E+00    2.861200E+08  0.00800  9.925E-04    0   0.6683   age125_m52            0.0000     1.0813E-02    44.3972   4.0000    50.4809
 28      0.0000     0.0000E+00    0.0000E+00    9.047900E+08  0.00800  3.141E-04    0   0.6138   age135_m52            0.0000     1.0051E-03    55.7821   4.0000    36.9707
 29      0.8455     1.1034E-01    1.2469E-01    1.434000E+09  0.00800  1.719E-04    0   0.5853   age139_m52            0.0000     7.5053E-04    64.7317   4.0000    28.1000
 30      1.9549     5.5712E-01    6.0237E-01    2.500000E+09  0.00800  7.872E-05    0   0.5600   age150_m52            0.0000     5.9182E-04    67.1039   4.0000    24.1230
 31      0.8903     4.6061E-01    4.8255E-01    4.250000E+09  0.00800  4.336E-05    0   0.5426   age158_m52            0.0000     3.2962E-04    55.7322   3.2860    32.3391
 32      4.0254     2.8586E+00    2.9357E+00    6.250000E+09  0.00800  3.159E-05    0   0.5319   age166_m52            0.0000     1.1940E-04    32.5610   1.5891    61.3960
 33      0.4370     7.2033E-01    7.0554E-01    1.300000E+10  0.00800  1.361E-05    0   0.5073   age193_m52            0.0000     1.8290E-03    21.6834  -1.0000   151.1851
 34      0.0000     0.0000E+00    0.0000E+00    1.800000E+10  0.00800  9.886E-06    0   0.4990   age213_m52            0.0000     2.4213E-03    18.8726  -1.0000   143.0902
 35      0.0000     0.0000E+00    0.0000E+00    1.000000E+06  0.02000  1.544E-02    0   1.0000   age020_m62            0.0000     1.0131E-01    24.3754   4.0000    90.9145
 36      0.0000     0.0000E+00    0.0000E+00    3.160000E+06  0.02000  3.762E-02    0   0.9858   age045_m62            0.0000     9.6906E-02    24.3606   4.0000    89.3353
 37      0.0000     0.0000E+00    0.0000E+00    5.010000E+06  0.02000  3.296E-02    0   0.9342   age055_m62            0.0000     6.1595E-02    26.3788   4.0000    79.6367
 38      0.0000     0.0000E+00    0.0000E+00    8.710000E+06  0.02000  1.154E-02    0   0.8861   age067_m62            0.0000     3.0251E-02    46.2177   4.0000    58.2030
 39      0.0000     0.0000E+00    0.0000E+00    1.445000E+07  0.02000  7.663E-03    0   0.8472   age078_m62            0.0000     1.8788E-02    40.2295   4.0000    61.8430
 40      0.0000     0.0000E+00    0.0000E+00    2.512000E+07  0.02000  4.532E-03    0   0.8099   age090_m62            0.0000     2.4016E-02    40.6483   4.0000    61.6603
 41      0.6398     5.2521E-03    7.7018E-03    5.500000E+07  0.02000  2.733E-03    0   0.7595   age110_m62            0.0000     2.2881E-02    38.2193   4.0000    61.0159
 42      0.6642     1.0884E-02    1.4679E-02    1.609000E+08  0.02000  1.369E-03    0   0.6985   age120_m62            0.0000     2.3437E-02    39.4586   4.0000    58.2737
 43      0.5211     1.2970E-02    1.6813E-02    2.861200E+08  0.02000  9.013E-04    0   0.6714   age125_m62            0.0000     1.0675E-02    42.6896   4.0000    53.7128
 44      1.5019     6.7010E-02    8.3437E-02    5.088000E+08  0.02000  5.028E-04    0   0.6449   age130_m62            0.0000     8.3007E-04    47.1384   4.0000    46.4746
 45      0.3183     2.9414E-02    3.5091E-02    9.047900E+08  0.02000  2.428E-04    0   0.6179   age135_m62            0.0000     3.5719E-05    22.3989   1.6453    98.2760
 46      0.0000     0.0000E+00    0.0000E+00    1.434000E+09  0.02000  1.263E-04    0   0.5908   age139_m62            0.0000     2.7647E-04    31.4359  -0.2717   181.9630
 47      2.7088     1.0154E+00    1.1121E+00    2.500000E+09  0.02000  5.985E-05    0   0.5673   age150_m62            0.0000     1.2627E-03    40.0005  -0.9988   209.1434
 48      2.8142     1.9301E+00    2.0377E+00    4.250000E+09  0.02000  3.271E-05    0   0.5468   age158_m62            0.0000     1.7814E-05    17.1022   0.1596   109.5706
 49      3.4177     5.6377E+00    5.6243E+00    1.000000E+10  0.02000  1.360E-05    0   0.5167   age181_m62            0.0000     1.7067E-05    15.4253  -0.3786   118.0709
 50      3.0731     9.6774E+00    9.3666E+00    1.800000E+10  0.02000  7.124E-06    0   0.5013   age213_m62            0.0000     3.7363E-05    17.9013   0.0059    90.2191
 51      0.4844     4.1923E-04    8.0927E-04    1.000000E+06  0.05000  2.592E-02    0   0.9998   age020_m72            0.0000     9.7830E-02    24.6247   4.0000    90.6452
 52      0.0000     0.0000E+00    0.0000E+00    3.160000E+06  0.05000  4.845E-02    0   0.9577   age045_m72            0.0000     6.6497E-02    24.6059   4.0000    86.2766
 53      0.0000     0.0000E+00    0.0000E+00    5.010000E+06  0.05000  3.072E-02    0   0.9147   age055_m72            0.0000     2.9252E-02    31.5938   4.0000    75.3637
 54      0.0000     0.0000E+00    0.0000E+00    6.610000E+06  0.05000  1.455E-02    0   0.8877   age061_m72            0.0000     2.4600E-02    48.0918   4.0000    61.3939
 55      0.3584     8.8597E-04    1.4581E-03    1.000000E+07  0.05000  9.074E-03    0   0.8524   age070_m72            0.0000     4.7149E-02    30.2129   4.0000    81.7903
 56      0.0000     0.0000E+00    0.0000E+00    2.512000E+07  0.05000  4.250E-03    0   0.7902   age090_m72            0.0000     3.3301E-02    33.0206   4.0000    73.3539
 57      0.1236     8.9800E-04    1.3208E-03    4.000000E+07  0.05000  3.087E-03    0   0.7618   age104_m72            0.0000     2.4214E-02    36.0939   4.0000    67.7897
 58      0.9559     1.2615E-02    1.7283E-02    1.015200E+08  0.05000  1.700E-03    0   0.7096   age116_m72            0.0000     1.4726E-02    38.1537   4.0000    61.8907
 59      0.0000     0.0000E+00    0.0000E+00    2.861200E+08  0.05000  7.384E-04    0   0.6633   age125_m72            0.0000     1.5880E-04    38.8657   3.6594    59.2484
 60      0.0000     0.0000E+00    0.0000E+00    5.088000E+08  0.05000  3.819E-04    0   0.6372   age130_m72            0.0000     2.3670E-03    64.1348  -0.4752   287.0484
 61      1.1603     1.5531E-01    1.8322E-01    9.047900E+08  0.05000  1.676E-04    0   0.6110   age135_m72            0.0000     1.6274E-02    56.3281  -1.0000   259.2527
 62     16.9911     4.3134E+00    4.8919E+00    1.434000E+09  0.05000  8.837E-05    0   0.5874   age139_m72            0.0000     4.4953E-03    39.4544  -1.0000   211.1419
 63     14.5842     7.7292E+00    8.3541E+00    2.500000E+09  0.05000  4.233E-05    0   0.5598   age150_m72            0.0000     1.1094E-03    28.6631  -1.0000   181.9605
 64     10.2781     1.6068E+01    1.6284E+01    6.250000E+09  0.05000  1.435E-05    0   0.5249   age166_m72            0.0000     1.0450E-03    18.2200  -1.0000   146.7604
 65      5.5503     1.9118E+01    1.8589E+01    1.300000E+10  0.05000  6.513E-06    0   0.5036   age193_m72            0.0000     4.6965E-04    14.5967  -1.0000   131.1185
 66      2.2034     1.0919E+01    1.0425E+01    1.800000E+10  0.05000  4.527E-06    0   0.4945   age213_m72            0.0000     2.6330E-04    13.6856  -1.0000   121.7350


## Synthesis Results - Average & Chains ##

# j      x_j: min, <> & last-chain-values for 1 ...  7 chains
  1      0.0000      0.0486      0.1287      0.1788      0.0000      0.0000      0.0168      0.0802      0.1025
  2      0.0000      0.0252      0.0000      0.0000      0.0000      0.0000      0.0000      0.0000      0.0000
  3      0.0000      0.0392      0.1641      0.0000      0.0302      0.0000      0.0030      0.1280      0.0000
  4      0.0000      0.0525      0.0000      0.0000      0.0000      0.3070      0.0000      0.1934      0.1864
  5      0.1039      0.3371      0.1988      0.2364      0.3193      0.1649      0.1913      0.2958      0.5463
  6      1.3985      0.8608      0.7712      0.7722      1.4286      0.9831      0.8305      0.7992      0.8874
  7      0.0000      0.0398      0.0000      0.0000      0.0000      0.0000      0.0000      0.0380      0.0000
  8      0.0000      0.0432      0.0000      0.1917      0.0451      0.0000      0.0000      0.2917      0.1993
  9      0.0000      0.0395      0.0000      0.0000      0.0963      0.0000      0.0000      0.2593      0.2553
 10      0.5687      0.2245      0.4425      0.2521      0.2658      0.2828      0.5312      0.0000      0.2390
 11      0.0000      0.0602      0.0000      0.2051      0.0259      0.0000      0.0000      0.0000      0.0000
 12      0.0000      0.0811      0.1054      0.1018      0.1052      0.0870      0.0000      0.3394      0.0000
 13      0.0000      0.1277      0.0000      0.0043      0.2705      0.1048      0.2226      0.1337      0.0000
 14      1.1772      0.4110      2.1088      1.1098      0.4579      1.2827      0.7307      0.2003      0.8317
 15      5.2362      0.9836      1.2409      1.8628      1.9744      1.1653      4.2407      1.0890      0.9850
 16      5.1175      0.8297      1.2918      1.8593      0.7806      0.6077      1.2475      0.6884      0.8771
 17      6.1565      1.1368      3.3488      1.1673      1.3145      3.7169      0.8895      5.4151      1.8765
 18      0.0000      0.0357      0.1641      0.0000      0.1522      0.0000      0.0000      0.0000      0.0000
 19      0.0000      0.1102      0.2227      0.1552      0.1830      0.1372      0.0000      0.1215      0.0000
 20      0.8844      0.5315      0.5196      0.4239      0.7695      0.4793      0.5799      0.5135      0.5088
 21      1.1126      0.7141      0.6859      0.5585      0.6344      0.6225      0.6949      0.5846      0.7043
 22      0.0000      0.1043      0.2056      0.0000      0.2214      0.1936      0.1710      0.1194      0.1483
 23      0.0000      0.0431      0.0842      0.0000      0.0000      0.1799      0.0000      0.0000      0.0000
 24      0.0000      0.0901      0.0000      0.0000      0.3619      0.1247      0.0000      0.0053      0.0975
 25      0.0654      0.0649      0.0000      0.3245      0.0000      0.0000      0.0000      0.0000      0.0535
 26      0.0000      0.0491      0.0000      0.0000      0.0679      0.1531      0.0000      0.2591      0.0000
 27      0.0000      0.0474      0.0000      0.1718      0.0032      0.0000      0.0000      0.0000      0.0000
 28      0.0000      0.1128      0.0000      0.0945      0.1038      0.0000      0.2564      0.1234      0.0000
 29      0.8455      0.3863      0.0000      0.3875      0.0000      0.5957      0.3518      0.8146      0.4502
 30      1.9549      0.8019      1.4439      0.7333      0.3712      0.3855      0.0886      0.0000      0.8947
 31      0.8903      1.0980      1.2474      0.6649      0.7996      1.3618      1.1298      0.9669      1.3370
 32      4.0254      1.3750      1.6346      3.1138      1.2975      2.3044      0.3561      1.9577      1.9145
 33      0.4370      0.2502      0.2105      0.4885      0.0958      0.0000      0.0000      0.0000      0.4144
 34      0.0000      0.1494      0.1491      0.0000      0.0000      0.0000      0.0000      0.5406      0.5975
 35      0.0000      0.0476      0.1169      0.0000      0.0000      0.1352      0.0000      0.0000      0.0000
 36      0.0000      0.0234      0.0000      0.0000      0.0000      0.0000      0.0000      0.0000      0.0000
 37      0.0000      0.0460      0.0000      0.0000      0.0000      0.0000      0.1170      0.0000      0.0869
 38      0.0000      0.0468      0.0000      0.0000      0.0000      0.1657      0.1916      0.0000      0.0000
 39      0.0000      0.0838      0.0000      0.1634      0.0804      0.0000      0.1249      0.0000      0.0069
 40      0.0000      0.0720      0.2541      0.0085      0.0000      0.0000      0.0000      0.0000      0.1449
 41      0.6398      0.4903      0.6205      0.4570      0.3687      0.5959      0.0000      0.4546      0.3616
 42      0.6642      1.0191      0.8708      0.8794      0.9178      1.0161      1.0428      0.9169      1.0203
 43      0.5211      0.5796      0.5872      0.6098      0.5617      0.2346      0.4309      0.4058      0.7110
 44      1.5019      2.0245      2.1070      1.8740      1.6347      1.8092      1.8743      1.9530      2.1264
 45      0.3183      0.1337      0.0000      0.4383      0.2249      0.0000      0.0000      0.0000      0.1001
 46      0.0000      0.4136      0.2199      0.1876      0.8954      0.4023      0.8272      0.0312      0.5153
