###################################################################
## OUTPUT of StarlightChains_v04.for    [Cid@UFSC - 01/Apr/2007] ##
###################################################################

## Some input info
KUG0210-078._46_52.txt                   [arq_obs]
Base.CB07.vall.4m                        [arq_base]
Masks.EmLines.NEW.gm                     [arq_masks]
StCv04.C11.config                        [arq_config]
   66                                    [N_base]
    0                                    [N_YAV_components = # of components with extra extinction!]
    0                                    [i_FitPowerLaw (1/0 = Yes/No)]
-9.99                                    [alpha_PowerLaw]
CCM                                      [red_law_option]
 1.458241                                [q_norm = A(l_norm)/A(V)]

## (Re)Sampling Parameters
 3741.00                                 [l_ini (A)]
 7218.00                                 [l_fin (A)]
    1.00                                 [dl    (A)]     (OBS: dl_cushion =    50.00 A)

## Normalization info
 4020.00                                 [l_norm (A) - for base]
 4010.00                                 [llow_norm (A) - window for f_obs]
 4060.00                                 [lupp_norm (A) - window for f_obs]
2.914664E-18                             [fobs_norm (in input units)]

## S/N
 3691.00                                 [llow_SN (A) - window for S/N]
 7268.00                                 [lupp_SN (A) - window for S/N]
   1.874                                 [S/N in S/N window]
   1.013                                 [S/N in norm. window]
   0.007                                 [S/N_err in S/N window]
   0.004                                 [S/N_err in norm. window]
  1.0000                                 [fscale_chi2]

## etc...
    -2007902                             [idum_orig]
  2353                                   [NOl_eff]
  2111                                   [Nl_eff]
   242    NSIGMA                         [Ntot_cliped & clip_method]
  5197710                                [Nglobal_steps]
   7                                     [N_chains]
   7                                     [NEX0s_base = N_base in EX0s-fits]
 0   0   1      242   2.0   2.038E+03    [Clip-Bug, RC-Crash & Burn-In warning-flags, n_censored_weights, wei_nsig_threshold & wei_limit]
    48     45.975     44.885      1.090  [idt_all, wdt_TotTime, wdt_UsrTime & wdt_SysTime (sec)]

## Synthesis Results - Best model ##

 5.01469E-05                             [chi2/Nl_eff]
    51.01285                             [adev (%)]

   130.00000                             [sum-of-x (%)]
 5.37741E-16                             [Flux_tot (units of input spectrum!)]
 4.91536E-14                             [Mini_tot (???)]
 4.91536E-14                             [Mcor_tot (???)]

 -71.59                                  [v0_min  (km/s)]
   0.00                                  [vd_min  (km/s)]
 3.6894                                  [AV_min  (mag)]
 0.0000                                  [YAV_min (mag)]

# j     x_j(%)      Mini_j(%)     Mcor_j(%)     age_j(yr)     Z_j      (L/M)_j    YAV?  Mstars   component_j        a/Fe...       SSP_chi2r SSP_adev(%)   SSP_AV   SSP_x(%)
  1    130.0000     1.0000E+02    1.0000E+02    1.000000E+06  0.00400  1.094E-02    0   1.0000   age020_m42            0.0000     2.4489E-05    41.4034   1.5685   319.0352
  2      0.0000     0.0000E+00    0.0000E+00    3.160000E+06  0.00400  4.007E-02    0   0.9999   age045_m42            0.0000     2.3978E-05    41.9619   0.9158   331.2286
  3      0.0000     0.0000E+00    0.0000E+00    5.010000E+06  0.00400  2.539E-02    0   0.9488   age055_m42            0.0000     2.4184E-05    41.6109   1.1995   327.6758
  4      0.0000     0.0000E+00    0.0000E+00    6.610000E+06  0.00400  2.620E-02    0   0.9220   age061_m42            0.0000     2.4058E-05    42.0497   0.8528   330.8751
  5      0.0000     0.0000E+00    0.0000E+00    1.000000E+07  0.00400  1.322E-02    0   0.8862   age070_m42            0.0000     2.4324E-05    43.1342   0.6061   336.4522
  6      0.0000     0.0000E+00    0.0000E+00    1.445000E+07  0.00400  7.883E-03    0   0.8571   age078_m42            0.0000     2.4355E-05    42.7090   0.9030   331.0247
  7      0.0000     0.0000E+00    0.0000E+00    2.512000E+07  0.00400  5.251E-03    0   0.8174   age090_m42            0.0000     2.4314E-05    43.3765   0.4855   337.4072
  8      0.0000     0.0000E+00    0.0000E+00    4.000000E+07  0.00400  3.649E-03    0   0.7851   age104_m42            0.0000     2.4220E-05    43.4603   0.2732   338.3070
  9      0.0000     0.0000E+00    0.0000E+00    5.500000E+07  0.00400  3.098E-03    0   0.7629   age110_m42            0.0000     2.3965E-05    42.9929   0.4169   338.0637
 10      0.0000     0.0000E+00    0.0000E+00    1.015200E+08  0.00400  2.228E-03    0   0.7207   age116_m42            0.0000     2.3884E-05    42.7762   0.4361   337.8967
 11      0.0000     0.0000E+00    0.0000E+00    2.861200E+08  0.00400  1.093E-03    0   0.6648   age125_m42            0.0000     2.4059E-05    43.4454  -0.0964   343.5291
 12      0.0000     0.0000E+00    0.0000E+00    5.088000E+08  0.00400  6.597E-04    0   0.6365   age130_m42            0.0000     2.3797E-05    43.0040  -0.1101   345.6387
 13      0.0000     0.0000E+00    0.0000E+00    1.434000E+09  0.00400  2.132E-04    0   0.5798   age139_m42            0.0000     2.3936E-05    43.4517  -1.0000   343.6003
 14      0.0000     0.0000E+00    0.0000E+00    4.250000E+09  0.00400  5.895E-05    0   0.5377   age158_m42            0.0000     2.5225E-05    52.6044  -1.0000   303.4818
 15      0.0000     0.0000E+00    0.0000E+00    7.500000E+09  0.00400  3.510E-05    0   0.5212   age171_m42            0.0000     2.6164E-05    56.9912  -1.0000   288.7028
 16      0.0000     0.0000E+00    0.0000E+00    1.300000E+10  0.00400  2.005E-05    0   0.5034   age193_m42            0.0000     2.7272E-05    61.0681  -1.0000   275.8405
 17      0.0000     0.0000E+00    0.0000E+00    1.800000E+10  0.00400  1.525E-05    0   0.4967   age213_m42            0.0000     2.7376E-05    61.8002  -1.0000   273.3652
 18      0.0000     0.0000E+00    0.0000E+00    1.000000E+06  0.00800  1.238E-02    0   1.0000   age020_m52            0.0000     2.4460E-05    41.3528   1.5617   319.8553
 19      0.0000     0.0000E+00    0.0000E+00    3.160000E+06  0.00800  3.074E-02    0   0.9966   age045_m52            0.0000     2.4379E-05    41.2762   1.4886   322.1960
 20      0.0000     0.0000E+00    0.0000E+00    5.010000E+06  0.00800  2.668E-02    0   0.9443   age055_m52            0.0000     2.4272E-05    41.5129   1.2762   325.4872
 21      0.0000     0.0000E+00    0.0000E+00    6.610000E+06  0.00800  2.136E-02    0   0.9177   age061_m52            0.0000     2.4513E-05    42.6190   0.1036   340.0670
 22      0.0000     0.0000E+00    0.0000E+00    1.000000E+07  0.00800  1.215E-02    0   0.8827   age070_m52            0.0000     2.4373E-05    43.2651   0.7783   336.8635
 23      0.0000     0.0000E+00    0.0000E+00    1.445000E+07  0.00800  8.717E-03    0   0.8552   age078_m52            0.0000     2.4251E-05    42.8099   0.8788   334.6395
 24      0.0000     0.0000E+00    0.0000E+00    2.512000E+07  0.00800  5.592E-03    0   0.8162   age090_m52            0.0000     2.4147E-05    43.4694   0.5555   340.7430
 25      0.0000     0.0000E+00    0.0000E+00    4.000000E+07  0.00800  3.896E-03    0   0.7841   age104_m52            0.0000     2.4037E-05    43.3524   0.4773   341.3535
 26      0.0000     0.0000E+00    0.0000E+00    1.015200E+08  0.00800  2.148E-03    0   0.7226   age116_m52            0.0000     2.4072E-05    42.9430   0.4217   338.6764
 27      0.0000     0.0000E+00    0.0000E+00    2.861200E+08  0.00800  9.925E-04    0   0.6683   age125_m52            0.0000     2.3816E-05    42.9290  -0.0395   348.2073
 28      0.0000     0.0000E+00    0.0000E+00    9.047900E+08  0.00800  3.141E-04    0   0.6138   age135_m52            0.0000     2.3373E-05    42.1375  -0.8123   356.5836
 29      0.0000     0.0000E+00    0.0000E+00    1.434000E+09  0.00800  1.719E-04    0   0.5853   age139_m52            0.0000     2.4365E-05    50.3922  -1.0000   324.9390
 30      0.0000     0.0000E+00    0.0000E+00    2.500000E+09  0.00800  7.872E-05    0   0.5600   age150_m52            0.0000     2.5716E-05    56.2538  -1.0000   298.0458
 31      0.0000     0.0000E+00    0.0000E+00    4.250000E+09  0.00800  4.336E-05    0   0.5426   age158_m52            0.0000     2.5885E-05    56.5069  -1.0000   294.1075
 32      0.0000     0.0000E+00    0.0000E+00    6.250000E+09  0.00800  3.159E-05    0   0.5319   age166_m52            0.0000     2.7256E-05    61.0855  -1.0000   279.3742
 33      0.0000     0.0000E+00    0.0000E+00    1.300000E+10  0.00800  1.361E-05    0   0.5073   age193_m52            0.0000     3.1473E-05    72.1263  -1.0000   243.9187
 34      0.0000     0.0000E+00    0.0000E+00    1.800000E+10  0.00800  9.886E-06    0   0.4990   age213_m52            0.0000     3.2746E-05    73.9669  -1.0000   234.4794
 35      0.0000     0.0000E+00    0.0000E+00    1.000000E+06  0.02000  1.544E-02    0   1.0000   age020_m62            0.0000     2.4449E-05    41.2779   1.5512   321.1777
 36      0.0000     0.0000E+00    0.0000E+00    3.160000E+06  0.02000  3.762E-02    0   0.9858   age045_m62            0.0000     2.4280E-05    41.1344   1.4826   324.8677
 37      0.0000     0.0000E+00    0.0000E+00    5.010000E+06  0.02000  3.296E-02    0   0.9342   age055_m62            0.0000     2.4046E-05    41.5826   1.1707   330.1936
 38      0.0000     0.0000E+00    0.0000E+00    8.710000E+06  0.02000  1.154E-02    0   0.8861   age067_m62            0.0000     2.4846E-05    45.6178   0.2520   348.7341
 39      0.0000     0.0000E+00    0.0000E+00    1.445000E+07  0.02000  7.663E-03    0   0.8472   age078_m62            0.0000     2.4362E-05    43.9540   0.4375   344.2290
 40      0.0000     0.0000E+00    0.0000E+00    2.512000E+07  0.02000  4.532E-03    0   0.8099   age090_m62            0.0000     2.4488E-05    44.2806   0.4438   341.6805
 41      0.0000     0.0000E+00    0.0000E+00    5.500000E+07  0.02000  2.733E-03    0   0.7595   age110_m62            0.0000     2.4183E-05    43.2569   0.4544   339.6840
 42      0.0000     0.0000E+00    0.0000E+00    1.609000E+08  0.02000  1.369E-03    0   0.6985   age120_m62            0.0000     2.3877E-05    42.9132   0.3060   345.7871
 43      0.0000     0.0000E+00    0.0000E+00    2.861200E+08  0.02000  9.013E-04    0   0.6714   age125_m62            0.0000     2.3554E-05    42.7393   0.0620   353.8436
 44      0.0000     0.0000E+00    0.0000E+00    5.088000E+08  0.02000  5.028E-04    0   0.6449   age130_m62            0.0000     2.3061E-05    42.0290  -0.3114   360.5462
 45      0.0000     0.0000E+00    0.0000E+00    9.047900E+08  0.02000  2.428E-04    0   0.6179   age135_m62            0.0000     2.3384E-05    41.3867  -0.8785   353.9700
 46      0.0000     0.0000E+00    0.0000E+00    1.434000E+09  0.02000  1.263E-04    0   0.5908   age139_m62            0.0000     2.4049E-05    47.4291  -1.0000   328.5226
 47      0.0000     0.0000E+00    0.0000E+00    2.500000E+09  0.02000  5.985E-05    0   0.5673   age150_m62            0.0000     2.5751E-05    55.8731  -1.0000   299.7867
 48      0.0000     0.0000E+00    0.0000E+00    4.250000E+09  0.02000  3.271E-05    0   0.5468   age158_m62            0.0000     2.7959E-05    62.8085  -1.0000   275.0070
 49      0.0000     0.0000E+00    0.0000E+00    1.000000E+10  0.02000  1.360E-05    0   0.5167   age181_m62            0.0000     3.1245E-05    70.2489  -1.0000   247.8369
 50      0.0000     0.0000E+00    0.0000E+00    1.800000E+10  0.02000  7.124E-06    0   0.5013   age213_m62            0.0000     3.3756E-05    74.2516  -1.0000   230.2589
 51      0.0000     0.0000E+00    0.0000E+00    1.000000E+06  0.05000  2.592E-02    0   0.9998   age020_m72            0.0000     2.4530E-05    41.2811   1.5425   321.5947
 52      0.0000     0.0000E+00    0.0000E+00    3.160000E+06  0.05000  4.845E-02    0   0.9577   age045_m72            0.0000     2.4192E-05    41.1625   1.3867   326.1770
 53      0.0000     0.0000E+00    0.0000E+00    5.010000E+06  0.05000  3.072E-02    0   0.9147   age055_m72            0.0000     2.4308E-05    42.7426   0.9700   335.3594
 54      0.0000     0.0000E+00    0.0000E+00    6.610000E+06  0.05000  1.455E-02    0   0.8877   age061_m72            0.0000     2.5278E-05    46.9393   0.2986   352.1874
 55      0.0000     0.0000E+00    0.0000E+00    1.000000E+07  0.05000  9.074E-03    0   0.8524   age070_m72            0.0000     2.4303E-05    42.8996   1.1382   334.8356
 56      0.0000     0.0000E+00    0.0000E+00    2.512000E+07  0.05000  4.250E-03    0   0.7902   age090_m72            0.0000     2.4296E-05    43.3469   0.8906   335.5235
 57      0.0000     0.0000E+00    0.0000E+00    4.000000E+07  0.05000  3.087E-03    0   0.7618   age104_m72            0.0000     2.4313E-05    43.8512   0.6888   338.5813
 58      0.0000     0.0000E+00    0.0000E+00    1.015200E+08  0.05000  1.700E-03    0   0.7096   age116_m72            0.0000     2.4046E-05    43.3277   0.4558   344.0046
 59      0.0000     0.0000E+00    0.0000E+00    2.861200E+08  0.05000  7.384E-04    0   0.6633   age125_m72            0.0000     2.3150E-05    42.2410  -0.0672   357.1106
 60      0.0000     0.0000E+00    0.0000E+00    5.088000E+08  0.05000  3.819E-04    0   0.6372   age130_m72            0.0000     2.2938E-05    41.2534  -0.5577   360.4735
 61      0.0000     0.0000E+00    0.0000E+00    9.047900E+08  0.05000  1.676E-04    0   0.6110   age135_m72            0.0000     2.3660E-05    44.6751  -1.0000   336.5708
 62      0.0000     0.0000E+00    0.0000E+00    1.434000E+09  0.05000  8.837E-05    0   0.5874   age139_m72            0.0000     2.5560E-05    55.4693  -1.0000   303.5553
 63      0.0000     0.0000E+00    0.0000E+00    2.500000E+09  0.05000  4.233E-05    0   0.5598   age150_m72            0.0000     2.7911E-05    62.4504  -1.0000   277.3019
 64      0.0000     0.0000E+00    0.0000E+00    6.250000E+09  0.05000  1.435E-05    0   0.5249   age166_m72            0.0000     3.2317E-05    72.2486  -1.0000   239.8180
 65      0.0000     0.0000E+00    0.0000E+00    1.300000E+10  0.05000  6.513E-06    0   0.5036   age193_m72            0.0000     3.6108E-05    77.3077  -1.0000   220.8930
 66      0.0000     0.0000E+00    0.0000E+00    1.800000E+10  0.05000  4.527E-06    0   0.4945   age213_m72            0.0000     3.8505E-05    79.8492  -1.0000   208.3165


## Synthesis Results - Average & Chains ##

# j      x_j: min, <> & last-chain-values for 1 ...  7 chains
  1    130.0000      0.4896      0.4989      0.5506      0.4356      0.5171      0.4937      0.4853      0.0000
  2      0.0000      0.1881      0.0000      0.0163      0.6035      0.4518      0.0102      0.9430      1.3039
  3      0.0000      0.1791      0.1089      0.8367      0.2451      0.6149      0.0319      0.8771      0.7025
  4      0.0000      0.1769      0.0647      0.0000      0.0383      0.2240      0.0253      1.1597      0.0297
  5      0.0000      0.1291      0.0842      0.6042      0.0000      0.4864      0.0000      0.4687      0.5457
  6      0.0000      0.1241      0.0000      0.6296      1.4023      0.0000      0.0000      0.0000      0.0000
  7      0.0000      0.1861      0.1491      0.4363      0.5685      0.7545      0.0000      0.0000      0.0000
  8      0.0000      0.1643      0.0756      1.6139      0.4697      0.1372      0.0289      0.9281      0.3541
  9      0.0000      0.2112      0.1527      0.9683      1.4202      0.5299      0.0000      0.5499      1.5073
 10      0.0000      0.1881      0.0000      0.1931      0.0000      0.1906      0.0350      0.0000      0.0000
 11      0.0000      0.1493      0.0348      0.3164      0.1399      0.2169      0.0000      0.0000      0.9450
 12      0.0000      0.2092      0.0000      0.0000      0.5641      0.0357      0.0209      0.2533      1.9578
 13      0.0000      0.1775      0.0143      0.2807      0.5922      0.1336      0.0020      0.8318      0.2484
 14      0.0000      0.1762      0.0567      1.2907      0.1484      0.4641      0.0310      0.7057      0.3128
 15      0.0000      0.1807      0.0758      0.1065      0.0000      0.2064      0.0491      0.3727      0.4486
 16      0.0000      0.1550      0.1171      0.0000      0.1363      0.5667      0.0407      0.7557      0.0645
 17      0.0000      0.1426      0.0201      0.0000      0.0151      0.5250      0.0089      0.0000      0.1175
 18      0.0000      0.1807      0.0000      0.7003      0.1022      0.3325      0.0252      0.2484      0.5974
 19      0.0000      0.1831      0.1091      0.9848      0.9563      0.0000      0.0000      0.0000      0.0000
 20      0.0000      0.1967      0.0131      1.1393      0.1857      0.4998      0.0130      0.0000      0.1957
 21      0.0000      0.1849      0.0000      1.2148      0.5327      0.1733      0.0429      0.2223      0.0095
 22      0.0000      0.1111      0.0386      0.2036      0.0000      0.1953      0.0000      0.2211      0.6859
 23      0.0000      0.1510      0.1114      0.3332      0.0000      0.3675      0.0002      0.0558      0.0000
 24      0.0000      0.1434      0.0116      1.0098      0.2609      0.0304      0.0000      0.0000      0.4757
 25      0.0000      0.1413      0.0658      0.2474      0.0000      0.1000      0.0220      0.3436      0.3309
 26      0.0000      0.1893      0.0559      1.5771      1.2335      0.2960      0.0000      1.5233      0.1107
 27      0.0000      0.1643      0.1268      1.1602      0.2014      0.0000      0.0000      0.3480      0.4482
 28      0.0000      0.1124      0.0030      0.0000      0.0000      0.1161      0.0065      0.3791      0.0000
 29      0.0000      0.1634      0.0034      0.0000      0.1738      0.2879      0.0021      0.0000      1.4022
 30      0.0000      0.1586      0.0407      0.0478      0.2965      0.1757      0.0626      0.7675      1.1956
 31      0.0000      0.1616      0.0000      0.3297      0.1540      0.0101      0.0286      0.1843      0.0000
 32      0.0000      0.1681      0.0112      0.0979      0.2147      0.1362      0.0142      0.7001      0.4383
 33      0.0000      0.1750      0.0000      0.5939      0.6062      0.0850      0.0021      1.0452      1.6321
 34      0.0000      0.1734      0.0179      0.5725      0.3859      0.0788      0.0365      0.7481      0.0111
 35      0.0000      0.1406      0.0000      0.1504      0.0000      0.0832      0.0023      0.0000      0.0000
 36      0.0000      0.1463      0.1100      0.8972      0.2656      0.2956      0.0626      0.6656      0.0000
 37      0.0000      0.1784      0.0985      0.6337      0.9640      0.5460      0.0000      0.4596      0.0000
 38      0.0000      0.2024      0.0000      0.1098      0.7393      0.2026      0.0131      1.7850      0.9235
 39      0.0000      0.1369      0.0000      0.8019      0.0570      0.3351      0.0241      0.0529      0.4403
 40      0.0000      0.1244      0.0831      0.0000      0.0542      0.1520      0.0000      0.0095      0.0829
 41      0.0000      0.1745      0.0225      0.3311      0.0000      0.1410      0.0108      0.0000      0.2164
 42      0.0000      0.2145      0.0000      1.3044      1.0859      0.4716      0.0259      0.0723      0.0000
 43      0.0000      0.1946      0.0583      0.0000      0.4303      0.6886      0.0238      1.0991      0.4657
 44      0.0000      0.1498      0.0857      0.0061      0.1674      0.8242      0.0164      0.4317      0.0000
 45      0.0000      0.1834      0.0903      0.3494      0.0448      0.4745      0.0622      0.0000      1.1560
 46      0.0000      0.1446      0.0905      0.4191      0.1121      0.6912      0.0086      0.0000      0.3774
