###################################################################
## OUTPUT of StarlightChains_v04.for    [Cid@UFSC - 01/Apr/2007] ##
###################################################################

## Some input info
KUG0210-078._28_33.txt                   [arq_obs]
Base.CB07.vall.4m                        [arq_base]
Masks.EmLines.NEW.gm                     [arq_masks]
StCv04.C11.config                        [arq_config]
   66                                    [N_base]
    0                                    [N_YAV_components = # of components with extra extinction!]
    0                                    [i_FitPowerLaw (1/0 = Yes/No)]
-9.99                                    [alpha_PowerLaw]
CCM                                      [red_law_option]
 1.458241                                [q_norm = A(l_norm)/A(V)]

## (Re)Sampling Parameters
 3741.00                                 [l_ini (A)]
 7218.00                                 [l_fin (A)]
    1.00                                 [dl    (A)]     (OBS: dl_cushion =    50.00 A)

## Normalization info
 4020.00                                 [l_norm (A) - for base]
 4010.00                                 [llow_norm (A) - window for f_obs]
 4060.00                                 [lupp_norm (A) - window for f_obs]
7.442722E-17                             [fobs_norm (in input units)]

## S/N
 3691.00                                 [llow_SN (A) - window for S/N]
 7268.00                                 [lupp_SN (A) - window for S/N]
   7.879                                 [S/N in S/N window]
   9.244                                 [S/N in norm. window]
   0.092                                 [S/N_err in S/N window]
   0.108                                 [S/N_err in norm. window]
  1.0000                                 [fscale_chi2]

## etc...
    -2007381                             [idum_orig]
  2432                                   [NOl_eff]
  2420                                   [Nl_eff]
    12    NSIGMA                         [Ntot_cliped & clip_method]
  6374760                                [Nglobal_steps]
   7                                     [N_chains]
  45                                     [NEX0s_base = N_base in EX0s-fits]
 0   0   1       12   2.0   1.063E+04    [Clip-Bug, RC-Crash & Burn-In warning-flags, n_censored_weights, wei_nsig_threshold & wei_limit]
    64     63.476     63.014      0.461  [idt_all, wdt_TotTime, wdt_UsrTime & wdt_SysTime (sec)]

## Synthesis Results - Best model ##

 7.13406E-05                             [chi2/Nl_eff]
     4.00007                             [adev (%)]

   107.52858                             [sum-of-x (%)]
 7.08673E-17                             [Flux_tot (units of input spectrum!)]
 2.67027E-12                             [Mini_tot (???)]
 1.34595E-12                             [Mcor_tot (???)]

 -67.53                                  [v0_min  (km/s)]
 298.45                                  [vd_min  (km/s)]
-0.0905                                  [AV_min  (mag)]
 0.0000                                  [YAV_min (mag)]

# j     x_j(%)      Mini_j(%)     Mcor_j(%)     age_j(yr)     Z_j      (L/M)_j    YAV?  Mstars   component_j        a/Fe...       SSP_chi2r SSP_adev(%)   SSP_AV   SSP_x(%)
  1      0.0000     0.0000E+00    0.0000E+00    1.000000E+06  0.00400  1.094E-02    0   1.0000   age020_m42            0.0000     9.4125E-05     5.8646   2.4930    96.2662
  2      0.0000     0.0000E+00    0.0000E+00    3.160000E+06  0.00400  4.007E-02    0   0.9999   age045_m42            0.0000     1.2434E-04     5.7995   1.7330   103.8535
  3      0.0000     0.0000E+00    0.0000E+00    5.010000E+06  0.00400  2.539E-02    0   0.9488   age055_m42            0.0000     1.0648E-04     5.6976   2.0710   100.8108
  4      0.0000     0.0000E+00    0.0000E+00    6.610000E+06  0.00400  2.620E-02    0   0.9220   age061_m42            0.0000     1.3475E-04     5.6520   1.6667   103.8548
  5      0.0000     0.0000E+00    0.0000E+00    1.000000E+07  0.00400  1.322E-02    0   0.8862   age070_m42            0.0000     1.2069E-04     4.5713   1.4451   104.2794
  6      0.0000     0.0000E+00    0.0000E+00    1.445000E+07  0.00400  7.883E-03    0   0.8571   age078_m42            0.0000     1.0827E-04     4.6542   1.7709   101.6871
  7      0.0000     0.0000E+00    0.0000E+00    2.512000E+07  0.00400  5.251E-03    0   0.8174   age090_m42            0.0000     1.2398E-04     4.5259   1.3237   104.6240
  8      0.0000     0.0000E+00    0.0000E+00    4.000000E+07  0.00400  3.649E-03    0   0.7851   age104_m42            0.0000     1.3157E-04     4.5501   1.0840   105.8678
  9      0.0000     0.0000E+00    0.0000E+00    5.500000E+07  0.00400  3.098E-03    0   0.7629   age110_m42            0.0000     1.5930E-04     5.0326   1.2054   106.8316
 10      0.0000     0.0000E+00    0.0000E+00    1.015200E+08  0.00400  2.228E-03    0   0.7207   age116_m42            0.0000     1.9113E-04     5.4694   1.2068   107.5718
 11      0.0000     0.0000E+00    0.0000E+00    2.861200E+08  0.00400  1.093E-03    0   0.6648   age125_m42            0.0000     2.1508E-04     5.1398   0.6521   110.1793
 12      0.0000     0.0000E+00    0.0000E+00    5.088000E+08  0.00400  6.597E-04    0   0.6365   age130_m42            0.0000     2.5954E-04     5.7995   0.6089   112.1393
 13      0.0000     0.0000E+00    0.0000E+00    1.434000E+09  0.00400  2.132E-04    0   0.5798   age139_m42            0.0000     2.4241E-04     5.7866  -0.3851   115.0542
 14      0.0000     0.0000E+00    0.0000E+00    4.250000E+09  0.00400  5.895E-05    0   0.5377   age158_m42            0.0000     1.8628E-04     6.3607  -0.8599   111.5859
 15      0.0000     0.0000E+00    0.0000E+00    7.500000E+09  0.00400  3.510E-05    0   0.5212   age171_m42            0.0000     2.0428E-04     6.3749  -1.0000   109.9533
 16     10.7761     1.3265E+01    1.3248E+01    1.300000E+10  0.00400  2.005E-05    0   0.5034   age193_m42            0.0000     2.5147E-04     6.8714  -1.0000   105.7815
 17      0.0000     0.0000E+00    0.0000E+00    1.800000E+10  0.00400  1.525E-05    0   0.4967   age213_m42            0.0000     2.4697E-04     6.9801  -1.0000   104.7704
 18      2.9434     5.8680E-03    1.1642E-02    1.000000E+06  0.00800  1.238E-02    0   1.0000   age020_m52            0.0000     9.4508E-05     5.8707   2.4894    96.4617
 19      6.0640     4.8688E-03    9.6265E-03    3.160000E+06  0.00800  3.074E-02    0   0.9966   age045_m52            0.0000     9.5730E-05     5.8992   2.4081    97.4623
 20      0.0000     0.0000E+00    0.0000E+00    5.010000E+06  0.00800  2.668E-02    0   0.9443   age055_m52            0.0000     1.0157E-04     5.6248   2.1605    99.7300
 21      0.0000     0.0000E+00    0.0000E+00    6.610000E+06  0.00800  2.136E-02    0   0.9177   age061_m52            0.0000     8.8322E-05     4.2978   0.9426   105.5488
 22      0.0000     0.0000E+00    0.0000E+00    1.000000E+07  0.00800  1.215E-02    0   0.8827   age070_m52            0.0000     1.0957E-04     4.4320   1.6430   103.4982
 23      0.0000     0.0000E+00    0.0000E+00    1.445000E+07  0.00800  8.717E-03    0   0.8552   age078_m52            0.0000     1.1068E-04     4.5691   1.7362   103.1132
 24      0.0000     0.0000E+00    0.0000E+00    2.512000E+07  0.00800  5.592E-03    0   0.8162   age090_m52            0.0000     1.2613E-04     4.4705   1.3881   105.8536
 25      0.0000     0.0000E+00    0.0000E+00    4.000000E+07  0.00800  3.896E-03    0   0.7841   age104_m52            0.0000     1.4083E-04     4.5315   1.2816   107.2127
 26      0.0000     0.0000E+00    0.0000E+00    1.015200E+08  0.00800  2.148E-03    0   0.7226   age116_m52            0.0000     1.7196E-04     5.0057   1.1893   107.9330
 27      0.0000     0.0000E+00    0.0000E+00    2.861200E+08  0.00800  9.925E-04    0   0.6683   age125_m52            0.0000     2.6464E-04     5.7093   0.6750   113.1419
 28      0.0000     0.0000E+00    0.0000E+00    9.047900E+08  0.00800  3.141E-04    0   0.6138   age135_m52            0.0000     2.9332E-04     6.7510  -0.1842   119.7603
 29      0.0000     0.0000E+00    0.0000E+00    1.434000E+09  0.00800  1.719E-04    0   0.5853   age139_m52            0.0000     2.2248E-04     6.3309  -0.7613   117.1264
 30      0.0000     0.0000E+00    0.0000E+00    2.500000E+09  0.00800  7.872E-05    0   0.5600   age150_m52            0.0000     2.3447E-04     6.8100  -1.0000   113.7258
 31      1.3738     7.8198E-01    8.4178E-01    4.250000E+09  0.00800  4.336E-05    0   0.5426   age158_m52            0.0000     2.3154E-04     6.7190  -1.0000   112.3108
 32      0.0000     0.0000E+00    0.0000E+00    6.250000E+09  0.00800  3.159E-05    0   0.5319   age166_m52            0.0000     3.2343E-04     7.7584  -1.0000   107.7598
 33      0.0000     0.0000E+00    0.0000E+00    1.300000E+10  0.00800  1.361E-05    0   0.5073   age193_m52            0.0000     6.7278E-04    16.4097  -1.0000    94.9476
 34      0.0000     0.0000E+00    0.0000E+00    1.800000E+10  0.00800  9.886E-06    0   0.4990   age213_m52            0.0000     8.4560E-04    18.7337  -1.0000    91.4317
 35      0.0000     0.0000E+00    0.0000E+00    1.000000E+06  0.02000  1.544E-02    0   1.0000   age020_m62            0.0000     9.5208E-05     5.8858   2.4862    96.6663
 36     31.6006     2.0732E-02    4.0547E-02    3.160000E+06  0.02000  3.762E-02    0   0.9858   age045_m62            0.0000     9.6369E-05     5.9259   2.4213    97.6460
 37      0.0000     0.0000E+00    0.0000E+00    5.010000E+06  0.02000  3.296E-02    0   0.9342   age055_m62            0.0000     1.2095E-04     5.8686   2.0185   102.4413
 38      7.0972     1.5179E-02    2.6684E-02    8.710000E+06  0.02000  1.154E-02    0   0.8861   age067_m62            0.0000     1.2142E-04     6.6725   1.2026   103.0625
 39      0.0000     0.0000E+00    0.0000E+00    1.445000E+07  0.02000  7.663E-03    0   0.8472   age078_m62            0.0000     1.0223E-04     4.6602   1.3186   104.9268
 40      0.0000     0.0000E+00    0.0000E+00    2.512000E+07  0.02000  4.532E-03    0   0.8099   age090_m62            0.0000     1.1314E-04     4.8668   1.3150   104.4818
 41      0.0000     0.0000E+00    0.0000E+00    5.500000E+07  0.02000  2.733E-03    0   0.7595   age110_m62            0.0000     1.3658E-04     4.4540   1.2675   106.3139
 42      0.0000     0.0000E+00    0.0000E+00    1.609000E+08  0.02000  1.369E-03    0   0.6985   age120_m62            0.0000     2.2685E-04     5.3204   1.0614   110.6001
 43      0.0000     0.0000E+00    0.0000E+00    2.861200E+08  0.02000  9.013E-04    0   0.6714   age125_m62            0.0000     3.0647E-04     5.9610   0.7851   114.6071
 44      0.0000     0.0000E+00    0.0000E+00    5.088000E+08  0.02000  5.028E-04    0   0.6449   age130_m62            0.0000     3.5474E-04     7.1597   0.3480   119.5818
 45      0.0000     0.0000E+00    0.0000E+00    9.047900E+08  0.02000  2.428E-04    0   0.6179   age135_m62            0.0000     2.7904E-04     7.2747  -0.2665   119.7252
 46      7.7096     1.5066E+00    1.7659E+00    1.434000E+09  0.02000  1.263E-04    0   0.5908   age139_m62            0.0000     2.4473E-04     7.3213  -0.7183   118.1308
 47      0.0650     2.6825E-02    3.0191E-02    2.500000E+09  0.02000  5.985E-05    0   0.5673   age150_m62            0.0000     2.7386E-04     7.4156  -1.0000   114.8946
 48      2.2138     1.6704E+00    1.8121E+00    4.250000E+09  0.02000  3.271E-05    0   0.5468   age158_m62            0.0000     4.4137E-04     9.6636  -1.0000   106.6456
 49      0.0000     0.0000E+00    0.0000E+00    1.000000E+10  0.02000  1.360E-05    0   0.5167   age181_m62            0.0000     8.0392E-04    16.4296  -1.0000    96.7100
 50     22.5969     7.8288E+01    7.7860E+01    1.800000E+10  0.02000  7.124E-06    0   0.5013   age213_m62            0.0000     1.1122E-03    20.6533  -1.0000    89.8285
 51     10.7508     1.0237E-02    2.0305E-02    1.000000E+06  0.05000  2.592E-02    0   0.9998   age020_m72            0.0000     9.6435E-05     5.8882   2.4826    96.5592
 52      0.0000     0.0000E+00    0.0000E+00    3.160000E+06  0.05000  4.845E-02    0   0.9577   age045_m72            0.0000     1.0321E-04     5.9832   2.2889    99.3650
 53      0.0000     0.0000E+00    0.0000E+00    5.010000E+06  0.05000  3.072E-02    0   0.9147   age055_m72            0.0000     9.6575E-05     4.6507   1.8722   101.7890
 54      0.0000     0.0000E+00    0.0000E+00    6.610000E+06  0.05000  1.455E-02    0   0.8877   age061_m72            0.0000     1.6585E-04     8.7359   1.2720   102.7717
 55      0.0000     0.0000E+00    0.0000E+00    1.000000E+07  0.05000  9.074E-03    0   0.8524   age070_m72            0.0000     1.0698E-04     5.6274   2.0450   101.5477
 56      3.5333     2.0519E-02    3.2167E-02    2.512000E+07  0.05000  4.250E-03    0   0.7902   age090_m72            0.0000     1.2526E-04     5.0932   1.7421   103.7142
 57      0.0000     0.0000E+00    0.0000E+00    4.000000E+07  0.05000  3.087E-03    0   0.7618   age104_m72            0.0000     1.4298E-04     5.2265   1.5188   105.3145
 58      0.0000     0.0000E+00    0.0000E+00    1.015200E+08  0.05000  1.700E-03    0   0.7096   age116_m72            0.0000     2.1359E-04     5.0861   1.2227   109.5340
 59      0.0000     0.0000E+00    0.0000E+00    2.861200E+08  0.05000  7.384E-04    0   0.6633   age125_m72            0.0000     3.3682E-04     6.4860   0.6216   117.1927
 60      0.0000     0.0000E+00    0.0000E+00    5.088000E+08  0.05000  3.819E-04    0   0.6372   age130_m72            0.0000     3.0913E-04     7.3375   0.0760   120.8887
 61      0.0000     0.0000E+00    0.0000E+00    9.047900E+08  0.05000  1.676E-04    0   0.6110   age135_m72            0.0000     2.7938E-04     8.4996  -0.6745   120.3796
 62      0.0000     0.0000E+00    0.0000E+00    1.434000E+09  0.05000  8.837E-05    0   0.5874   age139_m72            0.0000     2.9967E-04     7.6295  -1.0000   116.6877
 63      0.0000     0.0000E+00    0.0000E+00    2.500000E+09  0.05000  4.233E-05    0   0.5598   age150_m72            0.0000     4.7401E-04     9.9328  -1.0000   107.6456
 64      0.0000     0.0000E+00    0.0000E+00    6.250000E+09  0.05000  1.435E-05    0   0.5249   age166_m72            0.0000     9.1121E-04    18.3905  -1.0000    93.5936
 65      0.0000     0.0000E+00    0.0000E+00    1.300000E+10  0.05000  6.513E-06    0   0.5036   age193_m72            0.0000     1.3466E-03    23.7545  -1.0000    86.0440
 66      0.8041     4.3840E+00    4.3009E+00    1.800000E+10  0.05000  4.527E-06    0   0.4945   age213_m72            0.0000     1.6249E-03    26.4997  -1.0000    80.9525


## Synthesis Results - Average & Chains ##

# j      x_j: min, <> & last-chain-values for 1 ...  7 chains
  1      0.0000      6.5675      5.7017      5.4408      6.0001      5.6933      6.0447      6.4151      3.5936
  2      0.0000      0.4520      0.0000      1.7923      2.1424      2.1207      0.0040      0.5685      0.2811
  3      0.0000      0.5040      0.5056      0.2593      0.0000      0.7735      3.0410      0.5168      0.0000
  4      0.0000      0.5204      2.8955      0.0349      0.3654      0.6022      1.9832      0.4006      0.7502
  5      0.0000      0.3856      0.0000      1.1705      0.0000      0.6543      0.0000      0.3946      2.3157
  6      0.0000      0.5342      0.6684      0.5906      1.4964      0.1756      1.8812      0.3350      1.5136
  7      0.0000      0.5142      0.0000      0.4601      2.7868      0.0000      1.9331      1.2013      0.8150
  8      0.0000      0.5729      0.0000      1.0352      1.4982      0.3049      0.6921      1.3550      0.0000
  9      0.0000      0.4775      0.0000      2.5315      0.5269      0.0000      0.6219      1.1656      0.0000
 10      0.0000      0.4337      0.0000      0.0686      0.0000      0.4216      1.3810      0.0279      2.3579
 11      0.0000      0.5579      0.0000      0.1745      0.1972      0.9994      0.5470      0.7707      0.8896
 12      0.0000      0.4281      1.3153      1.5916      1.3731      3.3575      0.7219      0.0000      1.8535
 13      0.0000      0.3428      1.5262      0.3073      0.1803      0.0000      0.0000      0.0000      0.5099
 14      0.0000      0.4359      0.8712      0.1530      0.0000      0.7500      1.6148      0.1986      0.3698
 15      0.0000      0.6182      0.0000      0.5597      0.0095      0.0000      0.0000      0.5994      1.7409
 16     10.7761      0.7950      2.8059      1.2996      2.5517      3.0193      1.5188      0.5955      1.3283
 17      0.0000      0.3545      0.0000      0.0000      1.4057      0.6710      1.0960      0.9276      0.0000
 18      2.9434      0.5530      0.5667      0.4248      0.7093      1.8885      0.6268      0.9967      4.1725
 19      6.0640      0.6233      1.2358      0.4666      0.0989      2.5304      0.9533      0.0280      0.0423
 20      0.0000      0.4262      0.4109      1.1598      0.6902      0.4224      2.6125      0.7694      0.3894
 21      0.0000      0.4619      1.2093      0.4905      2.1282      1.0567      1.8427      1.5752      0.0000
 22      0.0000      0.5172      1.0383      0.5685      0.8760      0.9083      0.0000      0.5561      1.2894
 23      0.0000      0.4906      0.0000      1.0736      2.1274      0.7223      0.0000      0.4390      1.3208
 24      0.0000      0.5828      0.0000      0.3212      0.2436      4.1511      0.7617      0.0000      0.3359
 25      0.0000      0.4493      0.9422      0.0000      1.7707      0.1026      0.0000      0.6427      0.0000
 26      0.0000      0.3109      0.0000      0.2287      0.0000      0.0263      2.2318      0.0000      0.5479
 27      0.0000      0.3812      0.8423      0.0000      0.4983      0.0000      0.7584      0.5022      0.0000
 28      0.0000      0.4697      1.2524      0.0000      0.1609      3.9909      0.4766      1.3585      0.7355
 29      0.0000      0.5942      0.8583      1.6531      0.5423      2.8032      1.8081      0.0000      1.7394
 30      0.0000      0.4917      0.1007      2.0777      0.0400      0.6715      0.3555      0.0000      0.4851
 31      1.3738      7.3675      6.2629      8.5963      6.5709      2.0784      7.0040      7.5760      8.5626
 32      0.0000      7.9118      5.8127      6.4952      7.3647      1.4227      9.3610      7.8281      3.7939
 33      0.0000      2.6025      2.8173      2.9079      1.8096      2.7035      1.6311      2.3790      2.6575
 34      0.0000      1.7785      2.4800      1.8240      0.2838      2.7182      3.2037      1.6711      3.1172
 35      0.0000      0.5368      1.3518      3.8186      1.4059      0.0000      1.2436      1.9531      0.8626
 36     31.6006      0.3310      0.8907      0.0000      0.3804      1.9889      1.5824      0.8824      0.4424
 37      0.0000      0.5173      2.1844      0.5912      0.8134      0.0000      0.4304      0.0000      2.9506
 38      7.0972      0.4028      0.0000      0.7150      0.0000      2.1354      0.5511      0.8907      0.0572
 39      0.0000      0.4589      0.9275      0.8290      0.7414      2.1563      0.3390      0.0308      0.0000
 40      0.0000      0.4200      0.4594      1.0809      1.1372      1.3190      0.3665      0.7215      0.0000
 41      0.0000      0.5011      0.5280      0.5629      0.6823      1.5450      0.9297      0.6934      1.1719
 42      0.0000      0.5488      0.0000      0.0675      0.1156      1.1675      0.0000      0.5441      1.4452
 43      0.0000      0.4172      1.5772      0.1252      0.6365      0.8602      0.0000      0.6845      1.4701
 44      0.0000      0.4137      0.4181      0.0000      0.0000      2.1416      0.0000      0.1542      0.2661
 45      0.0000      0.4817      0.0000      0.0000      0.1966      0.0000      0.2941      0.1860      0.0000
 46      7.7096      0.4938      0.0000      0.3094      0.0000      1.3394      0.1680      0.7485      1.6202
