###################################################################
## OUTPUT of StarlightChains_v04.for    [Cid@UFSC - 01/Apr/2007] ##
###################################################################

## Some input info
KUG0210-078._28_32.txt                   [arq_obs]
Base.CB07.vall.4m                        [arq_base]
Masks.EmLines.NEW.gm                     [arq_masks]
StCv04.C11.config                        [arq_config]
   66                                    [N_base]
    0                                    [N_YAV_components = # of components with extra extinction!]
    0                                    [i_FitPowerLaw (1/0 = Yes/No)]
-9.99                                    [alpha_PowerLaw]
CCM                                      [red_law_option]
 1.458241                                [q_norm = A(l_norm)/A(V)]

## (Re)Sampling Parameters
 3741.00                                 [l_ini (A)]
 7218.00                                 [l_fin (A)]
    1.00                                 [dl    (A)]     (OBS: dl_cushion =    50.00 A)

## Normalization info
 4020.00                                 [l_norm (A) - for base]
 4010.00                                 [llow_norm (A) - window for f_obs]
 4060.00                                 [lupp_norm (A) - window for f_obs]
6.340218E-17                             [fobs_norm (in input units)]

## S/N
 3691.00                                 [llow_SN (A) - window for S/N]
 7268.00                                 [lupp_SN (A) - window for S/N]
   9.758                                 [S/N in S/N window]
  12.334                                 [S/N in norm. window]
   0.065                                 [S/N_err in S/N window]
   0.083                                 [S/N_err in norm. window]
  1.0000                                 [fscale_chi2]

## etc...
    -2007380                             [idum_orig]
  2432                                   [NOl_eff]
  2414                                   [Nl_eff]
    18    NSIGMA                         [Ntot_cliped & clip_method]
  6074460                                [Nglobal_steps]
   7                                     [N_chains]
  33                                     [NEX0s_base = N_base in EX0s-fits]
 0   0   1       18   2.0   1.116E+04    [Clip-Bug, RC-Crash & Burn-In warning-flags, n_censored_weights, wei_nsig_threshold & wei_limit]
    49     49.063     48.630      0.433  [idt_all, wdt_TotTime, wdt_UsrTime & wdt_SysTime (sec)]

## Synthesis Results - Best model ##

 4.98092E-05                             [chi2/Nl_eff]
     4.21406                             [adev (%)]

    98.64470                             [sum-of-x (%)]
 9.57180E-17                             [Flux_tot (units of input spectrum!)]
 1.92255E-12                             [Mini_tot (???)]
 9.90911E-13                             [Mcor_tot (???)]

 -27.35                                  [v0_min  (km/s)]
 364.24                                  [vd_min  (km/s)]
 0.3168                                  [AV_min  (mag)]
 0.0000                                  [YAV_min (mag)]

# j     x_j(%)      Mini_j(%)     Mcor_j(%)     age_j(yr)     Z_j      (L/M)_j    YAV?  Mstars   component_j        a/Fe...       SSP_chi2r SSP_adev(%)   SSP_AV   SSP_x(%)
  1      4.8473     2.2363E-02    4.3388E-02    1.000000E+06  0.00400  1.094E-02    0   1.0000   age020_m42            0.0000     8.9655E-05     9.0409   2.4606    89.5686
  2      0.0000     0.0000E+00    0.0000E+00    3.160000E+06  0.00400  4.007E-02    0   0.9999   age045_m42            0.0000     1.2172E-04     9.5379   1.6786    97.2070
  3      0.0000     0.0000E+00    0.0000E+00    5.010000E+06  0.00400  2.539E-02    0   0.9488   age055_m42            0.0000     1.0283E-04     9.1527   2.0281    94.0849
  4      0.0000     0.0000E+00    0.0000E+00    6.610000E+06  0.00400  2.620E-02    0   0.9220   age061_m42            0.0000     1.2649E-04     9.3597   1.6119    97.2433
  5      0.0000     0.0000E+00    0.0000E+00    1.000000E+07  0.00400  1.322E-02    0   0.8862   age070_m42            0.0000     1.0218E-04     7.4360   1.4027    97.4066
  6      0.0000     0.0000E+00    0.0000E+00    1.445000E+07  0.00400  7.883E-03    0   0.8571   age078_m42            0.0000     9.3243E-05     7.5496   1.7339    94.8259
  7      0.0000     0.0000E+00    0.0000E+00    2.512000E+07  0.00400  5.251E-03    0   0.8174   age090_m42            0.0000     1.0268E-04     7.1616   1.2822    97.7264
  8      0.0000     0.0000E+00    0.0000E+00    4.000000E+07  0.00400  3.649E-03    0   0.7851   age104_m42            0.0000     1.1123E-04     7.4055   1.0391    98.9861
  9      0.0000     0.0000E+00    0.0000E+00    5.500000E+07  0.00400  3.098E-03    0   0.7629   age110_m42            0.0000     1.3971E-04     8.5096   1.1492   100.1352
 10      0.0000     0.0000E+00    0.0000E+00    1.015200E+08  0.00400  2.228E-03    0   0.7207   age116_m42            0.0000     1.6756E-04     9.2620   1.1428   101.0201
 11      0.0000     0.0000E+00    0.0000E+00    2.861200E+08  0.00400  1.093E-03    0   0.6648   age125_m42            0.0000     1.7989E-04     8.7787   0.5857   103.5718
 12      0.0000     0.0000E+00    0.0000E+00    5.088000E+08  0.00400  6.597E-04    0   0.6365   age130_m42            0.0000     2.2179E-04     9.9380   0.5330   105.6416
 13      0.0000     0.0000E+00    0.0000E+00    1.434000E+09  0.00400  2.132E-04    0   0.5798   age139_m42            0.0000     2.1585E-04    10.1950  -0.4686   108.5437
 14      0.0000     0.0000E+00    0.0000E+00    4.250000E+09  0.00400  5.895E-05    0   0.5377   age158_m42            0.0000     1.7410E-04    11.0648  -0.9440   105.2050
 15      0.0000     0.0000E+00    0.0000E+00    7.500000E+09  0.00400  3.510E-05    0   0.5212   age171_m42            0.0000     1.9198E-04    10.5136  -1.0000   102.3977
 16      0.9393     2.3644E+00    2.3093E+00    1.300000E+10  0.00400  2.005E-05    0   0.5034   age193_m42            0.0000     2.2773E-04    10.6237  -1.0000    98.8520
 17      0.0000     0.0000E+00    0.0000E+00    1.800000E+10  0.00400  1.525E-05    0   0.4967   age213_m42            0.0000     2.2379E-04    10.5432  -1.0000    97.9326
 18     30.7032     1.2517E-01    2.4286E-01    1.000000E+06  0.00800  1.238E-02    0   1.0000   age020_m52            0.0000     9.0201E-05     9.0580   2.4560    89.7664
 19      1.4534     2.3862E-03    4.6140E-03    3.160000E+06  0.00800  3.074E-02    0   0.9966   age045_m52            0.0000     9.2174E-05     9.1199   2.3739    90.7231
 20      0.0000     0.0000E+00    0.0000E+00    5.010000E+06  0.00800  2.668E-02    0   0.9443   age055_m52            0.0000     9.7628E-05     8.9797   2.1204    93.0010
 21      0.0000     0.0000E+00    0.0000E+00    6.610000E+06  0.00800  2.136E-02    0   0.9177   age061_m52            0.0000     7.9305E-05     7.1862   0.9039    98.4828
 22      0.0000     0.0000E+00    0.0000E+00    1.000000E+07  0.00800  1.215E-02    0   0.8827   age070_m52            0.0000     8.9812E-05     6.8114   1.6060    96.5286
 23      0.0000     0.0000E+00    0.0000E+00    1.445000E+07  0.00800  8.717E-03    0   0.8552   age078_m52            0.0000     9.5482E-05     7.4563   1.6978    96.2010
 24      0.0000     0.0000E+00    0.0000E+00    2.512000E+07  0.00800  5.592E-03    0   0.8162   age090_m52            0.0000     1.0478E-04     7.0167   1.3446    98.9131
 25      0.0000     0.0000E+00    0.0000E+00    4.000000E+07  0.00800  3.896E-03    0   0.7841   age104_m52            0.0000     1.2056E-04     7.5364   1.2319   100.3409
 26      0.0000     0.0000E+00    0.0000E+00    1.015200E+08  0.00800  2.148E-03    0   0.7226   age116_m52            0.0000     1.5005E-04     8.5871   1.1292   101.2706
 27      0.0000     0.0000E+00    0.0000E+00    2.861200E+08  0.00800  9.925E-04    0   0.6683   age125_m52            0.0000     2.2582E-04     9.8226   0.5987   106.6043
 28      0.0000     0.0000E+00    0.0000E+00    9.047900E+08  0.00800  3.141E-04    0   0.6138   age135_m52            0.0000     2.6066E-04    11.5127  -0.2779   113.2010
 29      0.0000     0.0000E+00    0.0000E+00    1.434000E+09  0.00800  1.719E-04    0   0.5853   age139_m52            0.0000     2.0483E-04    11.0558  -0.8505   110.5754
 30      0.0000     0.0000E+00    0.0000E+00    2.500000E+09  0.00800  7.872E-05    0   0.5600   age150_m52            0.0000     2.2218E-04    10.9854  -1.0000   105.9523
 31      0.0000     0.0000E+00    0.0000E+00    4.250000E+09  0.00800  4.336E-05    0   0.5426   age158_m52            0.0000     2.1899E-04    10.9456  -1.0000   104.6515
 32      0.0000     0.0000E+00    0.0000E+00    6.250000E+09  0.00800  3.159E-05    0   0.5319   age166_m52            0.0000     2.9053E-04    11.5158  -1.0000   100.8517
 33      0.0000     0.0000E+00    0.0000E+00    1.300000E+10  0.00800  1.361E-05    0   0.5073   age193_m52            0.0000     5.2188E-04    17.0669  -1.0000    89.6395
 34      0.0000     0.0000E+00    0.0000E+00    1.800000E+10  0.00800  9.886E-06    0   0.4990   age213_m52            0.0000     6.4013E-04    19.2900  -1.0000    86.4775
 35      0.0000     0.0000E+00    0.0000E+00    1.000000E+06  0.02000  1.544E-02    0   1.0000   age020_m62            0.0000     9.0294E-05     9.0568   2.4538    89.9405
 36      0.0000     0.0000E+00    0.0000E+00    3.160000E+06  0.02000  3.762E-02    0   0.9858   age045_m62            0.0000     9.1437E-05     9.1182   2.3889    90.8438
 37      0.0000     0.0000E+00    0.0000E+00    5.010000E+06  0.02000  3.296E-02    0   0.9342   age055_m62            0.0000     1.1550E-04     9.4745   1.9682    95.7886
 38      0.0000     0.0000E+00    0.0000E+00    8.710000E+06  0.02000  1.154E-02    0   0.8861   age067_m62            0.0000     6.2764E-05     4.2937   1.1921    95.5196
 39      0.0000     0.0000E+00    0.0000E+00    1.445000E+07  0.02000  7.663E-03    0   0.8472   age078_m62            0.0000     7.5179E-05     5.6059   1.2890    97.6927
 40      0.0000     0.0000E+00    0.0000E+00    2.512000E+07  0.02000  4.532E-03    0   0.8099   age090_m62            0.0000     8.0707E-05     5.4789   1.2844    97.3232
 41      4.1772     7.7141E-02    1.1367E-01    5.500000E+07  0.02000  2.733E-03    0   0.7595   age110_m62            0.0000     1.1502E-04     7.3770   1.2209    99.4396
 42      0.0000     0.0000E+00    0.0000E+00    1.609000E+08  0.02000  1.369E-03    0   0.6985   age120_m62            0.0000     1.9220E-04     9.1006   0.9939   104.0010
 43      0.0000     0.0000E+00    0.0000E+00    2.861200E+08  0.02000  9.013E-04    0   0.6714   age125_m62            0.0000     2.5934E-04    10.1231   0.7066   108.0682
 44      0.0000     0.0000E+00    0.0000E+00    5.088000E+08  0.02000  5.028E-04    0   0.6449   age130_m62            0.0000     3.1079E-04    11.8998   0.2543   113.0590
 45      0.0000     0.0000E+00    0.0000E+00    9.047900E+08  0.02000  2.428E-04    0   0.6179   age135_m62            0.0000     2.5616E-04    12.2414  -0.3657   113.2542
 46      0.0000     0.0000E+00    0.0000E+00    1.434000E+09  0.02000  1.263E-04    0   0.5908   age139_m62            0.0000     2.2862E-04    12.2865  -0.8170   111.7080
 47      0.0000     0.0000E+00    0.0000E+00    2.500000E+09  0.02000  5.985E-05    0   0.5673   age150_m62            0.0000     2.5793E-04    11.6902  -1.0000   107.1473
 48      0.0000     0.0000E+00    0.0000E+00    4.250000E+09  0.02000  3.271E-05    0   0.5468   age158_m62            0.0000     3.8305E-04    13.1746  -1.0000   100.0699
 49     15.2792     5.6703E+01    5.6844E+01    1.000000E+10  0.02000  1.360E-05    0   0.5167   age181_m62            0.0000     6.3128E-04    17.4359  -1.0000    91.2917
 50      3.3715     2.3886E+01    2.3232E+01    1.800000E+10  0.02000  7.124E-06    0   0.5013   age213_m62            0.0000     8.3853E-04    21.3100  -1.0000    85.0278
 51      0.0000     0.0000E+00    0.0000E+00    1.000000E+06  0.05000  2.592E-02    0   0.9998   age020_m72            0.0000     9.0258E-05     9.0039   2.4524    89.7916
 52      0.0000     0.0000E+00    0.0000E+00    3.160000E+06  0.05000  4.845E-02    0   0.9577   age045_m72            0.0000     9.9436E-05     9.3650   2.2491    92.6315
 53      0.0000     0.0000E+00    0.0000E+00    5.010000E+06  0.05000  3.072E-02    0   0.9147   age055_m72            0.0000     7.9064E-05     6.8429   1.8412    94.7307
 54     33.1240     1.1490E-01    1.9789E-01    6.610000E+06  0.05000  1.455E-02    0   0.8877   age061_m72            0.0000     7.3217E-05     6.0435   1.2638    95.0654
 55      0.0000     0.0000E+00    0.0000E+00    1.000000E+07  0.05000  9.074E-03    0   0.8524   age070_m72            0.0000     8.3472E-05     7.3867   2.0111    94.5104
 56      0.0000     0.0000E+00    0.0000E+00    2.512000E+07  0.05000  4.250E-03    0   0.7902   age090_m72            0.0000     1.0037E-04     7.1502   1.7006    96.8104
 57      0.0000     0.0000E+00    0.0000E+00    4.000000E+07  0.05000  3.087E-03    0   0.7618   age104_m72            0.0000     1.1175E-04     7.0416   1.4744    98.4161
 58      0.0000     0.0000E+00    0.0000E+00    1.015200E+08  0.05000  1.700E-03    0   0.7096   age116_m72            0.0000     1.7726E-04     8.4829   1.1611   102.8690
 59      0.0000     0.0000E+00    0.0000E+00    2.861200E+08  0.05000  7.384E-04    0   0.6633   age125_m72            0.0000     2.9346E-04    11.0727   0.5344   110.6827
 60      0.0000     0.0000E+00    0.0000E+00    5.088000E+08  0.05000  3.819E-04    0   0.6372   age130_m72            0.0000     2.8404E-04    12.2120  -0.0231   114.3729
 61      0.0000     0.0000E+00    0.0000E+00    9.047900E+08  0.05000  1.676E-04    0   0.6110   age135_m72            0.0000     2.6349E-04    13.5459  -0.7840   114.0612
 62      0.0000     0.0000E+00    0.0000E+00    1.434000E+09  0.05000  8.837E-05    0   0.5874   age139_m72            0.0000     2.8130E-04    11.9248  -1.0000   108.8612
 63      0.0000     0.0000E+00    0.0000E+00    2.500000E+09  0.05000  4.233E-05    0   0.5598   age150_m72            0.0000     4.1039E-04    13.5645  -1.0000   101.0372
 64      4.7496     1.6705E+01    1.7012E+01    6.250000E+09  0.05000  1.435E-05    0   0.5249   age166_m72            0.0000     7.0242E-04    19.2258  -1.0000    88.4820
 65      0.0000     0.0000E+00    0.0000E+00    1.300000E+10  0.05000  6.513E-06    0   0.5036   age193_m72            0.0000     9.8775E-04    24.2045  -1.0000    81.6090
 66      0.0000     0.0000E+00    0.0000E+00    1.800000E+10  0.05000  4.527E-06    0   0.4945   age213_m72            0.0000     1.1683E-03    26.7651  -1.0000    76.8771


## Synthesis Results - Average & Chains ##

# j      x_j: min, <> & last-chain-values for 1 ...  7 chains
  1      4.8473     23.2855     23.2165     20.2171     25.1716     21.2416     24.8425     24.2202     20.4931
  2      0.0000      0.4121      0.8253      0.6374      0.0000      0.6750      0.1947      1.2003      0.8770
  3      0.0000      0.3577      0.8544      0.7962      0.7102      0.4123      0.5879      0.5040      1.3987
  4      0.0000      0.3380      1.1314      0.2344      0.0000      0.0000      0.2321      0.0721      0.1692
  5      0.0000      0.3441      0.2725      0.3711      0.2933      0.0000      0.0111      0.4849      0.0000
  6      0.0000      0.3681      0.0000      0.0000      0.3627      0.6315      0.0000      0.8053      0.8552
  7      0.0000      0.3872      0.5671      1.4998      0.0000      0.0439      0.3629      0.5665      1.9909
  8      0.0000      0.4439      1.2138      1.5148      0.0608      0.3707      0.5604      2.2470      0.0000
  9      0.0000      0.4286      0.2428      0.8400      0.0045      0.8911      0.1499      0.0000      0.0000
 10      0.0000      0.2881      0.1923      0.3759      0.3008      0.4407      0.0000      0.8775      0.2739
 11      0.0000      0.8918      1.6055      1.6206      0.9865      2.3949      0.6936      0.3505      0.3395
 12      0.0000      0.4182      0.0282      1.8611      0.8324      1.5607      0.2763      0.1738      1.5052
 13      0.0000      8.9866      8.6027      8.9038      9.2965      6.7502      9.8379      7.4816      9.2304
 14      0.0000      0.5135      0.4961      0.0000      0.0000      0.4996      0.0000      2.3582      0.1116
 15      0.0000      0.4511      0.0000      1.6508      0.0000      0.1032      0.5685      0.0074      0.0000
 16      0.9393      6.1566      6.1551      4.9739      6.6218      6.4652      6.6511      4.3832      5.3999
 17      0.0000      2.1403      1.7961      0.8410      1.9415      1.1436      2.7664      1.8783      0.5335
 18     30.7032      0.7895      0.4133      0.0000      0.5414      0.9246      1.0130      0.7953      3.8937
 19      1.4534      0.3438      0.8206      0.0000      0.2287      0.5334      0.2429      0.9779      0.9984
 20      0.0000      0.3616      0.4757      0.0000      0.5877      0.3118      1.6190      0.5011      0.0000
 21      0.0000      0.4530      0.7801      3.1522      0.0779      0.5576      0.0000      0.8248      0.2361
 22      0.0000      0.3441      0.0000      0.8111      0.0000      0.2839      0.0819      0.5235      0.0764
 23      0.0000      0.3491      0.5537      0.3808      0.0118      1.5393      0.3846      0.9601      0.1878
 24      0.0000      0.2909      0.4103      0.0000      0.3469      0.3026      0.0000      0.4597      0.1844
 25      0.0000      0.5346      0.9677      0.7127      0.0000      1.1587      0.6281      0.3998      0.2398
 26      0.0000      0.2660      0.2617      0.5996      0.4793      0.0000      0.0000      0.2996      0.0000
 27      0.0000     16.8698     16.3431     12.3098     18.4781     15.5724     19.2847     14.0982     12.8510
 28      0.0000      0.3920      0.8504      0.0982      0.2531      0.6946      0.3313      0.3691      0.0000
 29      0.0000      0.3010      0.0000      1.9930      0.2047      0.2096      0.0278      0.1102      0.0000
 30      0.0000      0.2953      0.1964      0.2970      0.1952      0.0000      0.0000      0.7537      0.0000
 31      0.0000      0.2342      1.2789      0.3968      0.2346      0.0000      0.2333      0.0455      0.0000
 32      0.0000      0.3522      0.2354      0.0000      0.5323      0.0000      0.2763      0.0380      0.0000
 33      0.0000      0.5292      0.3434      0.4708      0.1818      0.0000      0.0000      0.9673      0.4321
 34      0.0000      0.2727      0.1226      0.5421      0.0158      0.0000      0.0479      0.6061      0.0000
 35      0.0000      0.6654      0.0952      0.0000      0.7783      0.5756      0.6111      0.0922      0.0000
 36      0.0000      0.5705      0.3055      0.0000      0.6761      0.2141      0.4492      0.2620      2.1419
 37      0.0000      0.3813      0.4013      0.7191      0.5164      0.7466      0.2875      0.7288      0.1582
 38      0.0000      0.3732      0.5183      0.0000      0.1501      0.4268      0.0736      0.0487      1.8446
 39      0.0000      0.3706      0.0000      2.1307      0.5567      0.6886      0.1924      0.0000      0.0450
 40      0.0000      0.4966      0.0761      1.5387      0.2410      1.7254      0.1711      0.7148      0.0000
 41      4.1772      0.4723      0.7791      0.9813      0.5880      1.4304      0.0000      0.6796      1.5286
 42      0.0000      4.9194      4.5017      3.0255      5.2406      4.1332      5.2831      4.5147      2.4499
 43      0.0000      0.4286      0.1785      1.8262      0.3250      0.0000      0.4838      0.5131      0.9560
 44      0.0000      0.4941      0.5658      0.4162      0.1719      0.8586      0.1767      0.1784      0.0000
 45      0.0000      0.5115      0.0000      1.8195      0.4772      0.0000      0.8024      0.2972      1.0774
 46      0.0000      0.3572      0.0902      0.4178      0.7381      0.0000      0.0000      1.9116      0.0000
