###################################################################
## OUTPUT of StarlightChains_v04.for    [Cid@UFSC - 01/Apr/2007] ##
###################################################################

## Some input info
KUG0210-078._31_36.txt                   [arq_obs]
Base.CB07.vall.4m                        [arq_base]
Masks.EmLines.NEW.gm                     [arq_masks]
StCv04.C11.config                        [arq_config]
   66                                    [N_base]
    0                                    [N_YAV_components = # of components with extra extinction!]
    0                                    [i_FitPowerLaw (1/0 = Yes/No)]
-9.99                                    [alpha_PowerLaw]
CCM                                      [red_law_option]
 1.458241                                [q_norm = A(l_norm)/A(V)]

## (Re)Sampling Parameters
 3741.00                                 [l_ini (A)]
 7218.00                                 [l_fin (A)]
    1.00                                 [dl    (A)]     (OBS: dl_cushion =    50.00 A)

## Normalization info
 4020.00                                 [l_norm (A) - for base]
 4010.00                                 [llow_norm (A) - window for f_obs]
 4060.00                                 [lupp_norm (A) - window for f_obs]
8.688764E-17                             [fobs_norm (in input units)]

## S/N
 3691.00                                 [llow_SN (A) - window for S/N]
 7268.00                                 [lupp_SN (A) - window for S/N]
   7.652                                 [S/N in S/N window]
   7.439                                 [S/N in norm. window]
   0.132                                 [S/N_err in S/N window]
   0.128                                 [S/N_err in norm. window]
  1.0000                                 [fscale_chi2]

## etc...
    -2007461                             [idum_orig]
  2432                                   [NOl_eff]
  2414                                   [Nl_eff]
    18    NSIGMA                         [Ntot_cliped & clip_method]
  6694940                                [Nglobal_steps]
   7                                     [N_chains]
  16                                     [NEX0s_base = N_base in EX0s-fits]
 0   0   1       18   2.0   1.530E+04    [Clip-Bug, RC-Crash & Burn-In warning-flags, n_censored_weights, wei_nsig_threshold & wei_limit]
    51     50.823     50.195      0.628  [idt_all, wdt_TotTime, wdt_UsrTime & wdt_SysTime (sec)]

## Synthesis Results - Best model ##

 1.85985E-04                             [chi2/Nl_eff]
     4.49715                             [adev (%)]

   109.89700                             [sum-of-x (%)]
 8.15145E-17                             [Flux_tot (units of input spectrum!)]
 3.30466E-12                             [Mini_tot (???)]
 1.69849E-12                             [Mcor_tot (???)]

 -23.48                                  [v0_min  (km/s)]
 399.57                                  [vd_min  (km/s)]
-0.1178                                  [AV_min  (mag)]
 0.0000                                  [YAV_min (mag)]

# j     x_j(%)      Mini_j(%)     Mcor_j(%)     age_j(yr)     Z_j      (L/M)_j    YAV?  Mstars   component_j        a/Fe...       SSP_chi2r SSP_adev(%)   SSP_AV   SSP_x(%)
  1      0.0000     0.0000E+00    0.0000E+00    1.000000E+06  0.00400  1.094E-02    0   1.0000   age020_m42            0.0000     5.6133E-04     8.2127   3.3555    86.6629
  2      0.0000     0.0000E+00    0.0000E+00    3.160000E+06  0.00400  4.007E-02    0   0.9999   age045_m42            0.0000     3.4371E-04     6.6285   2.5565    95.1400
  3      0.0000     0.0000E+00    0.0000E+00    5.010000E+06  0.00400  2.539E-02    0   0.9488   age055_m42            0.0000     4.2908E-04     7.3555   2.9114    91.6424
  4      0.0000     0.0000E+00    0.0000E+00    6.610000E+06  0.00400  2.620E-02    0   0.9220   age061_m42            0.0000     3.4356E-04     6.7051   2.4834    95.3284
  5      0.0000     0.0000E+00    0.0000E+00    1.000000E+07  0.00400  1.322E-02    0   0.8862   age070_m42            0.0000     4.2382E-04     8.4938   2.2573    95.3840
  6      0.0000     0.0000E+00    0.0000E+00    1.445000E+07  0.00400  7.883E-03    0   0.8571   age078_m42            0.0000     4.6900E-04     8.6233   2.5963    92.5424
  7      0.0000     0.0000E+00    0.0000E+00    2.512000E+07  0.00400  5.251E-03    0   0.8174   age090_m42            0.0000     4.2697E-04     8.7793   2.1308    95.7958
  8      0.0000     0.0000E+00    0.0000E+00    4.000000E+07  0.00400  3.649E-03    0   0.7851   age104_m42            0.0000     3.8660E-04     8.3778   1.8869    97.2198
  9      0.0000     0.0000E+00    0.0000E+00    5.500000E+07  0.00400  3.098E-03    0   0.7629   age110_m42            0.0000     3.3661E-04     7.3303   2.0007    98.6425
 10      0.0000     0.0000E+00    0.0000E+00    1.015200E+08  0.00400  2.228E-03    0   0.7207   age116_m42            0.0000     3.1324E-04     6.7414   1.9933    99.8204
 11      0.0000     0.0000E+00    0.0000E+00    2.861200E+08  0.00400  1.093E-03    0   0.6648   age125_m42            0.0000     3.1234E-04     7.1218   1.4197   102.7767
 12      0.0000     0.0000E+00    0.0000E+00    5.088000E+08  0.00400  6.597E-04    0   0.6365   age130_m42            0.0000     2.9012E-04     6.2140   1.3671   105.2541
 13      0.0000     0.0000E+00    0.0000E+00    1.434000E+09  0.00400  2.132E-04    0   0.5798   age139_m42            0.0000     2.1541E-04     5.5264   0.3754   108.1478
 14      0.0000     0.0000E+00    0.0000E+00    4.250000E+09  0.00400  5.895E-05    0   0.5377   age158_m42            0.0000     2.0052E-04     4.4882  -0.0651   103.9093
 15      0.0000     0.0000E+00    0.0000E+00    7.500000E+09  0.00400  3.510E-05    0   0.5212   age171_m42            0.0000     2.1889E-04     4.1707  -0.2683   103.7028
 16      0.0000     0.0000E+00    0.0000E+00    1.300000E+10  0.00400  2.005E-05    0   0.5034   age193_m42            0.0000     2.4777E-04     4.0089  -0.4449   103.4950
 17      0.0000     0.0000E+00    0.0000E+00    1.800000E+10  0.00400  1.525E-05    0   0.4967   age213_m42            0.0000     2.4786E-04     4.1161  -0.4606   102.7878
 18      0.0000     0.0000E+00    0.0000E+00    1.000000E+06  0.00800  1.238E-02    0   1.0000   age020_m52            0.0000     5.6146E-04     8.2210   3.3518    86.8513
 19      0.0000     0.0000E+00    0.0000E+00    3.160000E+06  0.00800  3.074E-02    0   0.9966   age045_m52            0.0000     5.3878E-04     8.0454   3.2682    87.8655
 20      0.0000     0.0000E+00    0.0000E+00    5.010000E+06  0.00800  2.668E-02    0   0.9443   age055_m52            0.0000     4.6133E-04     7.6205   3.0051    90.4595
 21      0.0000     0.0000E+00    0.0000E+00    6.610000E+06  0.00800  2.136E-02    0   0.9177   age061_m52            0.0000     4.1831E-04     8.4270   1.7681    96.1343
 22      0.0000     0.0000E+00    0.0000E+00    1.000000E+07  0.00800  1.215E-02    0   0.8827   age070_m52            0.0000     4.8358E-04     9.2216   2.4597    94.3025
 23      0.0000     0.0000E+00    0.0000E+00    1.445000E+07  0.00800  8.717E-03    0   0.8552   age078_m52            0.0000     4.5275E-04     8.5944   2.5579    93.9848
 24      0.0000     0.0000E+00    0.0000E+00    2.512000E+07  0.00800  5.592E-03    0   0.8162   age090_m52            0.0000     4.2453E-04     8.8325   2.1915    97.0203
 25      0.0000     0.0000E+00    0.0000E+00    4.000000E+07  0.00800  3.896E-03    0   0.7841   age104_m52            0.0000     3.7327E-04     8.1696   2.0769    98.7208
 26      0.0000     0.0000E+00    0.0000E+00    1.015200E+08  0.00800  2.148E-03    0   0.7226   age116_m52            0.0000     3.1460E-04     7.1331   1.9764   100.0017
 27      0.0000     0.0000E+00    0.0000E+00    2.861200E+08  0.00800  9.925E-04    0   0.6683   age125_m52            0.0000     2.9400E-04     6.3111   1.4301   106.3185
 28      0.0000     0.0000E+00    0.0000E+00    9.047900E+08  0.00800  3.141E-04    0   0.6138   age135_m52            0.0000     2.4904E-04     5.2098   0.5677   113.1367
 29      0.0000     0.0000E+00    0.0000E+00    1.434000E+09  0.00800  1.719E-04    0   0.5853   age139_m52            0.0000     1.9213E-04     4.7803  -0.0000   110.0808
 30      0.0000     0.0000E+00    0.0000E+00    2.500000E+09  0.00800  7.872E-05    0   0.5600   age150_m52            0.0000     2.0307E-04     3.9637  -0.2842   107.9326
 31      0.0000     0.0000E+00    0.0000E+00    4.250000E+09  0.00800  4.336E-05    0   0.5426   age158_m52            0.0000     2.2123E-04     3.9507  -0.2937   106.7009
 32      0.0000     0.0000E+00    0.0000E+00    6.250000E+09  0.00800  3.159E-05    0   0.5319   age166_m52            0.0000     2.5311E-04     3.9658  -0.5291   107.8541
 33      0.0000     0.0000E+00    0.0000E+00    1.300000E+10  0.00800  1.361E-05    0   0.5073   age193_m52            0.0000     3.2547E-04     4.6098  -1.0000   107.8066
 34      0.0000     0.0000E+00    0.0000E+00    1.800000E+10  0.00800  9.886E-06    0   0.4990   age213_m52            0.0000     4.2866E-04     6.2109  -1.0000   105.3629
 35      0.0000     0.0000E+00    0.0000E+00    1.000000E+06  0.02000  1.544E-02    0   1.0000   age020_m62            0.0000     5.6872E-04     8.2366   3.3482    87.0295
 36      0.0000     0.0000E+00    0.0000E+00    3.160000E+06  0.02000  3.762E-02    0   0.9858   age045_m62            0.0000     5.6589E-04     8.1547   3.2838    87.9120
 37      0.0000     0.0000E+00    0.0000E+00    5.010000E+06  0.02000  3.296E-02    0   0.9342   age055_m62            0.0000     3.8579E-04     6.8711   2.8485    93.5790
 38      0.0000     0.0000E+00    0.0000E+00    8.710000E+06  0.02000  1.154E-02    0   0.8861   age067_m62            0.0000     8.3062E-04    13.7020   2.0199    92.7543
 39      0.0000     0.0000E+00    0.0000E+00    1.445000E+07  0.02000  7.663E-03    0   0.8472   age078_m62            0.0000     5.5281E-04    10.3702   2.1331    95.3425
 40      0.0000     0.0000E+00    0.0000E+00    2.512000E+07  0.02000  4.532E-03    0   0.8099   age090_m62            0.0000     5.4803E-04    10.5037   2.1226    95.1428
 41      0.0000     0.0000E+00    0.0000E+00    5.500000E+07  0.02000  2.733E-03    0   0.7595   age110_m62            0.0000     3.8312E-04     8.2384   2.0673    97.7461
 42      0.0000     0.0000E+00    0.0000E+00    1.609000E+08  0.02000  1.369E-03    0   0.6985   age120_m62            0.0000     3.1678E-04     6.8578   1.8302   103.2683
 43      0.0000     0.0000E+00    0.0000E+00    2.861200E+08  0.02000  9.013E-04    0   0.6714   age125_m62            0.0000     3.2817E-04     6.3524   1.5320   108.0965
 44      0.0000     0.0000E+00    0.0000E+00    5.088000E+08  0.02000  5.028E-04    0   0.6449   age130_m62            0.0000     3.1104E-04     5.1498   1.0888   113.4786
 45      0.0000     0.0000E+00    0.0000E+00    9.047900E+08  0.02000  2.428E-04    0   0.6179   age135_m62            0.0000     2.1970E-04     4.4074   0.4970   112.8918
 46      0.0000     0.0000E+00    0.0000E+00    1.434000E+09  0.02000  1.263E-04    0   0.5908   age139_m62            0.0000     2.1016E-04     4.1108   0.0620   110.8352
 47      0.0000     0.0000E+00    0.0000E+00    2.500000E+09  0.02000  5.985E-05    0   0.5673   age150_m62            0.0000     2.4126E-04     3.9706  -0.3323   110.3146
 48      0.2231     1.5307E-01    1.6284E-01    4.250000E+09  0.02000  3.271E-05    0   0.5468   age158_m62            0.0000     2.9993E-04     4.9016  -0.6886   111.2012
 49      5.8249     9.6133E+00    9.6644E+00    1.000000E+10  0.02000  1.360E-05    0   0.5167   age181_m62            0.0000     4.4614E-04     5.7809  -1.0000   110.8190
 50     13.4449     4.2360E+01    4.1316E+01    1.800000E+10  0.02000  7.124E-06    0   0.5013   age213_m62            0.0000     7.1130E-04     9.0234  -1.0000   105.4192
 51      0.0000     0.0000E+00    0.0000E+00    1.000000E+06  0.05000  2.592E-02    0   0.9998   age020_m72            0.0000     5.9389E-04     8.4593   3.3482    86.8087
 52      0.0000     0.0000E+00    0.0000E+00    3.160000E+06  0.05000  4.845E-02    0   0.9577   age045_m72            0.0000     4.8314E-04     7.5520   3.1409    89.9568
 53      0.0000     0.0000E+00    0.0000E+00    5.010000E+06  0.05000  3.072E-02    0   0.9147   age055_m72            0.0000     5.5619E-04     9.2526   2.7028    92.1812
 54      0.0000     0.0000E+00    0.0000E+00    6.610000E+06  0.05000  1.455E-02    0   0.8877   age061_m72            0.0000     1.0574E-03    15.7592   2.0806    92.1634
 55      0.0000     0.0000E+00    0.0000E+00    1.000000E+07  0.05000  9.074E-03    0   0.8524   age070_m72            0.0000     5.8346E-04     9.2526   2.8708    92.0095
 56      0.0000     0.0000E+00    0.0000E+00    2.512000E+07  0.05000  4.250E-03    0   0.7902   age090_m72            0.0000     4.7084E-04     8.8349   2.5492    94.8199
 57     28.4777     2.0706E-01    3.0690E-01    4.000000E+07  0.05000  3.087E-03    0   0.7618   age104_m72            0.0000     4.5273E-04     8.9761   2.3135    96.7002
 58      0.0000     0.0000E+00    0.0000E+00    1.015200E+08  0.05000  1.700E-03    0   0.7096   age116_m72            0.0000     3.4263E-04     7.4604   1.9919   102.0513
 59      0.0000     0.0000E+00    0.0000E+00    2.861200E+08  0.05000  7.384E-04    0   0.6633   age125_m72            0.0000     3.2037E-04     5.6707   1.3621   111.0238
 60      0.0000     0.0000E+00    0.0000E+00    5.088000E+08  0.05000  3.819E-04    0   0.6372   age130_m72            0.0000     2.4660E-04     4.5943   0.8303   114.3672
 61     44.8718     6.0093E+00    7.1437E+00    9.047900E+08  0.05000  1.676E-04    0   0.6110   age135_m72            0.0000     2.2487E-04     4.2058   0.1069   113.2628
 62      0.0000     0.0000E+00    0.0000E+00    1.434000E+09  0.05000  8.837E-05    0   0.5874   age139_m72            0.0000     2.5966E-04     4.2319  -0.3516   112.6416
 63      0.0000     0.0000E+00    0.0000E+00    2.500000E+09  0.05000  4.233E-05    0   0.5598   age150_m72            0.0000     3.2704E-04     5.3570  -0.7125   113.0343
 64      9.0945     1.4225E+01    1.4527E+01    6.250000E+09  0.05000  1.435E-05    0   0.5249   age166_m72            0.0000     5.0195E-04     6.7196  -1.0000   108.3266
 65      7.9601     2.7432E+01    2.6879E+01    1.300000E+10  0.05000  6.513E-06    0   0.5036   age193_m72            0.0000     9.7570E-04    12.5732  -1.0000   102.6042
 66      0.0000     0.0000E+00    0.0000E+00    1.800000E+10  0.05000  4.527E-06    0   0.4945   age213_m72            0.0000     1.3701E-03    16.0409  -1.0000    98.0499


## Synthesis Results - Average & Chains ##

# j      x_j: min, <> & last-chain-values for 1 ...  7 chains
  1      0.0000      1.7312      1.1277      1.5610      1.5294      1.6639      1.2739      1.5921      1.6586
  2      0.0000      0.3125      0.0000      0.0466      0.0344      0.0272      0.0000      0.2279      0.0930
  3      0.0000      0.2798      0.0000      0.0170      0.0309      0.0000      0.2681      0.0479      0.0302
  4      0.0000      0.3345      0.0011      0.0000      0.0000      0.0495      0.0000      0.2251      0.0373
  5      0.0000      0.4083      0.0000      0.0329      0.0050      0.0337      0.1612      0.0705      0.0913
  6      0.0000      0.3658      0.0010      0.0191      0.0000      0.1415      0.0000      0.0936      0.0000
  7      0.0000      0.3223      0.0004      0.0896      0.0000      0.0806      0.4375      0.0244      0.0000
  8      0.0000      0.4348      0.0000      0.2417      0.0024      0.1457      0.2338      0.0000      0.0000
  9      0.0000      0.4178      0.0006      0.0000      0.0000      0.3239      0.2004      0.3109      0.0677
 10      0.0000      0.3171      0.0002      0.0678      0.0718      0.0000      0.0549      0.1788      0.0000
 11      0.0000      0.3311      0.0441      0.2234      0.0544      0.0000      0.0000      0.0397      0.0208
 12      0.0000      0.3517      0.0010      0.0000      0.0000      0.1466      0.1901      0.0204      0.0000
 13      0.0000      0.3754      0.0892      0.0968      0.0667      0.0000      0.1001      0.0000      0.1042
 14      0.0000      0.3610      0.0000      0.0105      0.1275      0.0000      0.1742      0.0317      0.0925
 15      0.0000      0.3898      0.0000      0.2167      0.0000      0.0647      0.0649      0.0476      0.0767
 16      0.0000      0.3763      0.0011      0.0660      0.0212      0.0000      0.4011      0.1657      0.1977
 17      0.0000      0.3035      0.0000      0.0000      0.1029      0.0942      0.2912      0.0146      0.0635
 18      0.0000      5.0316      5.2707      5.7619      5.9813      5.8091      5.4582      5.4836      5.7898
 19      0.0000      1.2819      0.9515      1.5262      1.1975      1.3491      1.1392      1.5854      1.2903
 20      0.0000      0.3746      0.0000      0.1864      0.0000      0.0137      0.0000      0.0126      0.0000
 21      0.0000      0.2614      0.0011      0.3358      0.0000      0.0713      0.0607      0.0734      0.0707
 22      0.0000      0.3062      0.0164      0.0020      0.0000      0.0829      0.0000      0.0000      0.0214
 23      0.0000      0.3219      0.0005      0.0000      0.0475      0.0000      0.1530      0.4510      0.0305
 24      0.0000      0.5339      0.0014      0.0303      0.1558      0.0000      0.4013      0.0868      0.0218
 25      0.0000      0.3151      0.0006      0.0621      0.0732      0.0418      0.2613      0.0630      0.1530
 26      0.0000      0.2581      0.0000      0.1608      0.0276      0.0964      0.0000      0.0084      0.0757
 27      0.0000      0.3018      0.0000      0.0181      0.0423      0.0000      0.5403      0.2655      0.0000
 28      0.0000      0.2531      0.0365      0.1830      0.0000      0.0149      0.4814      0.0379      0.2587
 29      0.0000      0.3173      0.0004      0.0350      0.0742      0.0000      0.0730      0.0978      0.2285
 30      0.0000      0.2553      0.0000      0.0000      0.0000      0.0462      0.2191      0.1170      0.1579
 31      0.0000      0.3499      0.2105      0.0000      0.0000      0.1311      0.7024      0.0521      0.1792
 32      0.0000      0.3768      0.1344      0.1356      0.0418      0.0155      0.5315      0.0393      0.0241
 33      0.0000      0.3902      0.0566      0.1075      0.1340      0.0000      0.2102      0.0831      0.0000
 34      0.0000      0.3478      0.0909      0.0096      0.0225      0.1686      0.1592      0.1306      0.0152
 35      0.0000      1.2691      0.4379      1.0760      1.2610      1.1299      1.0752      0.7834      1.3804
 36      0.0000      0.4388      0.0729      0.3235      0.4288      0.3169      0.0101      0.4292      0.1734
 37      0.0000      0.3753      0.0000      0.0000      0.0405      0.0728      0.0061      0.0237      0.0000
 38      0.0000      0.2685      0.0000      0.0034      0.0302      0.1343      0.0775      0.1478      0.0000
 39      0.0000      0.2931      0.0000      0.0000      0.0002      0.0276      0.4340      0.0000      0.0000
 40      0.0000      0.3499      0.0000      0.0006      0.0000      0.0000      0.0278      0.0757      0.0000
 41      0.0000      0.2883      0.0000      0.0000      0.2240      0.0918      0.0528      0.0762      0.0373
 42      0.0000      0.2455      0.0348      0.0000      0.0037      0.1849      0.1977      0.0926      0.0718
 43      0.0000      0.2662      0.0000      0.0718      0.0544      0.1466      0.1143      0.1510      0.0984
 44      0.0000      0.3155      0.0857      0.0631      0.0009      0.0629      0.1621      0.1066      0.1424
 45      0.0000      0.2414      0.0000      0.0058      0.0482      0.0617      0.2189      0.2034      0.0000
 46      0.0000      0.3506      0.0019      0.0062      0.2603      0.0000      0.1081      0.0241      0.0854
