###################################################################
## OUTPUT of StarlightChains_v04.for    [Cid@UFSC - 01/Apr/2007] ##
###################################################################

## Some input info
KUG0210-078._42_27.txt                   [arq_obs]
Base.CB07.vall.4m                        [arq_base]
Masks.EmLines.NEW.gm                     [arq_masks]
StCv04.C11.config                        [arq_config]
   66                                    [N_base]
    0                                    [N_YAV_components = # of components with extra extinction!]
    0                                    [i_FitPowerLaw (1/0 = Yes/No)]
-9.99                                    [alpha_PowerLaw]
CCM                                      [red_law_option]
 1.458241                                [q_norm = A(l_norm)/A(V)]

## (Re)Sampling Parameters
 3741.00                                 [l_ini (A)]
 7218.00                                 [l_fin (A)]
    1.00                                 [dl    (A)]     (OBS: dl_cushion =    50.00 A)

## Normalization info
 4020.00                                 [l_norm (A) - for base]
 4010.00                                 [llow_norm (A) - window for f_obs]
 4060.00                                 [lupp_norm (A) - window for f_obs]
7.312101E-18                             [fobs_norm (in input units)]

## S/N
 3691.00                                 [llow_SN (A) - window for S/N]
 7268.00                                 [lupp_SN (A) - window for S/N]
   2.536                                 [S/N in S/N window]
   2.619                                 [S/N in norm. window]
   0.009                                 [S/N_err in S/N window]
   0.009                                 [S/N_err in norm. window]
  1.0000                                 [fscale_chi2]

## etc...
    -2007768                             [idum_orig]
  2386                                   [NOl_eff]
  2115                                   [Nl_eff]
   271    NSIGMA                         [Ntot_cliped & clip_method]
 10545290                                [Nglobal_steps]
   7                                     [N_chains]
  41                                     [NEX0s_base = N_base in EX0s-fits]
 0   0   1      271   2.0   5.386E+03    [Clip-Bug, RC-Crash & Burn-In warning-flags, n_censored_weights, wei_nsig_threshold & wei_limit]
    81     80.847     80.147      0.700  [idt_all, wdt_TotTime, wdt_UsrTime & wdt_SysTime (sec)]

## Synthesis Results - Best model ##

 1.32576E-05                             [chi2/Nl_eff]
    25.13896                             [adev (%)]

   130.00002                             [sum-of-x (%)]
 2.53081E-18                             [Flux_tot (units of input spectrum!)]
 5.40507E-14                             [Mini_tot (???)]
 2.84749E-14                             [Mcor_tot (???)]

-342.21                                  [v0_min  (km/s)]
 461.72                                  [vd_min  (km/s)]
-0.9853                                  [AV_min  (mag)]
 0.0000                                  [YAV_min (mag)]

# j     x_j(%)      Mini_j(%)     Mcor_j(%)     age_j(yr)     Z_j      (L/M)_j    YAV?  Mstars   component_j        a/Fe...       SSP_chi2r SSP_adev(%)   SSP_AV   SSP_x(%)
  1      0.0000     0.0000E+00    0.0000E+00    1.000000E+06  0.00400  1.094E-02    0   1.0000   age020_m42            0.0000     1.3569E-05    27.5304   1.7695   134.5399
  2      0.0000     0.0000E+00    0.0000E+00    3.160000E+06  0.00400  4.007E-02    0   0.9999   age045_m42            0.0000     1.3470E-05    27.0481   1.1670   137.8340
  3      0.0000     0.0000E+00    0.0000E+00    5.010000E+06  0.00400  2.539E-02    0   0.9488   age055_m42            0.0000     1.3513E-05    27.2132   1.4315   137.1214
  4      3.9036     5.3664E-03    9.3918E-03    6.610000E+06  0.00400  2.620E-02    0   0.9220   age061_m42            0.0000     1.3461E-05    27.0021   1.1016   137.9673
  5      0.0000     0.0000E+00    0.0000E+00    1.000000E+07  0.00400  1.322E-02    0   0.8862   age070_m42            0.0000     1.3436E-05    26.8633   0.8655   140.6865
  6      0.0000     0.0000E+00    0.0000E+00    1.445000E+07  0.00400  7.883E-03    0   0.8571   age078_m42            0.0000     1.3455E-05    26.9009   1.1537   138.6953
  7      0.1644     1.1275E-03    1.7494E-03    2.512000E+07  0.00400  5.251E-03    0   0.8174   age090_m42            0.0000     1.3446E-05    26.8799   0.7531   140.9191
  8      0.0981     9.6802E-04    1.4426E-03    4.000000E+07  0.00400  3.649E-03    0   0.7851   age104_m42            0.0000     1.3410E-05    26.8358   0.5403   141.2187
  9      0.0000     0.0000E+00    0.0000E+00    5.500000E+07  0.00400  3.098E-03    0   0.7629   age110_m42            0.0000     1.3405E-05    26.7969   0.6908   140.5060
 10      0.0000     0.0000E+00    0.0000E+00    1.015200E+08  0.00400  2.228E-03    0   0.7207   age116_m42            0.0000     1.3403E-05    26.8115   0.7116   140.1923
 11      0.1360     4.4831E-03    5.6573E-03    2.861200E+08  0.00400  1.093E-03    0   0.6648   age125_m42            0.0000     1.3436E-05    27.2931   0.1966   142.3590
 12      0.0000     0.0000E+00    0.0000E+00    5.088000E+08  0.00400  6.597E-04    0   0.6365   age130_m42            0.0000     1.3372E-05    27.0903   0.1882   142.6589
 13      0.0000     0.0000E+00    0.0000E+00    1.434000E+09  0.00400  2.132E-04    0   0.5798   age139_m42            0.0000     1.3008E-05    26.4881  -0.7551   143.8006
 14      0.0000     0.0000E+00    0.0000E+00    4.250000E+09  0.00400  5.895E-05    0   0.5377   age158_m42            0.0000     1.3198E-05    25.1731  -1.0000   130.2951
 15     51.0016     5.2335E+01    5.1777E+01    7.500000E+09  0.00400  3.510E-05    0   0.5212   age171_m42            0.0000     1.3846E-05    25.0427  -1.0000   121.9538
 16      2.8502     5.1201E+00    4.8925E+00    1.300000E+10  0.00400  2.005E-05    0   0.5034   age193_m42            0.0000     1.4718E-05    25.4888  -1.0000   114.9372
 17      0.0000     0.0000E+00    0.0000E+00    1.800000E+10  0.00400  1.525E-05    0   0.4967   age213_m42            0.0000     1.4883E-05    25.6649  -1.0000   113.5408
 18      1.9937     5.8003E-03    1.1010E-02    1.000000E+06  0.00800  1.238E-02    0   1.0000   age020_m52            0.0000     1.3572E-05    27.5495   1.7635   134.8897
 19      3.1571     3.6991E-03    6.9978E-03    3.160000E+06  0.00800  3.074E-02    0   0.9966   age045_m52            0.0000     1.3543E-05    27.4588   1.6946   135.7449
 20      0.0000     0.0000E+00    0.0000E+00    5.010000E+06  0.00800  2.668E-02    0   0.9443   age055_m52            0.0000     1.3500E-05    27.1490   1.5010   136.6921
 21      0.0000     0.0000E+00    0.0000E+00    6.610000E+06  0.00800  2.136E-02    0   0.9177   age061_m52            0.0000     1.3279E-05    26.6420   0.3534   142.8462
 22      0.0000     0.0000E+00    0.0000E+00    1.000000E+07  0.00800  1.215E-02    0   0.8827   age070_m52            0.0000     1.3453E-05    26.9752   1.0414   141.1136
 23      0.0000     6.4606E-08    1.0488E-07    1.445000E+07  0.00800  8.717E-03    0   0.8552   age078_m52            0.0000     1.3439E-05    26.8131   1.1346   140.0708
 24      0.0000     0.0000E+00    0.0000E+00    2.512000E+07  0.00800  5.592E-03    0   0.8162   age090_m52            0.0000     1.3407E-05    26.8934   0.8308   142.1969
 25      0.0000     0.0000E+00    0.0000E+00    4.000000E+07  0.00800  3.896E-03    0   0.7841   age104_m52            0.0000     1.3376E-05    26.8857   0.7591   142.1877
 26      0.0000     0.0000E+00    0.0000E+00    1.015200E+08  0.00800  2.148E-03    0   0.7226   age116_m52            0.0000     1.3369E-05    26.7550   0.6980   141.0923
 27      0.0000     0.0000E+00    0.0000E+00    2.861200E+08  0.00800  9.925E-04    0   0.6683   age125_m52            0.0000     1.3288E-05    26.8526   0.2594   144.0600
 28      0.0135     1.5467E-03    1.8021E-03    9.047900E+08  0.00800  3.141E-04    0   0.6138   age135_m52            0.0000     1.2895E-05    26.4826  -0.4973   147.1974
 29     17.5888     3.6853E+00    4.0944E+00    1.434000E+09  0.00800  1.719E-04    0   0.5853   age139_m52            0.0000     1.2800E-05    25.9238  -1.0000   141.3188
 30      0.0000     0.0000E+00    0.0000E+00    2.500000E+09  0.00800  7.872E-05    0   0.5600   age150_m52            0.0000     1.3553E-05    24.9382  -1.0000   126.4137
 31      0.0000     0.0000E+00    0.0000E+00    4.250000E+09  0.00800  4.336E-05    0   0.5426   age158_m52            0.0000     1.3648E-05    24.9005  -1.0000   124.5448
 32      0.0000     0.0000E+00    0.0000E+00    6.250000E+09  0.00800  3.159E-05    0   0.5319   age166_m52            0.0000     1.4722E-05    25.3390  -1.0000   116.3844
 33      0.0000     0.0000E+00    0.0000E+00    1.300000E+10  0.00800  1.361E-05    0   0.5073   age193_m52            0.0000     1.8617E-05    28.4196  -1.0000    97.8726
 34      4.9498     1.8034E+01    1.7081E+01    1.800000E+10  0.00800  9.886E-06    0   0.4990   age213_m52            0.0000     1.9770E-05    28.9634  -1.0000    93.3707
 35      0.0244     5.6806E-05    1.0783E-04    1.000000E+06  0.02000  1.544E-02    0   1.0000   age020_m62            0.0000     1.3575E-05    27.5658   1.7567   135.3550
 36      1.1633     1.1138E-03    2.0842E-03    3.160000E+06  0.02000  3.762E-02    0   0.9858   age045_m62            0.0000     1.3556E-05    27.5512   1.6932   136.6474
 37      0.0000     0.0000E+00    0.0000E+00    5.010000E+06  0.02000  3.296E-02    0   0.9342   age055_m62            0.0000     1.3501E-05    27.1345   1.4041   138.1205
 38      0.0000     0.0000E+00    0.0000E+00    8.710000E+06  0.02000  1.154E-02    0   0.8861   age067_m62            0.0000     1.3583E-05    28.3224   0.5417   146.5122
 39      0.0000     0.0000E+00    0.0000E+00    1.445000E+07  0.02000  7.663E-03    0   0.8472   age078_m62            0.0000     1.3434E-05    27.3907   0.7204   144.0025
 40      1.3717     1.0902E-02    1.6760E-02    2.512000E+07  0.02000  4.532E-03    0   0.8099   age090_m62            0.0000     1.3466E-05    27.5368   0.7280   143.1659
 41      0.0000     0.0000E+00    0.0000E+00    5.500000E+07  0.02000  2.733E-03    0   0.7595   age110_m62            0.0000     1.3364E-05    26.8341   0.7226   142.0597
 42      0.0000     0.0000E+00    0.0000E+00    1.609000E+08  0.02000  1.369E-03    0   0.6985   age120_m62            0.0000     1.3338E-05    26.7643   0.5879   143.6350
 43      0.0000     0.0000E+00    0.0000E+00    2.861200E+08  0.02000  9.013E-04    0   0.6714   age125_m62            0.0000     1.3294E-05    26.6907   0.3644   145.9235
 44      0.0000     0.0000E+00    0.0000E+00    5.088000E+08  0.02000  5.028E-04    0   0.6449   age130_m62            0.0000     1.3111E-05    26.4973   0.0041   147.8128
 45      6.4795     9.6118E-01    1.1274E+00    9.047900E+08  0.02000  2.428E-04    0   0.6179   age135_m62            0.0000     1.2813E-05    26.2427  -0.5874   146.8417
 46      0.0000     0.0000E+00    0.0000E+00    1.434000E+09  0.02000  1.263E-04    0   0.5908   age139_m62            0.0000     1.2741E-05    25.7760  -1.0000   143.3605
 47      4.6421     2.7936E+00    3.0083E+00    2.500000E+09  0.02000  5.985E-05    0   0.5673   age150_m62            0.0000     1.3661E-05    24.4079  -1.0000   126.6967
 48      0.0000     0.0000E+00    0.0000E+00    4.250000E+09  0.02000  3.271E-05    0   0.5468   age158_m62            0.0000     1.5510E-05    24.9837  -1.0000   113.2005
 49      0.0000     0.0000E+00    0.0000E+00    1.000000E+10  0.02000  1.360E-05    0   0.5167   age181_m62            0.0000     1.8559E-05    27.0343  -1.0000    99.4059
 50      0.0000     0.0000E+00    0.0000E+00    1.800000E+10  0.02000  7.124E-06    0   0.5013   age213_m62            0.0000     2.0947E-05    28.4009  -1.0000    90.9740
 51      0.0000     0.0000E+00    0.0000E+00    1.000000E+06  0.05000  2.592E-02    0   0.9998   age020_m72            0.0000     1.3577E-05    27.5662   1.7444   135.6827
 52      0.0000     0.0000E+00    0.0000E+00    3.160000E+06  0.05000  4.845E-02    0   0.9577   age045_m72            0.0000     1.3523E-05    27.3016   1.6097   136.9790
 53      0.0000     0.0000E+00    0.0000E+00    5.010000E+06  0.05000  3.072E-02    0   0.9147   age055_m72            0.0000     1.3451E-05    27.3504   1.2382   140.5772
 54      0.0000     5.4406E-08    9.1675E-08    6.610000E+06  0.05000  1.455E-02    0   0.8877   age061_m72            0.0000     1.4013E-05    31.3633   0.6335   148.2213
 55      1.4220     5.6444E-03    9.1327E-03    1.000000E+07  0.05000  9.074E-03    0   0.8524   age070_m72            0.0000     1.3533E-05    28.1413   1.4219   140.2396
 56      0.2420     2.0508E-03    3.0760E-03    2.512000E+07  0.05000  4.250E-03    0   0.7902   age090_m72            0.0000     1.3493E-05    27.6441   1.1766   140.4034
 57      2.6669     3.1116E-02    4.4995E-02    4.000000E+07  0.05000  3.087E-03    0   0.7618   age104_m72            0.0000     1.3494E-05    27.7873   0.9812   141.5839
 58      0.0000     0.0000E+00    0.0000E+00    1.015200E+08  0.05000  1.700E-03    0   0.7096   age116_m72            0.0000     1.3416E-05    27.0072   0.7399   143.2283
 59      0.0000     0.0000E+00    0.0000E+00    2.861200E+08  0.05000  7.384E-04    0   0.6633   age125_m72            0.0000     1.3123E-05    26.5272   0.2478   146.8357
 60      0.0000     0.0000E+00    0.0000E+00    5.088000E+08  0.05000  3.819E-04    0   0.6372   age130_m72            0.0000     1.2858E-05    26.1411  -0.2514   148.5767
 61      0.0000     0.0000E+00    0.0000E+00    9.047900E+08  0.05000  1.676E-04    0   0.6110   age135_m72            0.0000     1.2684E-05    26.0424  -0.9911   147.2113
 62     21.9883     8.9619E+00    9.9925E+00    1.434000E+09  0.05000  8.837E-05    0   0.5874   age139_m72            0.0000     1.3602E-05    24.3077  -1.0000   128.3559
 63      3.5082     2.9851E+00    3.1720E+00    2.500000E+09  0.05000  4.233E-05    0   0.5598   age150_m72            0.0000     1.5516E-05    24.7645  -1.0000   114.1693
 64      0.0000     0.0000E+00    0.0000E+00    6.250000E+09  0.05000  1.435E-05    0   0.5249   age166_m72            0.0000     1.9597E-05    27.7589  -1.0000    95.5142
 65      0.0000     0.0000E+00    0.0000E+00    1.300000E+10  0.05000  6.513E-06    0   0.5036   age193_m72            0.0000     2.3103E-05    29.7509  -1.0000    86.3648
 66      0.6348     5.0505E+00    4.7407E+00    1.800000E+10  0.05000  4.527E-06    0   0.4945   age213_m72            0.0000     2.5312E-05    30.9354  -1.0000    80.7010


## Synthesis Results - Average & Chains ##

# j      x_j: min, <> & last-chain-values for 1 ...  7 chains
  1      0.0000      0.2479      0.0000      0.1184      0.0000      0.1490      0.1409      0.0309      0.2833
  2      0.0000      0.2373      0.5105      0.1738      0.8592      0.0000      0.3621      0.0000      0.1621
  3      0.0000      0.3214      0.0776      0.0342      2.1208      0.0000      0.4913      0.2319      0.1204
  4      3.9036      0.3444      0.0000      0.0000      0.0000      2.3349      0.2425      0.0000      0.0746
  5      0.0000      0.1928      0.2236      0.1626      0.8612      0.0000      0.7838      0.0000      0.0764
  6      0.0000     15.3087     15.8564     16.4300     13.5466     10.7720     14.4552     16.7363     16.1884
  7      0.1644      0.3087      0.3326      0.0854      0.8601      1.3921      0.1675      0.0454      0.0000
  8      0.0981     14.7967     14.5616     14.1591     14.9212     13.8376     15.9897     14.8371     14.0386
  9      0.0000      0.2490      0.5875      0.0000      0.1973      0.2382      0.0159      0.1606      0.2335
 10      0.0000      0.3263      0.0000      0.0000      1.0843      0.7106      0.4175      0.0714      0.0623
 11      0.1360      0.1646      0.2955      0.0000      0.5735      0.4017      0.1488      0.0000      0.0218
 12      0.0000      0.2893      0.3179      0.0000      1.0735      0.7108      0.6332      0.0617      0.0004
 13      0.0000      0.2567      0.0000      0.0000      0.9601      0.1374      0.5675      0.0679      0.1324
 14      0.0000      0.2379      0.3077      0.0220      2.4681      0.3770      0.3551      0.1168      0.1337
 15     51.0016      0.2129      0.4850      0.2399      1.3908      0.5413      0.0219      0.1645      0.1689
 16      2.8502      0.2879      0.0964      0.1477      1.7144      0.4074      0.7896      0.0907      0.0543
 17      0.0000      0.2297      0.1611      0.0503      0.0000      0.3046      0.5519      0.0078      0.3523
 18      1.9937      0.3750      0.0000      0.3163      1.9497      1.6718      0.0000      0.2691      0.0660
 19      3.1571      0.3019      0.2702      0.0000      0.3296      0.3778      0.1288      0.0565      0.4617
 20      0.0000      0.2182      0.0000      0.3501      0.0000      0.0000      0.1566      0.0000      0.0232
 21      0.0000      0.2972      0.2180      0.1840      1.4878      0.1109      0.1443      0.1532      0.0592
 22      0.0000      0.3440      0.0000      0.0038      2.3097      0.1536      0.0000      0.0813      0.1381
 23      0.0000      0.3556      0.2827      0.2737      0.0609      1.9498      0.1363      0.0768      0.3031
 24      0.0000      0.2307      0.3429      0.1155      0.5191      0.6764      0.2873      0.1022      0.0606
 25      0.0000      0.2428      0.1772      0.0167      1.4270      0.5522      0.0106      0.0460      0.2092
 26      0.0000      0.2346      0.0968      0.2562      1.0489      0.1170      0.1059      0.2521      0.0000
 27      0.0000      0.2274      0.3332      0.1646      1.0913      0.0722      0.4665      0.0000      0.0684
 28      0.0135      0.2944      0.1812      0.5067      0.0000      1.3925      0.2228      0.0530      0.2777
 29     17.5888      0.3179      0.1965      0.0269      0.8635      1.4051      0.0220      0.0000      0.2037
 30      0.0000      0.2252      0.0000      0.0716      0.4778      0.0839      0.0000      0.0470      0.2477
 31      0.0000      0.3180      0.1472      0.1569      0.0000      4.3751      0.1915      0.0000      0.1851
 32      0.0000      0.2895      0.2496      0.2060      0.2774      0.0000      0.5296      0.0000      0.1728
 33      0.0000      0.2396      0.0886      0.0697      0.0000      0.0507      0.0473      0.0000      0.2549
 34      4.9498      0.2593      0.1432      0.3679      0.0000      1.7678      0.4361      0.0871      0.2149
 35      0.0244      0.2046      0.0593      0.0597      0.3742      0.9182      0.1628      0.0032      0.2318
 36      1.1633      0.1995      0.0210      0.0795      0.0000      0.3609      0.0000      0.0333      0.1962
 37      0.0000      0.2937      0.4342      0.4914      0.5261      0.3065      0.0000      0.0132      0.1550
 38      0.0000      0.2463      0.1213      0.0000      1.1952      0.1910      0.0000      0.0000      0.2223
 39      0.0000      0.2758      0.0000      0.1194      0.3343      0.2101      0.0000      0.0027      0.2478
 40      1.3717      0.5235      0.2232      0.6584      0.7059      2.5574      0.5318      0.3333      0.2888
 41      0.0000      0.1791      0.1231      0.0797      0.0000      0.0000      0.3150      0.0000      0.1128
 42      0.0000      0.1861      0.1446      0.0316      0.7159      0.5590      0.0491      0.0647      0.0230
 43      0.0000      0.2443      1.0295      0.0347      0.5311      1.3760      0.0355      0.0000      0.2819
 44      0.0000      0.2642      0.2433      0.2324      0.2539      2.5795      0.1088      0.1277      0.1505
 45      6.4795      1.0159      0.5101      0.9929      0.2086      1.7015      0.9733      1.2588      0.8045
 46      0.0000     65.3688     70.0048     72.5057     46.8258     37.2748     66.9464     74.0843     72.7949
