###################################################################
## OUTPUT of StarlightChains_v04.for    [Cid@UFSC - 01/Apr/2007] ##
###################################################################

## Some input info
KUG0210-078._26_27.txt                   [arq_obs]
Base.CB07.vall.4m                        [arq_base]
Masks.EmLines.NEW.gm                     [arq_masks]
StCv04.C11.config                        [arq_config]
   66                                    [N_base]
    0                                    [N_YAV_components = # of components with extra extinction!]
    0                                    [i_FitPowerLaw (1/0 = Yes/No)]
-9.99                                    [alpha_PowerLaw]
CCM                                      [red_law_option]
 1.458241                                [q_norm = A(l_norm)/A(V)]

## (Re)Sampling Parameters
 3741.00                                 [l_ini (A)]
 7218.00                                 [l_fin (A)]
    1.00                                 [dl    (A)]     (OBS: dl_cushion =    50.00 A)

## Normalization info
 4020.00                                 [l_norm (A) - for base]
 4010.00                                 [llow_norm (A) - window for f_obs]
 4060.00                                 [lupp_norm (A) - window for f_obs]
1.966566E-17                             [fobs_norm (in input units)]

## S/N
 3691.00                                 [llow_SN (A) - window for S/N]
 7268.00                                 [lupp_SN (A) - window for S/N]
   5.530                                 [S/N in S/N window]
   5.959                                 [S/N in norm. window]
   0.026                                 [S/N_err in S/N window]
   0.028                                 [S/N_err in norm. window]
  1.0000                                 [fscale_chi2]

## etc...
    -2007323                             [idum_orig]
  2420                                   [NOl_eff]
  2004                                   [Nl_eff]
   416    NSIGMA                         [Ntot_cliped & clip_method]
 11312000                                [Nglobal_steps]
   7                                     [N_chains]
  40                                     [NEX0s_base = N_base in EX0s-fits]
 0   0   1      416   2.0   1.794E+04    [Clip-Bug, RC-Crash & Burn-In warning-flags, n_censored_weights, wei_nsig_threshold & wei_limit]
    84     83.686     83.250      0.436  [idt_all, wdt_TotTime, wdt_UsrTime & wdt_SysTime (sec)]

## Synthesis Results - Best model ##

 1.26060E-05                             [chi2/Nl_eff]
     7.03005                             [adev (%)]

   101.41093                             [sum-of-x (%)]
 2.54078E-17                             [Flux_tot (units of input spectrum!)]
 1.26817E-12                             [Mini_tot (???)]
 6.36385E-13                             [Mcor_tot (???)]

 104.19                                  [v0_min  (km/s)]
 157.70                                  [vd_min  (km/s)]
 0.1803                                  [AV_min  (mag)]
 0.0000                                  [YAV_min (mag)]

# j     x_j(%)      Mini_j(%)     Mcor_j(%)     age_j(yr)     Z_j      (L/M)_j    YAV?  Mstars   component_j        a/Fe...       SSP_chi2r SSP_adev(%)   SSP_AV   SSP_x(%)
  1      7.2907     1.3166E-02    2.6237E-02    1.000000E+06  0.00400  1.094E-02    0   1.0000   age020_m42            0.0000     1.6387E-05    10.2380   3.0348    88.3346
  2      0.0720     3.5491E-05    7.0718E-05    3.160000E+06  0.00400  4.007E-02    0   0.9999   age045_m42            0.0000     1.5632E-05     9.5124   2.3829    91.3779
  3      0.1601     1.2456E-04    2.3552E-04    5.010000E+06  0.00400  2.539E-02    0   0.9488   age055_m42            0.0000     1.5755E-05     9.7207   2.6689    90.5045
  4      0.0000     0.0000E+00    0.0000E+00    6.610000E+06  0.00400  2.620E-02    0   0.9220   age061_m42            0.0000     1.5315E-05     9.2761   2.3081    91.6632
  5      0.0344     5.1410E-05    9.0789E-05    1.000000E+07  0.00400  1.322E-02    0   0.8862   age070_m42            0.0000     1.4325E-05     8.2108   1.9993    94.9764
  6      6.7568     1.6934E-02    2.8923E-02    1.445000E+07  0.00400  7.883E-03    0   0.8571   age078_m42            0.0000     1.4663E-05     8.5244   2.3149    92.9924
  7      0.0000     0.0000E+00    0.0000E+00    2.512000E+07  0.00400  5.251E-03    0   0.8174   age090_m42            0.0000     1.4209E-05     8.0153   1.8728    95.4210
  8      0.0000     0.0000E+00    0.0000E+00    4.000000E+07  0.00400  3.649E-03    0   0.7851   age104_m42            0.0000     1.4120E-05     7.9704   1.6594    95.6204
  9      0.0000     0.0000E+00    0.0000E+00    5.500000E+07  0.00400  3.098E-03    0   0.7629   age110_m42            0.0000     1.4456E-05     8.2976   1.8367    94.4957
 10      0.0000     0.0000E+00    0.0000E+00    1.015200E+08  0.00400  2.228E-03    0   0.7207   age116_m42            0.0000     1.4597E-05     8.4743   1.8714    94.0094
 11      0.2496     4.5123E-03    5.9778E-03    2.861200E+08  0.00400  1.093E-03    0   0.6648   age125_m42            0.0000     1.4115E-05     7.8352   1.2986    96.9051
 12      0.0000     0.0000E+00    0.0000E+00    5.088000E+08  0.00400  6.597E-04    0   0.6365   age130_m42            0.0000     1.4187E-05     8.0533   1.3141    96.5764
 13      0.0000     0.0000E+00    0.0000E+00    1.434000E+09  0.00400  2.132E-04    0   0.5798   age139_m42            0.0000     1.3238E-05     7.6326   0.3700    97.4446
 14      0.0000     0.0000E+00    0.0000E+00    4.250000E+09  0.00400  5.895E-05    0   0.5377   age158_m42            0.0000     1.3630E-05     8.3682  -0.0802    93.9881
 15      0.0511     2.8786E-02    2.9898E-02    7.500000E+09  0.00400  3.510E-05    0   0.5212   age171_m42            0.0000     1.3849E-05     8.5186  -0.2636    93.1009
 16      0.0000     0.0000E+00    0.0000E+00    1.300000E+10  0.00400  2.005E-05    0   0.5034   age193_m42            0.0000     1.4282E-05     8.7045  -0.4276    92.4797
 17      5.6772     7.3549E+00    7.2799E+00    1.800000E+10  0.00400  1.525E-05    0   0.4967   age213_m42            0.0000     1.4194E-05     8.6611  -0.4542    92.2313
 18      0.0052     8.2634E-06    1.6467E-05    1.000000E+06  0.00800  1.238E-02    0   1.0000   age020_m52            0.0000     1.6379E-05    10.2357   3.0325    88.4692
 19      8.9814     5.7723E-03    1.1464E-02    3.160000E+06  0.00800  3.074E-02    0   0.9966   age045_m52            0.0000     1.6269E-05    10.2074   2.9617    89.0252
 20      0.0000     0.0000E+00    0.0000E+00    5.010000E+06  0.00800  2.668E-02    0   0.9443   age055_m52            0.0000     1.5734E-05     9.7417   2.7420    90.0875
 21      0.0000     0.0000E+00    0.0000E+00    6.610000E+06  0.00800  2.136E-02    0   0.9177   age061_m52            0.0000     1.3780E-05     8.2016   1.4914    96.4806
 22     10.7586     1.7494E-02    3.0772E-02    1.000000E+07  0.00800  1.215E-02    0   0.8827   age070_m52            0.0000     1.4243E-05     7.9905   2.1641    95.3766
 23      0.0000     0.0000E+00    0.0000E+00    1.445000E+07  0.00800  8.717E-03    0   0.8552   age078_m52            0.0000     1.4493E-05     8.3549   2.2852    94.0847
 24      2.2303     7.8796E-03    1.2816E-02    2.512000E+07  0.00800  5.592E-03    0   0.8162   age090_m52            0.0000     1.4095E-05     7.8023   1.9440    96.2270
 25      0.0000     0.0000E+00    0.0000E+00    4.000000E+07  0.00800  3.896E-03    0   0.7841   age104_m52            0.0000     1.4131E-05     7.8404   1.8750    96.0746
 26      0.0000     0.0000E+00    0.0000E+00    1.015200E+08  0.00800  2.148E-03    0   0.7226   age116_m52            0.0000     1.4305E-05     8.1703   1.8335    94.9938
 27      0.0000     0.0000E+00    0.0000E+00    2.861200E+08  0.00800  9.925E-04    0   0.6683   age125_m52            0.0000     1.4042E-05     7.9803   1.3827    97.3187
 28      0.0000     0.0000E+00    0.0000E+00    9.047900E+08  0.00800  3.141E-04    0   0.6138   age135_m52            0.0000     1.3504E-05     7.7986   0.6411    98.7062
 29      0.0000     0.0000E+00    0.0000E+00    1.434000E+09  0.00800  1.719E-04    0   0.5853   age139_m52            0.0000     1.3184E-05     7.6713   0.0364    97.7399
 30      0.1837     4.6093E-02    5.1438E-02    2.500000E+09  0.00800  7.872E-05    0   0.5600   age150_m52            0.0000     1.3681E-05     8.3323  -0.2205    94.6443
 31      0.0000     0.0000E+00    0.0000E+00    4.250000E+09  0.00800  4.336E-05    0   0.5426   age158_m52            0.0000     1.3806E-05     8.4210  -0.2361    93.7786
 32      0.0000     0.0000E+00    0.0000E+00    6.250000E+09  0.00800  3.159E-05    0   0.5319   age166_m52            0.0000     1.4276E-05     8.6807  -0.4284    93.2985
 33      0.0000     0.0000E+00    0.0000E+00    1.300000E+10  0.00800  1.361E-05    0   0.5073   age193_m52            0.0000     1.5088E-05     9.0083  -0.8809    92.0077
 34      0.0000     0.0000E+00    0.0000E+00    1.800000E+10  0.00800  9.886E-06    0   0.4990   age213_m52            0.0000     1.5796E-05     9.3214  -0.9756    90.9490
 35      0.0000     0.0000E+00    0.0000E+00    1.000000E+06  0.02000  1.544E-02    0   1.0000   age020_m62            0.0000     1.6387E-05    10.2598   3.0243    88.8251
 36      0.4629     2.4308E-04    4.7752E-04    3.160000E+06  0.02000  3.762E-02    0   0.9858   age045_m62            0.0000     1.6303E-05    10.2661   2.9653    89.5161
 37      1.1636     6.9747E-04    1.2984E-03    5.010000E+06  0.02000  3.296E-02    0   0.9342   age055_m62            0.0000     1.5686E-05     9.6935   2.6415    91.0969
 38      0.0000     0.0000E+00    0.0000E+00    8.710000E+06  0.02000  1.154E-02    0   0.8861   age067_m62            0.0000     1.3622E-05     6.8484   1.5402   101.9311
 39      0.0000     0.0000E+00    0.0000E+00    1.445000E+07  0.02000  7.663E-03    0   0.8472   age078_m62            0.0000     1.3846E-05     7.4084   1.7960    98.2762
 40      0.0000     0.0000E+00    0.0000E+00    2.512000E+07  0.02000  4.532E-03    0   0.8099   age090_m62            0.0000     1.3870E-05     7.3148   1.7892    97.9601
 41      0.0000     0.0000E+00    0.0000E+00    5.500000E+07  0.02000  2.733E-03    0   0.7595   age110_m62            0.0000     1.3935E-05     7.7978   1.8463    95.9098
 42      0.0000     0.0000E+00    0.0000E+00    1.609000E+08  0.02000  1.369E-03    0   0.6985   age120_m62            0.0000     1.4104E-05     8.0302   1.7257    96.6463
 43      0.3948     8.6530E-03    1.1577E-02    2.861200E+08  0.02000  9.013E-04    0   0.6714   age125_m62            0.0000     1.4059E-05     7.9971   1.5055    98.0818
 44      8.1210     3.1910E-01    4.1008E-01    5.088000E+08  0.02000  5.028E-04    0   0.6449   age130_m62            0.0000     1.4195E-05     8.2485   1.1775    98.3636
 45      4.0244     3.2746E-01    4.0321E-01    9.047900E+08  0.02000  2.428E-04    0   0.6179   age135_m62            0.0000     1.3597E-05     8.1367   0.6001    97.3556
 46      0.0000     0.0000E+00    0.0000E+00    1.434000E+09  0.02000  1.263E-04    0   0.5908   age139_m62            0.0000     1.3493E-05     8.1700   0.1498    96.1922
 47      0.0000     0.0000E+00    0.0000E+00    2.500000E+09  0.02000  5.985E-05    0   0.5673   age150_m62            0.0000     1.4063E-05     8.6602  -0.2136    94.6859
 48      0.0000     0.0000E+00    0.0000E+00    4.250000E+09  0.02000  3.271E-05    0   0.5468   age158_m62            0.0000     1.5050E-05     9.1276  -0.5047    93.2468
 49      0.0000     0.0000E+00    0.0000E+00    1.000000E+10  0.02000  1.360E-05    0   0.5167   age181_m62            0.0000     1.6293E-05     9.4452  -0.8251    91.6186
 50      0.4124     1.1436E+00    1.1424E+00    1.800000E+10  0.02000  7.124E-06    0   0.5013   age213_m62            0.0000     1.7461E-05     9.7482  -1.0000    89.5630
 51      0.3280     2.4997E-04    4.9802E-04    1.000000E+06  0.05000  2.592E-02    0   0.9998   age020_m72            0.0000     1.6385E-05    10.2710   3.0097    89.1196
 52      1.4584     5.9471E-04    1.1350E-03    3.160000E+06  0.05000  4.845E-02    0   0.9577   age045_m72            0.0000     1.6178E-05    10.1325   2.8722    89.7548
 53      0.0000     0.0000E+00    0.0000E+00    5.010000E+06  0.05000  3.072E-02    0   0.9147   age055_m72            0.0000     1.4662E-05     8.3584   2.3739    94.5315
 54      8.1924     1.1124E-02    1.9678E-02    6.610000E+06  0.05000  1.455E-02    0   0.8877   age061_m72            0.0000     1.5929E-05     8.3447   1.5411   104.4659
 55      0.0000     0.0000E+00    0.0000E+00    1.000000E+07  0.05000  9.074E-03    0   0.8524   age070_m72            0.0000     1.5705E-05     9.1080   2.5484    94.2545
 56      5.1566     2.3971E-02    3.7746E-02    2.512000E+07  0.05000  4.250E-03    0   0.7902   age090_m72            0.0000     1.4897E-05     8.2957   2.2830    94.8035
 57      0.0000     0.0000E+00    0.0000E+00    4.000000E+07  0.05000  3.087E-03    0   0.7618   age104_m72            0.0000     1.4705E-05     8.0319   2.0628    96.1073
 58      0.0000     0.0000E+00    0.0000E+00    1.015200E+08  0.05000  1.700E-03    0   0.7096   age116_m72            0.0000     1.4213E-05     7.8513   1.8558    96.7552
 59      0.0000     0.0000E+00    0.0000E+00    2.861200E+08  0.05000  7.384E-04    0   0.6633   age125_m72            0.0000     1.3906E-05     7.9907   1.4036    98.0333
 60      0.0000     0.0000E+00    0.0000E+00    5.088000E+08  0.05000  3.819E-04    0   0.6372   age130_m72            0.0000     1.3594E-05     8.2313   0.9460    98.0676
 61      0.1024     1.2070E-02    1.4696E-02    9.047900E+08  0.05000  1.676E-04    0   0.6110   age135_m72            0.0000     1.3893E-05     8.7512   0.2630    95.7409
 62      1.0837     2.4228E-01    2.8360E-01    1.434000E+09  0.05000  8.837E-05    0   0.5874   age139_m72            0.0000     1.4120E-05     8.5703  -0.1987    95.4026
 63      0.1990     9.2871E-02    1.0360E-01    2.500000E+09  0.05000  4.233E-05    0   0.5598   age150_m72            0.0000     1.5291E-05     9.2081  -0.4922    93.4735
 64      5.1114     7.0371E+00    7.3608E+00    6.250000E+09  0.05000  1.435E-05    0   0.5249   age166_m72            0.0000     1.6687E-05     9.5803  -0.9129    90.8614
 65     12.0191     3.6458E+01    3.6588E+01    1.300000E+10  0.05000  6.513E-06    0   0.5036   age193_m72            0.0000     1.9074E-05     9.7135  -1.0000    85.8324
 66     10.7298     4.6826E+01    4.6143E+01    1.800000E+10  0.05000  4.527E-06    0   0.4945   age213_m72            0.0000     2.1727E-05    10.0109  -1.0000    80.8959


## Synthesis Results - Average & Chains ##

# j      x_j: min, <> & last-chain-values for 1 ...  7 chains
  1      7.2907      0.1321      0.4022      0.6153      0.3342      0.0214      0.2847      0.0081      1.1368
  2      0.0720      2.0365      1.6109      1.6866      1.5930      2.1854      1.8168      1.8157      1.2303
  3      0.1601      0.1638      0.5108      0.8052      0.5906      0.0000      0.0000      0.0349      0.1043
  4      0.0000      0.1320      0.2750      0.5005      0.2102      0.0776      0.9294      0.0936      0.0000
  5      0.0344      0.1591      0.3444      0.5381      0.0000      0.6003      0.0843      0.1575      0.0626
  6      6.7568      0.1528      0.3841      0.7351      0.1327      0.1675      0.0000      0.0243      0.8758
  7      0.0000      0.0725      0.5185      0.2377      0.0000      0.0833      0.1003      0.1388      0.3555
  8      0.0000      0.1401      0.0000      0.3891      0.0000      0.0000      0.7818      0.0959      0.8819
  9      0.0000      0.1299      0.4272      0.4982      0.8540      0.0067      0.0582      0.0749      0.5402
 10      0.0000      0.1050      0.1246      0.0000      0.0137      0.0000      0.2534      0.0236      0.3380
 11      0.2496      1.2102      0.6295      1.5454      1.1017      1.1905      1.6719      0.7991      1.0390
 12      0.0000      0.4589      0.0000      0.2471      0.0000      0.7352      0.0000      0.3626      1.0099
 13      0.0000      0.1175      0.1435      0.3744      0.3906      0.1319      0.0596      0.0664      0.2277
 14      0.0000      0.1093      0.0000      0.0000      0.2596      0.0642      0.2340      0.0000      0.3878
 15      0.0511      0.1407      0.6979      1.0365      0.1762      0.0000      0.5265      0.0823      0.0000
 16      0.0000      0.1416      0.1094      0.0000      0.8998      0.1149      0.0675      0.0000      0.3201
 17      5.6772      0.1289      0.9092      0.5642      0.0926      0.1361      0.1596      0.0268      0.2892
 18      0.0052      0.1151      0.6401      0.1902      0.3029      0.0000      0.5835      0.1451      0.1263
 19      8.9814      0.1349      0.2884      0.0000      0.1918      0.0793      0.4901      0.0533      0.0000
 20      0.0000      0.1253      0.0000      0.1870      0.0657      0.1559      0.0000      0.0050      0.0000
 21      0.0000      0.0979      0.0000      0.0000      0.5972      0.0869      0.1575      0.1169      0.0622
 22     10.7586      0.1180      0.9466      0.0000      0.0895      0.2468      0.2586      0.0000      0.0000
 23      0.0000      0.1031      0.0000      0.0000      0.4741      0.0788      0.0567      0.1269      0.0942
 24      2.2303      0.0997      0.2820      0.1035      0.1937      0.1550      0.0000      0.0122      0.0000
 25      0.0000      0.1248      1.1997      0.4865      0.0000      0.2211      0.0000      0.0519      0.0000
 26      0.0000      0.1085      0.0000      0.0000      0.2666      0.1011      0.0527      0.0000      0.1294
 27      0.0000      0.1359      0.9968      0.4669      0.0015      0.1751      0.0000      0.0534      0.7549
 28      0.0000      0.1301      0.2752      0.0516      0.4179      0.0085      0.2393      0.0936      0.0709
 29      0.0000      0.1322      0.0000      0.2111      0.0000      0.0510      0.2785      0.0920      0.4173
 30      0.1837      0.1200      0.6203      0.0000      0.0000      0.1005      0.0000      0.0497      0.3703
 31      0.0000      0.1115      0.0242      0.2991      0.1855      0.0124      0.0000      0.1057      0.3771
 32      0.0000      0.1626      0.3925      0.0000      0.4195      0.2541      0.0832      0.0856      0.4755
 33      0.0000      0.1287      0.7372      0.9135      0.1231      0.0609      0.3759      0.0478      0.4571
 34      0.0000      0.1631      0.0000      0.0737      0.0862      0.0274      1.5235      0.0208      0.0000
 35      0.0000      0.1516      0.1115      1.5436      0.0000      0.3804      0.1032      0.0604      0.0000
 36      0.4629      2.4956      2.3498      2.7743      2.2174      2.8875      2.6312      2.6103      2.1897
 37      1.1636      0.1226      0.9147      0.0000      0.3389      0.0000      0.0647      0.0000      0.3449
 38      0.0000      0.1258      0.2549      0.0103      0.0000      0.0081      0.0000      0.0537      0.0539
 39      0.0000      0.1287      0.1999      0.4129      0.0819      0.4790      0.0000      0.0637      0.0000
 40      0.0000      0.1244      0.0672      0.5528      0.1393      0.0476      0.4770      0.0268      0.2469
 41      0.0000      0.1610      0.0687      0.0000      0.1651      0.1864      0.4513      0.1753      0.1076
 42      0.0000      0.1638      0.0000      0.3421      1.7543      0.0698      0.3075      0.0625      0.5054
 43      0.3948      0.1571      0.3360      0.3455      0.0000      0.0498      1.3876      0.0315      0.0294
 44      8.1210      0.3778      0.4737      0.0000      0.8276      0.2888      0.3771      0.0077      0.3475
 45      4.0244      9.5823      8.0908      7.8929      7.8748      9.7168      8.8580     11.6619      8.9017
 46      0.0000      0.1206      0.0727      0.2583      0.1107      0.0000      0.0551      0.0795      0.0000
