###################################################################
## OUTPUT of StarlightChains_v04.for    [Cid@UFSC - 01/Apr/2007] ##
###################################################################

## Some input info
KUG0210-078._29_30.txt                   [arq_obs]
Base.CB07.vall.4m                        [arq_base]
Masks.EmLines.NEW.gm                     [arq_masks]
StCv04.C11.config                        [arq_config]
   66                                    [N_base]
    0                                    [N_YAV_components = # of components with extra extinction!]
    0                                    [i_FitPowerLaw (1/0 = Yes/No)]
-9.99                                    [alpha_PowerLaw]
CCM                                      [red_law_option]
 1.458241                                [q_norm = A(l_norm)/A(V)]

## (Re)Sampling Parameters
 3741.00                                 [l_ini (A)]
 7218.00                                 [l_fin (A)]
    1.00                                 [dl    (A)]     (OBS: dl_cushion =    50.00 A)

## Normalization info
 4020.00                                 [l_norm (A) - for base]
 4010.00                                 [llow_norm (A) - window for f_obs]
 4060.00                                 [lupp_norm (A) - window for f_obs]
4.472836E-17                             [fobs_norm (in input units)]

## S/N
 3691.00                                 [llow_SN (A) - window for S/N]
 7268.00                                 [lupp_SN (A) - window for S/N]
   6.427                                 [S/N in S/N window]
   6.967                                 [S/N in norm. window]
   0.058                                 [S/N_err in S/N window]
   0.062                                 [S/N_err in norm. window]
  1.0000                                 [fscale_chi2]

## etc...
    -2007406                             [idum_orig]
  2432                                   [NOl_eff]
  2270                                   [Nl_eff]
   162    NSIGMA                         [Ntot_cliped & clip_method]
 15649410                                [Nglobal_steps]
   7                                     [N_chains]
  41                                     [NEX0s_base = N_base in EX0s-fits]
 0   0   1      162   2.0   2.489E+04    [Clip-Bug, RC-Crash & Burn-In warning-flags, n_censored_weights, wei_nsig_threshold & wei_limit]
   111    110.666    109.957      0.709  [idt_all, wdt_TotTime, wdt_UsrTime & wdt_SysTime (sec)]

## Synthesis Results - Best model ##

 3.12429E-05                             [chi2/Nl_eff]
     6.42877                             [adev (%)]

    96.07233                             [sum-of-x (%)]
 3.00387E-17                             [Flux_tot (units of input spectrum!)]
 1.41464E-12                             [Mini_tot (???)]
 7.18303E-13                             [Mcor_tot (???)]

  17.70                                  [v0_min  (km/s)]
 218.25                                  [vd_min  (km/s)]
-0.2666                                  [AV_min  (mag)]
 0.0000                                  [YAV_min (mag)]

# j     x_j(%)      Mini_j(%)     Mcor_j(%)     age_j(yr)     Z_j      (L/M)_j    YAV?  Mstars   component_j        a/Fe...       SSP_chi2r SSP_adev(%)   SSP_AV   SSP_x(%)
  1      0.0000     0.0000E+00    0.0000E+00    1.000000E+06  0.00400  1.094E-02    0   1.0000   age020_m42            0.0000     1.0757E-04    12.4119   3.3400    78.5122
  2      0.0000     0.0000E+00    0.0000E+00    3.160000E+06  0.00400  4.007E-02    0   0.9999   age045_m42            0.0000     8.0474E-05    10.7880   2.5972    84.4138
  3      0.0000     0.0000E+00    0.0000E+00    5.010000E+06  0.00400  2.539E-02    0   0.9488   age055_m42            0.0000     9.2102E-05    11.4819   2.9252    82.0853
  4      0.0081     6.8338E-06    1.2409E-05    6.610000E+06  0.00400  2.620E-02    0   0.9220   age061_m42            0.0000     7.9558E-05    10.6495   2.5241    84.5385
  5      0.0000     0.0000E+00    0.0000E+00    1.000000E+07  0.00400  1.322E-02    0   0.8862   age070_m42            0.0000     8.1342E-05    10.8491   2.2610    85.5470
  6      0.0000     0.0000E+00    0.0000E+00    1.445000E+07  0.00400  7.883E-03    0   0.8571   age078_m42            0.0000     8.8686E-05    11.2723   2.5890    83.3580
  7      0.0000     0.0000E+00    0.0000E+00    2.512000E+07  0.00400  5.251E-03    0   0.8174   age090_m42            0.0000     8.0695E-05    10.8379   2.1345    85.9037
  8      0.3583     2.1702E-03    3.3556E-03    4.000000E+07  0.00400  3.649E-03    0   0.7851   age104_m42            0.0000     7.5044E-05    10.4749   1.9002    86.8735
  9      0.9625     6.8667E-03    1.0317E-02    5.500000E+07  0.00400  3.098E-03    0   0.7629   age110_m42            0.0000     7.1098E-05    10.0858   2.0413    87.3108
 10      0.0000     0.0000E+00    0.0000E+00    1.015200E+08  0.00400  2.228E-03    0   0.7207   age116_m42            0.0000     6.9056E-05     9.8565   2.0554    87.7337
 11      0.0000     0.0000E+00    0.0000E+00    2.861200E+08  0.00400  1.093E-03    0   0.6648   age125_m42            0.0000     6.0634E-05     9.1902   1.4863    90.2379
 12      0.0000     0.0000E+00    0.0000E+00    5.088000E+08  0.00400  6.597E-04    0   0.6365   age130_m42            0.0000     5.6483E-05     8.8796   1.4657    91.5138
 13      0.0000     0.0000E+00    0.0000E+00    1.434000E+09  0.00400  2.132E-04    0   0.5798   age139_m42            0.0000     4.0312E-05     7.7915   0.4860    93.8846
 14      0.0000     0.0000E+00    0.0000E+00    4.250000E+09  0.00400  5.895E-05    0   0.5377   age158_m42            0.0000     3.9363E-05     7.5406   0.0289    91.0000
 15      0.0000     0.0000E+00    0.0000E+00    7.500000E+09  0.00400  3.510E-05    0   0.5212   age171_m42            0.0000     3.7980E-05     7.1894  -0.1701    90.7716
 16      1.8666     2.0577E+00    2.0400E+00    1.300000E+10  0.00400  2.005E-05    0   0.5034   age193_m42            0.0000     3.7343E-05     7.0042  -0.3452    90.5942
 17      0.0000     0.0000E+00    0.0000E+00    1.800000E+10  0.00400  1.525E-05    0   0.4967   age213_m42            0.0000     3.8338E-05     7.1392  -0.3638    90.0909
 18      0.0000     0.0000E+00    0.0000E+00    1.000000E+06  0.00800  1.238E-02    0   1.0000   age020_m52            0.0000     1.0768E-04    12.4206   3.3363    78.6708
 19      0.0000     0.0000E+00    0.0000E+00    3.160000E+06  0.00800  3.074E-02    0   0.9966   age045_m52            0.0000     1.0577E-04    12.3154   3.2572    79.4491
 20      0.0000     0.0000E+00    0.0000E+00    5.010000E+06  0.00800  2.668E-02    0   0.9443   age055_m52            0.0000     9.5733E-05    11.7041   3.0111    81.2659
 21      0.0000     0.0000E+00    0.0000E+00    6.610000E+06  0.00800  2.136E-02    0   0.9177   age061_m52            0.0000     7.4948E-05    10.6567   1.7585    86.7285
 22      0.8260     1.5025E-03    2.6120E-03    1.000000E+07  0.00800  1.215E-02    0   0.8827   age070_m52            0.0000     8.6175E-05    11.1219   2.4465    85.0957
 23      0.0000     0.0000E+00    0.0000E+00    1.445000E+07  0.00800  8.717E-03    0   0.8552   age078_m52            0.0000     8.5803E-05    11.1154   2.5543    84.5261
 24      0.0000     0.0000E+00    0.0000E+00    2.512000E+07  0.00800  5.592E-03    0   0.8162   age090_m52            0.0000     7.8847E-05    10.6905   2.1980    86.9290
 25      0.1047     5.9425E-04    9.1765E-04    4.000000E+07  0.00800  3.896E-03    0   0.7841   age104_m52            0.0000     7.2622E-05    10.2158   2.1012    87.9026
 26      0.0000     0.0000E+00    0.0000E+00    1.015200E+08  0.00800  2.148E-03    0   0.7226   age116_m52            0.0000     6.7276E-05     9.8030   2.0281    88.2371
 27      3.7419     8.3329E-02    1.0967E-01    2.861200E+08  0.00800  9.925E-04    0   0.6683   age125_m52            0.0000     5.4981E-05     8.7805   1.5301    92.3622
 28     17.9728     1.2647E+00    1.5288E+00    9.047900E+08  0.00800  3.141E-04    0   0.6138   age135_m52            0.0000     3.5864E-05     7.2470   0.7057    97.3546
 29      0.3000     3.8576E-02    4.4466E-02    1.434000E+09  0.00800  1.719E-04    0   0.5853   age139_m52            0.0000     3.3439E-05     7.0111   0.1289    95.4123
 30      1.8676     5.2436E-01    5.7831E-01    2.500000E+09  0.00800  7.872E-05    0   0.5600   age150_m52            0.0000     3.3806E-05     6.7261  -0.1638    93.7487
 31      0.0000     0.0000E+00    0.0000E+00    4.250000E+09  0.00800  4.336E-05    0   0.5426   age158_m52            0.0000     3.4921E-05     6.8007  -0.1800    92.9216
 32      0.0000     0.0000E+00    0.0000E+00    6.250000E+09  0.00800  3.159E-05    0   0.5319   age166_m52            0.0000     3.4586E-05     6.6063  -0.3979    93.5149
 33      0.0000     0.0000E+00    0.0000E+00    1.300000E+10  0.00800  1.361E-05    0   0.5073   age193_m52            0.0000     3.7096E-05     6.6692  -0.8854    93.6495
 34     28.8187     6.4430E+01    6.3318E+01    1.800000E+10  0.00800  9.886E-06    0   0.4990   age213_m52            0.0000     4.1056E-05     7.0514  -1.0000    93.5369
 35      0.0000     0.0000E+00    0.0000E+00    1.000000E+06  0.02000  1.544E-02    0   1.0000   age020_m62            0.0000     1.0850E-04    12.4684   3.3326    78.8488
 36      0.0000     0.0000E+00    0.0000E+00    3.160000E+06  0.02000  3.762E-02    0   0.9858   age045_m62            0.0000     1.0789E-04    12.4268   3.2705    79.5701
 37      0.0000     0.0000E+00    0.0000E+00    5.010000E+06  0.02000  3.296E-02    0   0.9342   age055_m62            0.0000     8.7286E-05    11.1307   2.8781    83.3180
 38      0.0000     0.0000E+00    0.0000E+00    8.710000E+06  0.02000  1.154E-02    0   0.8861   age067_m62            0.0000     1.1163E-04    12.8954   1.9372    85.8611
 39      0.0518     1.4952E-04    2.4948E-04    1.445000E+07  0.02000  7.663E-03    0   0.8472   age078_m62            0.0000     8.6863E-05    11.1815   2.1034    86.6082
 40      0.0000     0.0000E+00    0.0000E+00    2.512000E+07  0.02000  4.532E-03    0   0.8099   age090_m62            0.0000     8.7446E-05    11.1382   2.0975    86.2832
 41      5.5387     4.4793E-02    6.7000E-02    5.500000E+07  0.02000  2.733E-03    0   0.7595   age110_m62            0.0000     7.4483E-05    10.3351   2.0865    87.2136
 42      0.0000     0.0000E+00    0.0000E+00    1.609000E+08  0.02000  1.369E-03    0   0.6985   age120_m62            0.0000     6.4114E-05     9.4338   1.9038    90.3922
 43      0.8763     2.1490E-02    2.8415E-02    2.861200E+08  0.02000  9.013E-04    0   0.6714   age125_m62            0.0000     5.7771E-05     8.9355   1.6393    93.5308
 44      0.0261     1.1495E-03    1.4600E-03    5.088000E+08  0.02000  5.028E-04    0   0.6449   age130_m62            0.0000     4.6768E-05     8.1218   1.2365    97.0416
 45      0.0000     0.0000E+00    0.0000E+00    9.047900E+08  0.02000  2.428E-04    0   0.6179   age135_m62            0.0000     3.5563E-05     7.0722   0.6380    97.1274
 46      3.4068     5.9618E-01    6.9368E-01    1.434000E+09  0.02000  1.263E-04    0   0.5908   age139_m62            0.0000     3.3778E-05     6.7347   0.1871    96.0202
 47      0.0000     0.0000E+00    0.0000E+00    2.500000E+09  0.02000  5.985E-05    0   0.5673   age150_m62            0.0000     3.4890E-05     6.6760  -0.1978    95.4684
 48      0.0000     0.0000E+00    0.0000E+00    4.250000E+09  0.02000  3.271E-05    0   0.5468   age158_m62            0.0000     3.8010E-05     6.7164  -0.5252    95.5394
 49      0.0000     0.0000E+00    0.0000E+00    1.000000E+10  0.02000  1.360E-05    0   0.5167   age181_m62            0.0000     4.5209E-05     7.3046  -0.9048    96.2925
 50      0.0000     0.0000E+00    0.0000E+00    1.800000E+10  0.02000  7.124E-06    0   0.5013   age213_m62            0.0000     5.7767E-05     9.0643  -1.0000    92.5946
 51      0.5656     4.8225E-04    9.4957E-04    1.000000E+06  0.05000  2.592E-02    0   0.9998   age020_m72            0.0000     1.1139E-04    12.6525   3.3281    78.7781
 52      0.0000     0.0000E+00    0.0000E+00    3.160000E+06  0.05000  4.845E-02    0   0.9577   age045_m72            0.0000     1.0047E-04    11.9388   3.1456    80.8623
 53      0.0000     0.0000E+00    0.0000E+00    5.010000E+06  0.05000  3.072E-02    0   0.9147   age055_m72            0.0000     9.2311E-05    11.3230   2.6836    83.6205
 54      0.1919     2.9157E-04    5.0973E-04    6.610000E+06  0.05000  1.455E-02    0   0.8877   age061_m72            0.0000     1.2749E-04    13.5033   1.9970    85.9359
 55      0.0000     0.0000E+00    0.0000E+00    1.000000E+07  0.05000  9.074E-03    0   0.8524   age070_m72            0.0000     9.2544E-05    11.0811   2.8736    83.2445
 56      0.0000     0.0000E+00    0.0000E+00    2.512000E+07  0.05000  4.250E-03    0   0.7902   age090_m72            0.0000     8.3100E-05    10.5483   2.5588    85.1280
 57      0.0014     9.9582E-06    1.4940E-05    4.000000E+07  0.05000  3.087E-03    0   0.7618   age104_m72            0.0000     7.9596E-05    10.3343   2.3318    86.5198
 58      0.0000     0.0000E+00    0.0000E+00    1.015200E+08  0.05000  1.700E-03    0   0.7096   age116_m72            0.0000     6.7454E-05     9.6385   2.0532    89.7066
 59      0.0000     0.0000E+00    0.0000E+00    2.861200E+08  0.05000  7.384E-04    0   0.6633   age125_m72            0.0000     5.2258E-05     8.4668   1.4931    95.3852
 60      0.0000     0.0000E+00    0.0000E+00    5.088000E+08  0.05000  3.819E-04    0   0.6372   age130_m72            0.0000     4.1618E-05     7.6336   0.9807    97.9063
 61     16.3660     2.1583E+00    2.5971E+00    9.047900E+08  0.05000  1.676E-04    0   0.6110   age135_m72            0.0000     3.7630E-05     6.9000   0.2570    97.3765
 62      0.0000     0.0000E+00    0.0000E+00    1.434000E+09  0.05000  8.837E-05    0   0.5874   age139_m72            0.0000     3.5667E-05     6.6630  -0.2046    97.1444
 63      0.0000     0.0000E+00    0.0000E+00    2.500000E+09  0.05000  4.233E-05    0   0.5598   age150_m72            0.0000     3.9309E-05     6.8389  -0.5386    96.8207
 64      6.8546     1.0558E+01    1.0914E+01    6.250000E+09  0.05000  1.435E-05    0   0.5249   age166_m72            0.0000     4.8715E-05     7.5544  -1.0000    95.9683
 65      5.3658     1.8209E+01    1.8060E+01    1.300000E+10  0.05000  6.513E-06    0   0.5036   age193_m72            0.0000     7.7553E-05    11.3488  -1.0000    89.1746
 66      0.0000     0.0000E+00    0.0000E+00    1.800000E+10  0.05000  4.527E-06    0   0.4945   age213_m72            0.0000     1.0891E-04    13.9931  -1.0000    84.3837


## Synthesis Results - Average & Chains ##

# j      x_j: min, <> & last-chain-values for 1 ...  7 chains
  1      0.0000     10.2979      7.0632      8.1830      4.6823      6.2301      6.1059      2.8097      5.6115
  2      0.0000      0.2557      0.7439      0.8560      1.2783      0.7132      0.9362      1.2281      0.3774
  3      0.0000      0.3142      2.0215      0.0409      0.7247      0.7657      1.9966      0.0000      0.6826
  4      0.0081      0.2572      0.0984      0.7331      0.0000      0.0000      1.3482      0.0246      1.4076
  5      0.0000      0.2361      0.5366      0.2409      0.0111      0.0000      0.0000      0.0877      0.1593
  6      0.0000      0.2416      0.6658      0.4424      0.0000      0.0000      1.6382      0.5451      0.8676
  7      0.0000      0.3449      0.1849      2.8237      1.5792      1.9109      0.0000      2.5471      0.0000
  8      0.3583      0.3348      0.8415      1.5927      0.0000      0.4167      0.2047      0.3536      0.0000
  9      0.9625      0.2430      0.0000      1.9364      0.8526      0.0814      0.1293      0.4602      0.2081
 10      0.0000      0.3258      0.0000      0.0000      0.7206      0.0000      1.2908      0.0338      0.8069
 11      0.0000      0.2851      0.1429      0.1608      0.5819      1.0050      0.0000      1.7174      1.4171
 12      0.0000      0.1933      0.4098      0.0554      0.0000      0.0000      1.3554      0.0000      0.0000
 13      0.0000      0.2712      1.0187      0.0000      3.7886      0.4616      0.0000      0.2956      0.1555
 14      0.0000      0.3038      0.0000      0.0000      2.0558      1.4820      0.9330      0.3155      0.0000
 15      0.0000      0.3060      0.0000      1.2196      1.8027      1.1282      0.0383      0.0000      0.0000
 16      1.8666      0.1970      0.3598      0.5046      0.0000      0.0000      0.0205      0.5019      0.0000
 17      0.0000      0.2675      0.1857      0.0000      0.0050      0.7003      2.2827      0.8132      0.0000
 18      0.0000      1.0745      0.0000      3.3651      0.2888      0.5896      0.6080      0.5861      1.1405
 19      0.0000      0.3980      0.3493      0.9807      0.0000      0.4296      1.2359      1.8233      0.0000
 20      0.0000      0.2574      0.0000      0.0135      0.8216      1.6405      0.0000      0.0000      0.0000
 21      0.0000      0.2297      0.2845      0.2541      0.0000      0.0000      0.7892      0.8719      0.0000
 22      0.8260      4.3368      5.7960      3.1277      1.4561      3.5824      2.3273      3.7600      4.4489
 23      0.0000      0.4752      0.9752      0.0000      0.9080      0.2523      2.3808      1.8336      0.0000
 24      0.0000      0.3914      0.7741      0.4665      0.0142      0.0000      0.1117      0.7219      0.2266
 25      0.1047      0.3831      0.7087      0.9264      2.4533      0.7342      0.1761      0.8533      1.2478
 26      0.0000      0.3349      0.4638      0.0780      0.0451      0.6237      0.0000      0.1069      0.4754
 27      3.7419      0.3196      1.7168      0.4791      1.6105      1.6408      1.1339      1.2881      0.8921
 28     17.9728      0.3036      0.4926      2.2386      0.2512      0.0000      1.7801      0.9190      1.1548
 29      0.3000     14.0956     13.6203     16.4864     17.8012     16.3596      8.4929      8.0091     11.2059
 30      1.8676      0.2382      0.0000      0.6911      2.0443      1.4490      0.5036      1.0770      0.0000
 31      0.0000      0.3115      0.0000      0.0000      0.9816      0.4933      0.8312      2.2556      1.0060
 32      0.0000      0.2876      0.4649      0.0000      0.0000      1.5674      0.0784      0.5753      0.3421
 33      0.0000      5.6730      5.0473      3.8681      1.1821      5.2530      2.6733      4.0110      4.5925
 34     28.8187      4.2397      3.1380      2.1112      1.3424      2.4442      5.0851      2.2749      4.6867
 35      0.0000      1.3714      0.0000      0.3585      1.0110      1.5919      1.3414      1.8266      0.8199
 36      0.0000      0.5219      0.8678      0.0000      0.0000      0.0000      1.7849      1.2615      0.3269
 37      0.0000      0.3354      0.0000      0.2984      1.6862      0.9898      0.2834      2.6901      0.5411
 38      0.0000     11.2139     10.3496      0.0000      7.0717      7.3148      8.3334      1.8950      8.9193
 39      0.0518      2.2377      1.5082      1.1732      3.0072      0.2076      2.7446      1.3827      2.8347
 40      0.0000      1.1711      0.3304      1.6531      0.0873      0.2170      0.2245      0.4853      3.0024
 41      5.5387      0.4066      0.0000      1.8324      1.9589      0.0194      2.0713      0.0000      0.0000
 42      0.0000      0.3382      0.3619      5.3923      1.0082      2.6457      0.4409      0.3017      0.0000
 43      0.8763      0.2996      0.0000      1.5539      0.0000      0.0709      0.6678      1.7181      1.2557
 44      0.0261      0.2323      0.0745      2.4373      1.2331      0.2304      1.0865      0.2045      0.0000
 45      0.0000      0.3299      0.4819      0.0000      2.5492      0.0000      0.0000      1.2873      0.3995
 46      3.4068      0.3470      2.3464      0.8106      0.0000      0.5328      1.0207      3.6659      3.6969
