###################################################################
## OUTPUT of StarlightChains_v04.for    [Cid@UFSC - 01/Apr/2007] ##
###################################################################

## Some input info
KUG0210-078._35_49.txt                   [arq_obs]
Base.CB07.vall.4m                        [arq_base]
Masks.EmLines.NEW.gm                     [arq_masks]
StCv04.C11.config                        [arq_config]
   66                                    [N_base]
    0                                    [N_YAV_components = # of components with extra extinction!]
    0                                    [i_FitPowerLaw (1/0 = Yes/No)]
-9.99                                    [alpha_PowerLaw]
CCM                                      [red_law_option]
 1.458241                                [q_norm = A(l_norm)/A(V)]

## (Re)Sampling Parameters
 3741.00                                 [l_ini (A)]
 7218.00                                 [l_fin (A)]
    1.00                                 [dl    (A)]     (OBS: dl_cushion =    50.00 A)

## Normalization info
 4020.00                                 [l_norm (A) - for base]
 4010.00                                 [llow_norm (A) - window for f_obs]
 4060.00                                 [lupp_norm (A) - window for f_obs]
6.100060E-18                             [fobs_norm (in input units)]

## S/N
 3691.00                                 [llow_SN (A) - window for S/N]
 7268.00                                 [lupp_SN (A) - window for S/N]
   3.030                                 [S/N in S/N window]
   3.090                                 [S/N in norm. window]
   0.008                                 [S/N_err in S/N window]
   0.008                                 [S/N_err in norm. window]
  1.0000                                 [fscale_chi2]

## etc...
    -2007584                             [idum_orig]
  2395                                   [NOl_eff]
  2085                                   [Nl_eff]
   310    NSIGMA                         [Ntot_cliped & clip_method]
 10536750                                [Nglobal_steps]
   7                                     [N_chains]
  42                                     [NEX0s_base = N_base in EX0s-fits]
 0   0   1      310   2.0   4.809E+03    [Clip-Bug, RC-Crash & Burn-In warning-flags, n_censored_weights, wei_nsig_threshold & wei_limit]
    80     78.878     78.213      0.665  [idt_all, wdt_TotTime, wdt_UsrTime & wdt_SysTime (sec)]

## Synthesis Results - Best model ##

 5.40104E-06                             [chi2/Nl_eff]
    18.71311                             [adev (%)]

   130.00000                             [sum-of-x (%)]
 2.07005E-18                             [Flux_tot (units of input spectrum!)]
 9.40402E-14                             [Mini_tot (???)]
 4.84192E-14                             [Mcor_tot (???)]

 128.53                                  [v0_min  (km/s)]
 236.08                                  [vd_min  (km/s)]
-1.0000                                  [AV_min  (mag)]
 0.0000                                  [YAV_min (mag)]

# j     x_j(%)      Mini_j(%)     Mcor_j(%)     age_j(yr)     Z_j      (L/M)_j    YAV?  Mstars   component_j        a/Fe...       SSP_chi2r SSP_adev(%)   SSP_AV   SSP_x(%)
  1      0.0000     4.1565E-08    8.0727E-08    1.000000E+06  0.00400  1.094E-02    0   1.0000   age020_m42            0.0000     6.1837E-06    19.1537   2.3784   119.7436
  2      0.0000     0.0000E+00    0.0000E+00    3.160000E+06  0.00400  4.007E-02    0   0.9999   age045_m42            0.0000     6.2742E-06    19.2465   1.7517   122.9371
  3      0.0000     0.0000E+00    0.0000E+00    5.010000E+06  0.00400  2.539E-02    0   0.9488   age055_m42            0.0000     6.2173E-06    19.1745   2.0267   122.1971
  4      0.1734     1.1206E-04    2.0067E-04    6.610000E+06  0.00400  2.620E-02    0   0.9220   age061_m42            0.0000     6.2641E-06    19.2342   1.6791   123.2490
  5      0.0000     0.0000E+00    0.0000E+00    1.000000E+07  0.00400  1.322E-02    0   0.8862   age070_m42            0.0000     6.3473E-06    19.5491   1.3991   126.5984
  6      0.0000     0.0000E+00    0.0000E+00    1.445000E+07  0.00400  7.883E-03    0   0.8571   age078_m42            0.0000     6.3096E-06    19.4385   1.7023   124.4753
  7      0.1737     5.6015E-04    8.8927E-04    2.512000E+07  0.00400  5.251E-03    0   0.8174   age090_m42            0.0000     6.3889E-06    19.6736   1.2788   126.9626
  8      0.0000     0.0000E+00    0.0000E+00    4.000000E+07  0.00400  3.649E-03    0   0.7851   age104_m42            0.0000     6.3831E-06    19.6802   1.0665   127.1762
  9      0.0000     0.0000E+00    0.0000E+00    5.500000E+07  0.00400  3.098E-03    0   0.7629   age110_m42            0.0000     6.3722E-06    19.5515   1.2356   125.9771
 10      0.0000     0.0000E+00    0.0000E+00    1.015200E+08  0.00400  2.228E-03    0   0.7207   age116_m42            0.0000     6.3450E-06    19.4683   1.2661   125.5039
 11      2.5604     3.9665E-02    5.1214E-02    2.861200E+08  0.00400  1.093E-03    0   0.6648   age125_m42            0.0000     6.4125E-06    19.6559   0.7190   128.2593
 12      0.0000     0.0000E+00    0.0000E+00    5.088000E+08  0.00400  6.597E-04    0   0.6365   age130_m42            0.0000     6.3688E-06    19.4829   0.7263   128.0971
 13      0.0000     0.0000E+00    0.0000E+00    1.434000E+09  0.00400  2.132E-04    0   0.5798   age139_m42            0.0000     6.1919E-06    19.2909  -0.2220   129.4503
 14      0.0000     0.0000E+00    0.0000E+00    4.250000E+09  0.00400  5.895E-05    0   0.5377   age158_m42            0.0000     5.8584E-06    18.7708  -0.7147   126.7315
 15      0.0000     0.0000E+00    0.0000E+00    7.500000E+09  0.00400  3.510E-05    0   0.5212   age171_m42            0.0000     5.7981E-06    18.6416  -0.9079   125.9409
 16      0.0000     0.0000E+00    0.0000E+00    1.300000E+10  0.00400  2.005E-05    0   0.5034   age193_m42            0.0000     5.8190E-06    18.9606  -1.0000   122.6187
 17      0.0000     0.0000E+00    0.0000E+00    1.800000E+10  0.00400  1.525E-05    0   0.4967   age213_m42            0.0000     5.8074E-06    19.1506  -1.0000   121.4523
 18      0.5858     8.0125E-04    1.5562E-03    1.000000E+06  0.00800  1.238E-02    0   1.0000   age020_m52            0.0000     6.1758E-06    19.1570   2.3747   119.9845
 19      0.0000     0.0000E+00    0.0000E+00    3.160000E+06  0.00800  3.074E-02    0   0.9966   age045_m52            0.0000     6.1658E-06    19.1551   2.3044   120.7500
 20      0.0000     0.0000E+00    0.0000E+00    5.010000E+06  0.00800  2.668E-02    0   0.9443   age055_m52            0.0000     6.1855E-06    19.1629   2.0947   121.8514
 21      0.0000     0.0000E+00    0.0000E+00    6.610000E+06  0.00800  2.136E-02    0   0.9177   age061_m52            0.0000     6.1638E-06    19.3146   0.8793   129.1137
 22      0.0000     0.0000E+00    0.0000E+00    1.000000E+07  0.00800  1.215E-02    0   0.8827   age070_m52            0.0000     6.3491E-06    19.6453   1.5676   127.0614
 23      0.0000     0.0000E+00    0.0000E+00    1.445000E+07  0.00800  8.717E-03    0   0.8552   age078_m52            0.0000     6.3075E-06    19.4826   1.6763   125.8028
 24      0.0000     0.0000E+00    0.0000E+00    2.512000E+07  0.00800  5.592E-03    0   0.8162   age090_m52            0.0000     6.3884E-06    19.7404   1.3502   128.0750
 25      0.0000     0.0000E+00    0.0000E+00    4.000000E+07  0.00800  3.896E-03    0   0.7841   age104_m52            0.0000     6.3703E-06    19.6998   1.2802   127.9389
 26      0.0000     0.0000E+00    0.0000E+00    1.015200E+08  0.00800  2.148E-03    0   0.7226   age116_m52            0.0000     6.3140E-06    19.5299   1.2300   126.8344
 27      3.4522     5.8897E-02    7.6447E-02    2.861200E+08  0.00800  9.925E-04    0   0.6683   age125_m52            0.0000     6.3136E-06    19.5085   0.7893   129.4476
 28      0.0000     0.0000E+00    0.0000E+00    9.047900E+08  0.00800  3.141E-04    0   0.6138   age135_m52            0.0000     6.0523E-06    19.1751   0.0237   132.5681
 29      0.0000     0.0000E+00    0.0000E+00    1.434000E+09  0.00800  1.719E-04    0   0.5853   age139_m52            0.0000     5.8166E-06    18.9370  -0.5987   132.2052
 30      0.0044     9.5231E-04    1.0358E-03    2.500000E+09  0.00800  7.872E-05    0   0.5600   age150_m52            0.0000     5.6189E-06    18.5974  -0.8924   129.6100
 31      0.0000     0.0000E+00    0.0000E+00    4.250000E+09  0.00800  4.336E-05    0   0.5426   age158_m52            0.0000     5.6126E-06    18.5662  -0.9103   128.4993
 32      0.0000     0.0000E+00    0.0000E+00    6.250000E+09  0.00800  3.159E-05    0   0.5319   age166_m52            0.0000     5.5961E-06    19.0718  -1.0000   124.3912
 33      0.0000     0.0000E+00    0.0000E+00    1.300000E+10  0.00800  1.361E-05    0   0.5073   age193_m52            0.0000     6.4455E-06    23.6797  -1.0000   107.1346
 34      7.9711     1.3653E+01    1.3232E+01    1.800000E+10  0.00800  9.886E-06    0   0.4990   age213_m52            0.0000     6.7860E-06    24.7660  -1.0000   102.7128
 35      0.0000     0.0000E+00    0.0000E+00    1.000000E+06  0.02000  1.544E-02    0   1.0000   age020_m62            0.0000     6.1695E-06    19.1545   2.3665   120.4675
 36      0.0000     0.0000E+00    0.0000E+00    3.160000E+06  0.02000  3.762E-02    0   0.9858   age045_m62            0.0000     6.1546E-06    19.1326   2.3044   121.5631
 37      0.0000     0.0000E+00    0.0000E+00    5.010000E+06  0.02000  3.296E-02    0   0.9342   age055_m62            0.0000     6.2069E-06    19.1751   1.9993   123.0025
 38      0.1086     1.5931E-04    2.7417E-04    8.710000E+06  0.02000  1.154E-02    0   0.8861   age067_m62            0.0000     6.6467E-06    20.7934   0.9920   133.7970
 39      0.0000     0.0000E+00    0.0000E+00    1.445000E+07  0.02000  7.663E-03    0   0.8472   age078_m62            0.0000     6.4154E-06    19.9732   1.2150   130.3502
 40      2.2038     8.2340E-03    1.2952E-02    2.512000E+07  0.02000  4.532E-03    0   0.8099   age090_m62            0.0000     6.4650E-06    20.1008   1.2136   129.6941
 41     10.1573     6.2931E-02    9.2830E-02    5.500000E+07  0.02000  2.733E-03    0   0.7595   age110_m62            0.0000     6.3150E-06    19.6262   1.2478   127.8629
 42      0.0000     0.0000E+00    0.0000E+00    1.609000E+08  0.02000  1.369E-03    0   0.6985   age120_m62            0.0000     6.2934E-06    19.5090   1.1227   129.0378
 43      0.0000     0.0000E+00    0.0000E+00    2.861200E+08  0.02000  9.013E-04    0   0.6714   age125_m62            0.0000     6.2902E-06    19.5138   0.9025   130.9800
 44      0.0000     0.0000E+00    0.0000E+00    5.088000E+08  0.02000  5.028E-04    0   0.6449   age130_m62            0.0000     6.1445E-06    19.2793   0.5504   132.5554
 45      0.0000     0.0000E+00    0.0000E+00    9.047900E+08  0.02000  2.428E-04    0   0.6179   age135_m62            0.0000     5.8055E-06    18.9164  -0.0545   132.6129
 46     16.4899     2.2107E+00    2.5367E+00    1.434000E+09  0.02000  1.263E-04    0   0.5908   age139_m62            0.0000     5.5812E-06    18.6996  -0.5317   132.3767
 47      0.0000     0.0000E+00    0.0000E+00    2.500000E+09  0.02000  5.985E-05    0   0.5673   age150_m62            0.0000     5.4148E-06    18.4774  -0.9273   131.7723
 48      0.0000     0.0000E+00    0.0000E+00    4.250000E+09  0.02000  3.271E-05    0   0.5468   age158_m62            0.0000     5.5189E-06    19.7210  -1.0000   122.2464
 49      0.0000     0.0000E+00    0.0000E+00    1.000000E+10  0.02000  1.360E-05    0   0.5167   age181_m62            0.0000     6.2042E-06    22.9816  -1.0000   109.2209
 50      1.7056     4.0538E+00    3.9469E+00    1.800000E+10  0.02000  7.124E-06    0   0.5013   age213_m62            0.0000     6.9563E-06    25.2746  -1.0000   100.9141
 51      0.0000     0.0000E+00    0.0000E+00    1.000000E+06  0.05000  2.592E-02    0   0.9998   age020_m72            0.0000     6.1504E-06    19.1567   2.3482   121.0182
 52      0.3645     1.2740E-04    2.3697E-04    3.160000E+06  0.05000  4.845E-02    0   0.9577   age045_m72            0.0000     6.1642E-06    19.1460   2.2144   121.7916
 53      0.0000     0.0000E+00    0.0000E+00    5.010000E+06  0.05000  3.072E-02    0   0.9147   age055_m72            0.0000     6.2664E-06    19.4958   1.7663   126.4357
 54      0.0000     0.0000E+00    0.0000E+00    6.610000E+06  0.05000  1.455E-02    0   0.8877   age061_m72            0.0000     7.0212E-06    21.9358   1.0253   135.7694
 55      0.0000     0.0000E+00    0.0000E+00    1.000000E+07  0.05000  9.074E-03    0   0.8524   age070_m72            0.0000     6.3529E-06    19.7552   1.9454   125.8850
 56      0.0000     0.0000E+00    0.0000E+00    2.512000E+07  0.05000  4.250E-03    0   0.7902   age090_m72            0.0000     6.4005E-06    19.8052   1.6924   126.1322
 57      0.0000     0.0000E+00    0.0000E+00    4.000000E+07  0.05000  3.087E-03    0   0.7618   age104_m72            0.0000     6.4655E-06    20.0150   1.4854   127.3313
 58      0.0000     0.0000E+00    0.0000E+00    1.015200E+08  0.05000  1.700E-03    0   0.7096   age116_m72            0.0000     6.3773E-06    19.7129   1.2647   128.6902
 59      0.7492     1.7181E-02    2.2134E-02    2.861200E+08  0.05000  7.384E-04    0   0.6633   age125_m72            0.0000     6.1434E-06    19.3821   0.7839   131.8001
 60      3.7090     1.6445E-01    2.0352E-01    5.088000E+08  0.05000  3.819E-04    0   0.6372   age130_m72            0.0000     5.8254E-06    19.0468   0.2870   133.8621
 61      3.5953     3.6323E-01    4.3104E-01    9.047900E+08  0.05000  1.676E-04    0   0.6110   age135_m72            0.0000     5.4384E-06    18.6338  -0.4540   133.4341
 62      9.0298     1.7302E+00    1.9739E+00    1.434000E+09  0.05000  8.837E-05    0   0.5874   age139_m72            0.0000     5.3959E-06    18.5122  -0.9160   132.9983
 63     48.6154     1.9447E+01    2.1144E+01    2.500000E+09  0.05000  4.233E-05    0   0.5598   age150_m72            0.0000     5.4283E-06    19.7527  -1.0000   123.3942
 64      1.0000     1.1799E+00    1.2029E+00    6.250000E+09  0.05000  1.435E-05    0   0.5249   age166_m72            0.0000     6.5227E-06    24.1137  -1.0000   105.3935
 65      6.9170     1.7983E+01    1.7589E+01    1.300000E+10  0.05000  6.513E-06    0   0.5036   age193_m72            0.0000     7.8015E-06    27.3260  -1.0000    96.4249
 66     10.4335     3.9025E+01    3.7481E+01    1.800000E+10  0.05000  4.527E-06    0   0.4945   age213_m72            0.0000     8.7231E-06    29.1084  -1.0000    90.5682


## Synthesis Results - Average & Chains ##

# j      x_j: min, <> & last-chain-values for 1 ...  7 chains
  1      0.0000      5.9528      3.2286      6.4869      6.4748      4.4923      5.8912      5.8112      4.6670
  2      0.0000      0.4916      0.0000      0.0000      0.1984      0.0000      0.0000      0.2861      1.3154
  3      0.0000      0.6857      1.6150      0.0000      3.3298      2.2796      0.0000      0.0000      2.9612
  4      0.1734      0.7771      4.9731      2.7857      2.7754      1.3110      0.7437      2.8891      0.0000
  5      0.0000      0.7920      0.8118      0.3848      0.0000      0.0000      0.1951      0.0000      0.8973
  6      0.0000      0.8829      0.0000      1.3890      0.6021      2.0422      1.1524      0.6565      0.0000
  7      0.1737      1.0927      1.5695      2.8414      1.1958      1.7569      0.9905      1.2748      1.1211
  8      0.0000      1.0416      0.7733      1.3369      2.7150      1.4876      4.0645      3.2645      0.3285
  9      0.0000      0.8543      0.2698      2.6349      2.6833      0.8805      0.0000      1.2712      0.0000
 10      0.0000      0.5032      3.0315      0.0000      0.0000      0.3549      0.0000      0.2313      2.7826
 11      2.5604      0.9562      0.4724      0.0000      1.2224      0.0000      5.2937      3.5473      2.4980
 12      0.0000      1.0019      0.0000      2.4414      1.3101      0.4828      2.7731      4.3307      0.0000
 13      0.0000      0.7543      0.0000      3.0703      4.0429      0.9739      0.4070      0.0000      2.0429
 14      0.0000      1.1291      0.0000      2.4486      1.2815      4.8018      2.1738      0.0000      1.7322
 15      0.0000      0.8301      2.3254      0.0000      1.2263      0.0524      0.0000      1.9313      0.0096
 16      0.0000      1.1129      1.1055      0.7907      0.0000      0.7950      0.0000      0.0000      4.6023
 17      0.0000      0.6820      0.0000      1.3945      0.1000      0.8119      1.3275      0.0000      4.1802
 18      0.5858      4.9417      2.8607      2.6711     10.0689      1.3997      8.4575      4.5350      3.0462
 19      0.0000      0.7343      1.3339      0.4583      0.0000      0.0000      1.9782      0.0000      1.5193
 20      0.0000      0.9991      2.2399      0.0000      0.0000      4.6448      0.1905      4.2803      2.0919
 21      0.0000      0.8665      1.7183      4.8038      1.7223      0.8824      0.0000      1.1968      4.3333
 22      0.0000      1.1182      2.2010      3.4859      1.2915      2.4620      1.4933      0.0637      2.8882
 23      0.0000      0.7649      1.2657      0.1418      0.0000      1.1916      0.2175      2.1225      2.7052
 24      0.0000      1.0079      2.7115      0.0000      2.3754      0.0000      0.0000      0.3361      1.6815
 25      0.0000      0.8117      3.0993      0.9604      0.0000      1.1141      0.0000      0.0788      2.4943
 26      0.0000      1.2415      1.4089      2.8818      0.5776      4.7139      0.8941      1.0248      1.1146
 27      3.4522      0.9020      0.9473      1.4393      0.6457      0.9386      1.7161      3.2126      0.0000
 28      0.0000      0.9275      0.4180      0.0000      3.6913      4.8111      0.0000      0.0000      5.6828
 29      0.0000      0.7077      0.9959      0.1335      0.2272      0.0000      0.0000      1.5474      2.8588
 30      0.0044      0.5865      0.0000      0.0000      1.3872      0.8866      1.3804      1.2327      0.1241
 31      0.0000      1.3737      6.6250      3.3912      1.7934      4.5269      0.0000      0.1991      0.1835
 32      0.0000      1.1701      3.2548      0.4830      0.7015      1.5582      0.3825      1.6711      0.3244
 33      0.0000      0.7896      1.2156      0.0000      0.0000      0.8362      0.4967      3.9289      0.0000
 34      7.9711      0.7369      0.0180      0.0000      0.0000      0.0000      2.0834      0.0000      2.6206
 35      0.0000      0.6239      0.0000      0.0000      3.4953      1.7404      4.9167      0.0000      0.0000
 36      0.0000      0.9578      1.4341      0.0588      1.9520      1.0190      0.0180      4.1566      2.1509
 37      0.0000      0.6538      0.8254      0.4187      4.4719      1.5116      0.9205      0.8307      0.0000
 38      0.1086      0.9284      0.0000      0.4471      0.0000      1.5753      1.6223      1.0162      0.0000
 39      0.0000      0.7183      0.9740      1.6658      1.6647      0.0000      1.7518      0.0000      1.9847
 40      2.2038      0.7265      0.0000      1.2236      0.0000      0.0023      0.8382      1.9354      2.5129
 41     10.1573      1.0121      0.1287      3.3058      2.0991      1.9740      1.7011      0.0000      3.2002
 42      0.0000      0.6864      0.8636      2.4473      1.0352      2.7261      1.1306      0.7973      1.0711
 43      0.0000      0.7498      0.0317      2.3581      0.0000      0.3442      0.0000      0.0000      1.2274
 44      0.0000     11.1820      9.7275      5.9262      7.6765      8.3311      2.6488      7.9803      6.3380
 45      0.0000      0.9111      0.3928      2.1302      0.0000      3.7501      1.2391      0.7911      0.1470
 46     16.4899      1.0232      1.6663      0.0000      2.0153      0.0000      3.2748      1.9607      1.5365
