###################################################################
## OUTPUT of StarlightChains_v04.for    [Cid@UFSC - 01/Apr/2007] ##
###################################################################

## Some input info
KUG0210-078._41_48.txt                   [arq_obs]
Base.CB07.vall.4m                        [arq_base]
Masks.EmLines.NEW.gm                     [arq_masks]
StCv04.C11.config                        [arq_config]
   66                                    [N_base]
    0                                    [N_YAV_components = # of components with extra extinction!]
    0                                    [i_FitPowerLaw (1/0 = Yes/No)]
-9.99                                    [alpha_PowerLaw]
CCM                                      [red_law_option]
 1.458241                                [q_norm = A(l_norm)/A(V)]

## (Re)Sampling Parameters
 3741.00                                 [l_ini (A)]
 7218.00                                 [l_fin (A)]
    1.00                                 [dl    (A)]     (OBS: dl_cushion =    50.00 A)

## Normalization info
 4020.00                                 [l_norm (A) - for base]
 4010.00                                 [llow_norm (A) - window for f_obs]
 4060.00                                 [lupp_norm (A) - window for f_obs]
4.891268E-18                             [fobs_norm (in input units)]

## S/N
 3691.00                                 [llow_SN (A) - window for S/N]
 7268.00                                 [lupp_SN (A) - window for S/N]
   3.562                                 [S/N in S/N window]
   2.390                                 [S/N in norm. window]
   0.009                                 [S/N_err in S/N window]
   0.006                                 [S/N_err in norm. window]
  1.0000                                 [fscale_chi2]

## etc...
    -2007760                             [idum_orig]
  2405                                   [NOl_eff]
  2119                                   [Nl_eff]
   286    NSIGMA                         [Ntot_cliped & clip_method]
 10085670                                [Nglobal_steps]
   7                                     [N_chains]
   7                                     [NEX0s_base = N_base in EX0s-fits]
 0   0   1      286   2.0   3.690E+03    [Clip-Bug, RC-Crash & Burn-In warning-flags, n_censored_weights, wei_nsig_threshold & wei_limit]
    92     90.494     89.037      1.457  [idt_all, wdt_TotTime, wdt_UsrTime & wdt_SysTime (sec)]

## Synthesis Results - Best model ##

 7.94927E-06                             [chi2/Nl_eff]
    16.05782                             [adev (%)]

   130.00000                             [sum-of-x (%)]
 4.15318E-16                             [Flux_tot (units of input spectrum!)]
 3.79632E-14                             [Mini_tot (???)]
 3.79632E-14                             [Mcor_tot (???)]

-466.49                                  [v0_min  (km/s)]
 169.21                                  [vd_min  (km/s)]
 3.1117                                  [AV_min  (mag)]
 0.0000                                  [YAV_min (mag)]

# j     x_j(%)      Mini_j(%)     Mcor_j(%)     age_j(yr)     Z_j      (L/M)_j    YAV?  Mstars   component_j        a/Fe...       SSP_chi2r SSP_adev(%)   SSP_AV   SSP_x(%)
  1    130.0000     1.0000E+02    1.0000E+02    1.000000E+06  0.00400  1.094E-02    0   1.0000   age020_m42            0.0000     6.3883E-06    14.3220   2.5995   165.2536
  2      0.0000     0.0000E+00    0.0000E+00    3.160000E+06  0.00400  4.007E-02    0   0.9999   age045_m42            0.0000     6.4909E-06    14.5942   1.9408   170.8128
  3      0.0000     0.0000E+00    0.0000E+00    5.010000E+06  0.00400  2.539E-02    0   0.9488   age055_m42            0.0000     6.4197E-06    14.4595   2.2299   169.3259
  4      0.0000     0.0000E+00    0.0000E+00    6.610000E+06  0.00400  2.620E-02    0   0.9220   age061_m42            0.0000     6.4953E-06    14.7012   1.8750   170.9565
  5      0.0000     0.0000E+00    0.0000E+00    1.000000E+07  0.00400  1.322E-02    0   0.8862   age070_m42            0.0000     6.6700E-06    15.3905   1.5859   175.8957
  6      0.0000     0.0000E+00    0.0000E+00    1.445000E+07  0.00400  7.883E-03    0   0.8571   age078_m42            0.0000     6.6005E-06    15.1816   1.8951   172.8513
  7      0.0000     0.0000E+00    0.0000E+00    2.512000E+07  0.00400  5.251E-03    0   0.8174   age090_m42            0.0000     6.7296E-06    15.5573   1.4584   176.6432
  8      0.0000     0.0000E+00    0.0000E+00    4.000000E+07  0.00400  3.649E-03    0   0.7851   age104_m42            0.0000     6.7335E-06    15.5414   1.2419   177.0237
  9      0.0000     0.0000E+00    0.0000E+00    5.500000E+07  0.00400  3.098E-03    0   0.7629   age110_m42            0.0000     6.6459E-06    15.3028   1.4132   175.5126
 10      0.0000     0.0000E+00    0.0000E+00    1.015200E+08  0.00400  2.228E-03    0   0.7207   age116_m42            0.0000     6.6057E-06    15.1917   1.4465   174.7647
 11      0.0000     0.0000E+00    0.0000E+00    2.861200E+08  0.00400  1.093E-03    0   0.6648   age125_m42            0.0000     6.7239E-06    16.0670   0.9130   177.9835
 12      0.0000     0.0000E+00    0.0000E+00    5.088000E+08  0.00400  6.597E-04    0   0.6365   age130_m42            0.0000     6.6353E-06    15.7333   0.9203   177.7731
 13      0.0000     0.0000E+00    0.0000E+00    1.434000E+09  0.00400  2.132E-04    0   0.5798   age139_m42            0.0000     6.5951E-06    15.7173  -0.0139   178.1839
 14      0.0000     0.0000E+00    0.0000E+00    4.250000E+09  0.00400  5.895E-05    0   0.5377   age158_m42            0.0000     6.4191E-06    15.0030  -0.4655   171.5477
 15      0.0000     0.0000E+00    0.0000E+00    7.500000E+09  0.00400  3.510E-05    0   0.5212   age171_m42            0.0000     6.3945E-06    14.9794  -0.6374   169.4098
 16      0.0000     0.0000E+00    0.0000E+00    1.300000E+10  0.00400  2.005E-05    0   0.5034   age193_m42            0.0000     6.3944E-06    14.9902  -0.7910   167.8543
 17      0.0000     0.0000E+00    0.0000E+00    1.800000E+10  0.00400  1.525E-05    0   0.4967   age213_m42            0.0000     6.3862E-06    15.0213  -0.8166   167.3064
 18      0.0000     0.0000E+00    0.0000E+00    1.000000E+06  0.00800  1.238E-02    0   1.0000   age020_m52            0.0000     6.3798E-06    14.3145   2.5949   165.6470
 19      0.0000     0.0000E+00    0.0000E+00    3.160000E+06  0.00800  3.074E-02    0   0.9966   age045_m52            0.0000     6.3717E-06    14.2879   2.5204   166.8175
 20      0.0000     0.0000E+00    0.0000E+00    5.010000E+06  0.00800  2.668E-02    0   0.9443   age055_m52            0.0000     6.4068E-06    14.4434   2.3030   168.6417
 21      0.0000     0.0000E+00    0.0000E+00    6.610000E+06  0.00800  2.136E-02    0   0.9177   age061_m52            0.0000     6.5832E-06    15.1828   1.0860   177.7817
 22      0.0000     0.0000E+00    0.0000E+00    1.000000E+07  0.00800  1.215E-02    0   0.8827   age070_m52            0.0000     6.7038E-06    15.6901   1.7562   176.6421
 23      0.0000     0.0000E+00    0.0000E+00    1.445000E+07  0.00800  8.717E-03    0   0.8552   age078_m52            0.0000     6.6088E-06    15.2680   1.8654   174.8836
 24      0.0000     0.0000E+00    0.0000E+00    2.512000E+07  0.00800  5.592E-03    0   0.8162   age090_m52            0.0000     6.7335E-06    15.8253   1.5329   178.2828
 25      0.0000     0.0000E+00    0.0000E+00    4.000000E+07  0.00800  3.896E-03    0   0.7841   age104_m52            0.0000     6.6971E-06    15.7930   1.4620   178.2065
 26      0.0000     0.0000E+00    0.0000E+00    1.015200E+08  0.00800  2.148E-03    0   0.7226   age116_m52            0.0000     6.6327E-06    15.4421   1.4155   176.2867
 27      0.0000     0.0000E+00    0.0000E+00    2.861200E+08  0.00800  9.925E-04    0   0.6683   age125_m52            0.0000     6.6225E-06    15.7827   0.9875   179.5568
 28      0.0000     0.0000E+00    0.0000E+00    9.047900E+08  0.00800  3.141E-04    0   0.6138   age135_m52            0.0000     6.4572E-06    15.7491   0.2449   182.1006
 29      0.0000     0.0000E+00    0.0000E+00    1.434000E+09  0.00800  1.719E-04    0   0.5853   age139_m52            0.0000     6.4381E-06    15.8791  -0.3360   178.8751
 30      0.0000     0.0000E+00    0.0000E+00    2.500000E+09  0.00800  7.872E-05    0   0.5600   age150_m52            0.0000     6.3162E-06    15.0972  -0.6068   173.5452
 31      0.0000     0.0000E+00    0.0000E+00    4.250000E+09  0.00800  4.336E-05    0   0.5426   age158_m52            0.0000     6.3044E-06    15.0048  -0.6250   172.0169
 32      0.0000     0.0000E+00    0.0000E+00    6.250000E+09  0.00800  3.159E-05    0   0.5319   age166_m52            0.0000     6.3110E-06    14.9580  -0.8081   170.6828
 33      0.0000     0.0000E+00    0.0000E+00    1.300000E+10  0.00800  1.361E-05    0   0.5073   age193_m52            0.0000     6.7030E-06    16.3763  -1.0000   153.1767
 34      0.0000     0.0000E+00    0.0000E+00    1.800000E+10  0.00800  9.886E-06    0   0.4990   age213_m52            0.0000     7.0021E-06    16.9537  -1.0000   146.2337
 35      0.0000     0.0000E+00    0.0000E+00    1.000000E+06  0.02000  1.544E-02    0   1.0000   age020_m62            0.0000     6.3761E-06    14.3142   2.5890   166.2019
 36      0.0000     0.0000E+00    0.0000E+00    3.160000E+06  0.02000  3.762E-02    0   0.9858   age045_m62            0.0000     6.3648E-06    14.3111   2.5278   167.7017
 37      0.0000     0.0000E+00    0.0000E+00    5.010000E+06  0.02000  3.296E-02    0   0.9342   age055_m62            0.0000     6.4074E-06    14.5036   2.2071   170.4132
 38      0.0000     0.0000E+00    0.0000E+00    8.710000E+06  0.02000  1.154E-02    0   0.8861   age067_m62            0.0000     7.2419E-06    17.8682   1.1834   185.8346
 39      0.0000     0.0000E+00    0.0000E+00    1.445000E+07  0.02000  7.663E-03    0   0.8472   age078_m62            0.0000     6.8358E-06    16.6126   1.4141   180.8398
 40      0.0000     0.0000E+00    0.0000E+00    2.512000E+07  0.02000  4.532E-03    0   0.8099   age090_m62            0.0000     6.8820E-06    16.8866   1.4137   180.0460
 41      0.0000     0.0000E+00    0.0000E+00    5.500000E+07  0.02000  2.733E-03    0   0.7595   age110_m62            0.0000     6.6489E-06    15.8027   1.4443   177.4366
 42      0.0000     0.0000E+00    0.0000E+00    1.609000E+08  0.02000  1.369E-03    0   0.6985   age120_m62            0.0000     6.6167E-06    15.5839   1.3164   179.1455
 43      0.0000     0.0000E+00    0.0000E+00    2.861200E+08  0.02000  9.013E-04    0   0.6714   age125_m62            0.0000     6.6160E-06    15.5606   1.0925   181.8881
 44      0.0000     0.0000E+00    0.0000E+00    5.088000E+08  0.02000  5.028E-04    0   0.6449   age130_m62            0.0000     6.4839E-06    15.2967   0.7528   183.1397
 45      0.0000     0.0000E+00    0.0000E+00    9.047900E+08  0.02000  2.428E-04    0   0.6179   age135_m62            0.0000     6.3295E-06    15.2470   0.1909   180.4326
 46      0.0000     0.0000E+00    0.0000E+00    1.434000E+09  0.02000  1.263E-04    0   0.5908   age139_m62            0.0000     6.2852E-06    15.1091  -0.2550   177.8047
 47      0.0000     0.0000E+00    0.0000E+00    2.500000E+09  0.02000  5.985E-05    0   0.5673   age150_m62            0.0000     6.2298E-06    14.8219  -0.6207   175.0500
 48      0.0000     0.0000E+00    0.0000E+00    4.250000E+09  0.02000  3.271E-05    0   0.5468   age158_m62            0.0000     6.2932E-06    14.7345  -0.9041   171.8745
 49      0.0000     0.0000E+00    0.0000E+00    1.000000E+10  0.02000  1.360E-05    0   0.5167   age181_m62            0.0000     6.6482E-06    15.8551  -1.0000   155.9894
 50      0.0000     0.0000E+00    0.0000E+00    1.800000E+10  0.02000  7.124E-06    0   0.5013   age213_m62            0.0000     7.3268E-06    17.1848  -1.0000   142.8963
 51      0.0000     0.0000E+00    0.0000E+00    1.000000E+06  0.05000  2.592E-02    0   0.9998   age020_m72            0.0000     6.3728E-06    14.3168   2.5743   166.6847
 52      0.0000     0.0000E+00    0.0000E+00    3.160000E+06  0.05000  4.845E-02    0   0.9577   age045_m72            0.0000     6.3512E-06    14.3414   2.4323   168.3700
 53      0.0000     0.0000E+00    0.0000E+00    5.010000E+06  0.05000  3.072E-02    0   0.9147   age055_m72            0.0000     6.5860E-06    16.0672   1.9911   174.8386
 54      0.0000     0.0000E+00    0.0000E+00    6.610000E+06  0.05000  1.455E-02    0   0.8877   age061_m72            0.0000     7.7190E-06    20.6579   1.2652   188.1627
 55      0.0000     0.0000E+00    0.0000E+00    1.000000E+07  0.05000  9.074E-03    0   0.8524   age070_m72            0.0000     6.6876E-06    16.9124   2.1952   173.8454
 56      0.0000     0.0000E+00    0.0000E+00    2.512000E+07  0.05000  4.250E-03    0   0.7902   age090_m72            0.0000     6.6926E-06    16.7158   1.9129   175.0838
 57      0.0000     0.0000E+00    0.0000E+00    4.000000E+07  0.05000  3.087E-03    0   0.7618   age104_m72            0.0000     6.7665E-06    17.1103   1.7014   176.9638
 58      0.0000     0.0000E+00    0.0000E+00    1.015200E+08  0.05000  1.700E-03    0   0.7096   age116_m72            0.0000     6.6941E-06    16.0029   1.4561   179.0552
 59      0.0000     0.0000E+00    0.0000E+00    2.861200E+08  0.05000  7.384E-04    0   0.6633   age125_m72            0.0000     6.5064E-06    15.4725   0.9847   182.3675
 60      0.0000     0.0000E+00    0.0000E+00    5.088000E+08  0.05000  3.819E-04    0   0.6372   age130_m72            0.0000     6.3214E-06    15.1014   0.5162   183.0842
 61      0.0000     0.0000E+00    0.0000E+00    9.047900E+08  0.05000  1.676E-04    0   0.6110   age135_m72            0.0000     6.1851E-06    14.6896  -0.1703   178.7882
 62      0.0000     0.0000E+00    0.0000E+00    1.434000E+09  0.05000  8.837E-05    0   0.5874   age139_m72            0.0000     6.2628E-06    15.0142  -0.6030   176.6261
 63      0.0000     0.0000E+00    0.0000E+00    2.500000E+09  0.05000  4.233E-05    0   0.5598   age150_m72            0.0000     6.2718E-06    14.7861  -0.8998   173.1773
 64      0.0000     0.0000E+00    0.0000E+00    6.250000E+09  0.05000  1.435E-05    0   0.5249   age166_m72            0.0000     6.9048E-06    16.5874  -1.0000   150.0612
 65      0.0000     0.0000E+00    0.0000E+00    1.300000E+10  0.05000  6.513E-06    0   0.5036   age193_m72            0.0000     8.1707E-06    18.5465  -1.0000   135.6218
 66      0.0000     0.0000E+00    0.0000E+00    1.800000E+10  0.05000  4.527E-06    0   0.4945   age213_m72            0.0000     9.1457E-06    19.8119  -1.0000   126.7365


## Synthesis Results - Average & Chains ##

# j      x_j: min, <> & last-chain-values for 1 ...  7 chains
  1    130.0000     97.1387    103.4347    112.4637    105.4375    107.2698     98.0403    101.3952    105.1633
  2      0.0000      0.1761      0.0097      0.0650      0.0360      0.0413      0.3046      0.1208      0.0000
  3      0.0000      0.1976      0.0355      0.0000      0.0438      0.0689      0.5268      0.0920      0.0038
  4      0.0000      0.1939      0.0043      0.0239      0.0365      0.0518      0.1814      0.0000      0.0000
  5      0.0000      0.1468      0.0170      0.0036      0.0000      0.0393      0.1400      0.1236      0.0754
  6      0.0000      0.2060      0.0000      0.0000      0.0631      0.0052      0.0000      0.2695      0.0000
  7      0.0000      0.1982      0.0143      0.0936      0.0186      0.0032      0.2106      0.1176      0.0440
  8      0.0000      0.2045      0.0091      0.0000      0.0595      0.0000      0.0000      0.1177      0.0142
  9      0.0000      0.1733      0.0283      0.0120      0.0058      0.0586      0.1560      0.1130      0.0462
 10      0.0000      0.2463      0.0111      0.0137      0.0209      0.0225      0.3446      0.2974      0.0282
 11      0.0000      0.2091      0.0000      0.0064      0.0055      0.0785      0.0550      0.3010      0.0156
 12      0.0000      0.1598      0.0000      0.0000      0.0242      0.0204      0.0789      0.1147      0.0109
 13      0.0000      0.2104      0.0000      0.0137      0.0000      0.0000      0.0000      0.0103      0.0000
 14      0.0000      0.1479      0.0000      0.0003      0.0379      0.0363      0.2559      0.1016      0.1202
 15      0.0000      0.1873      0.0002      0.0140      0.0215      0.0108      0.0000      0.0000      0.0000
 16      0.0000      0.1948      0.0000      0.0056      0.0031      0.0505      0.1860      0.0566      0.0000
 17      0.0000      0.7189      0.0000      0.6201      0.6041      0.5037      0.5027      0.6570      0.6273
 18      0.0000     14.6103     19.2123      8.9449     16.0625     14.9714     14.7689     15.0032     17.0209
 19      0.0000      0.1567      0.0211      0.0157      0.0785      0.0277      0.0899      0.2440      0.0227
 20      0.0000      0.1924      0.0253      0.0612      0.0230      0.1105      0.3282      0.0000      0.0000
 21      0.0000      0.1835      0.0000      0.0379      0.0707      0.0100      0.1194      0.1982      0.0207
 22      0.0000      0.1859      0.0059      0.0000      0.0000      0.0000      0.6059      0.2011      0.1267
 23      0.0000      0.1929      0.0000      0.0233      0.0151      0.0135      0.8098      0.0638      0.0000
 24      0.0000      0.1843      0.0233      0.0864      0.0325      0.0444      0.2884      0.0000      0.1186
 25      0.0000      0.1711      0.0000      0.0000      0.0273      0.0174      0.0411      0.0682      0.0000
 26      0.0000      0.1363      0.0042      0.0000      0.0605      0.0417      0.8102      0.1224      0.0042
 27      0.0000      0.1857      0.0000      0.0431      0.0265      0.0052      0.1615      0.1832      0.0086
 28      0.0000      0.1528      0.0079      0.0265      0.0181      0.0515      0.2839      0.0000      0.0528
 29      0.0000      0.2196      0.0193      0.0069      0.0073      0.0133      0.0000      0.3074      0.0182
 30      0.0000      0.2170      0.0019      0.0000      0.0286      0.0011      0.3988      0.4599      0.0075
 31      0.0000      0.2399      0.0194      0.0104      0.0000      0.0372      0.5686      0.8143      0.0066
 32      0.0000      0.1811      0.0310      0.0069      0.0074      0.0200      0.2636      0.1184      0.0000
 33      0.0000      1.1151      0.6398      1.6157      1.4405      1.5154      1.0162      0.7118      1.3649
 34      0.0000      2.0272      2.6576      2.3381      2.3758      2.3451      0.1874      0.9711      2.3430
 35      0.0000      0.1548      0.0699      0.0585      0.0232      0.0095      0.5300      0.0000      0.0271
 36      0.0000      0.2047      0.0619      0.0721      0.0195      0.0039      0.0000      0.0726      0.0555
 37      0.0000      0.2257      0.0086      0.1495      0.1629      0.0338      0.0000      0.0697      0.0596
 38      0.0000      0.1917      0.0102      0.0000      0.0137      0.0133      0.3667      0.1428      0.0385
 39      0.0000      0.2676      0.0000      0.0175      0.0377      0.0176      0.0887      0.0484      0.0102
 40      0.0000      0.1747      0.0000      0.0000      0.0000      0.0232      0.0000      0.0000      0.0572
 41      0.0000      0.1573      0.0232      0.0374      0.0103      0.0087      0.4371      0.0000      0.0235
 42      0.0000      0.1976      0.0304      0.0503      0.0715      0.0000      0.2150      0.1481      0.0175
 43      0.0000      0.1670      0.0105      0.0000      0.0033      0.0687      0.6600      0.0000      0.0356
 44      0.0000      0.1616      0.0000      0.0596      0.0155      0.0102      0.3887      0.0439      0.0000
 45      0.0000      0.1132      0.0328      0.0577      0.0077      0.0000      0.0000      0.4024      0.0077
 46      0.0000      0.1884      0.0000      0.0360      0.0554      0.0000      0.2288      0.1115      0.0000
