###################################################################
## OUTPUT of StarlightChains_v04.for    [Cid@UFSC - 01/Apr/2007] ##
###################################################################

## Some input info
KUG0210-078._29_36.txt                   [arq_obs]
Base.CB07.vall.4m                        [arq_base]
Masks.EmLines.NEW.gm                     [arq_masks]
StCv04.C11.config                        [arq_config]
   66                                    [N_base]
    0                                    [N_YAV_components = # of components with extra extinction!]
    0                                    [i_FitPowerLaw (1/0 = Yes/No)]
-9.99                                    [alpha_PowerLaw]
CCM                                      [red_law_option]
 1.458241                                [q_norm = A(l_norm)/A(V)]

## (Re)Sampling Parameters
 3741.00                                 [l_ini (A)]
 7218.00                                 [l_fin (A)]
    1.00                                 [dl    (A)]     (OBS: dl_cushion =    50.00 A)

## Normalization info
 4020.00                                 [l_norm (A) - for base]
 4010.00                                 [llow_norm (A) - window for f_obs]
 4060.00                                 [lupp_norm (A) - window for f_obs]
1.829474E-16                             [fobs_norm (in input units)]

## S/N
 3691.00                                 [llow_SN (A) - window for S/N]
 7268.00                                 [lupp_SN (A) - window for S/N]
  11.581                                 [S/N in S/N window]
  12.493                                 [S/N in norm. window]
   0.310                                 [S/N_err in S/N window]
   0.334                                 [S/N_err in norm. window]
  1.0000                                 [fscale_chi2]

## etc...
    -2007412                             [idum_orig]
  2432                                   [NOl_eff]
  2376                                   [Nl_eff]
    56    NSIGMA                         [Ntot_cliped & clip_method]
 16184910                                [Nglobal_steps]
   7                                     [N_chains]
  48                                     [NEX0s_base = N_base in EX0s-fits]
 0   0   1       56   2.0   5.818E+04    [Clip-Bug, RC-Crash & Burn-In warning-flags, n_censored_weights, wei_nsig_threshold & wei_limit]
   126    126.194    125.728      0.466  [idt_all, wdt_TotTime, wdt_UsrTime & wdt_SysTime (sec)]

## Synthesis Results - Best model ##

 1.25591E-03                             [chi2/Nl_eff]
     4.68765                             [adev (%)]

    98.98331                             [sum-of-x (%)]
 1.03960E-15                             [Flux_tot (units of input spectrum!)]
 3.42286E-12                             [Mini_tot (???)]
 1.97689E-12                             [Mcor_tot (???)]

 294.69                                  [v0_min  (km/s)]
 133.81                                  [vd_min  (km/s)]
 1.3012                                  [AV_min  (mag)]
 0.0000                                  [YAV_min (mag)]

# j     x_j(%)      Mini_j(%)     Mcor_j(%)     age_j(yr)     Z_j      (L/M)_j    YAV?  Mstars   component_j        a/Fe...       SSP_chi2r SSP_adev(%)   SSP_AV   SSP_x(%)
  1     16.3040     4.5729E-01    7.9177E-01    1.000000E+06  0.00400  1.094E-02    0   1.0000   age020_m42            0.0000     1.5807E-03     6.7571   2.9837    88.0762
  2      6.3729     4.8801E-02    8.4487E-02    3.160000E+06  0.00400  4.007E-02    0   0.9999   age045_m42            0.0000     1.3999E-03     6.0563   2.2373    94.5639
  3      0.3571     4.3153E-03    7.0891E-03    5.010000E+06  0.00400  2.539E-02    0   0.9488   age055_m42            0.0000     1.4333E-03     6.2478   2.5707    91.9327
  4      0.0000     0.0000E+00    0.0000E+00    6.610000E+06  0.00400  2.620E-02    0   0.9220   age061_m42            0.0000     1.4653E-03     5.8792   2.1701    94.5634
  5      0.0000     0.0000E+00    0.0000E+00    1.000000E+07  0.00400  1.322E-02    0   0.8862   age070_m42            0.0000     1.4023E-03     4.7272   1.9349    95.0973
  6      0.0000     0.0000E+00    0.0000E+00    1.445000E+07  0.00400  7.883E-03    0   0.8571   age078_m42            0.0000     1.4067E-03     5.0279   2.2610    92.7566
  7      0.0000     0.0000E+00    0.0000E+00    2.512000E+07  0.00400  5.251E-03    0   0.8174   age090_m42            0.0000     1.3956E-03     4.5176   1.8115    95.4242
  8      0.3401     2.8596E-02    3.8872E-02    4.000000E+07  0.00400  3.649E-03    0   0.7851   age104_m42            0.0000     1.4022E-03     4.5196   1.5758    96.4990
  9      0.0000     0.0000E+00    0.0000E+00    5.500000E+07  0.00400  3.098E-03    0   0.7629   age110_m42            0.0000     1.5286E-03     4.9093   1.7051    97.2004
 10      0.0000     0.0000E+00    0.0000E+00    1.015200E+08  0.00400  2.228E-03    0   0.7207   age116_m42            0.0000     1.7195E-03     5.2634   1.7110    97.7999
 11      0.2566     7.2035E-02    8.2917E-02    2.861200E+08  0.00400  1.093E-03    0   0.6648   age125_m42            0.0000     1.9037E-03     5.2681   1.1492   100.3305
 12      0.5098     2.3713E-01    2.6133E-01    5.088000E+08  0.00400  6.597E-04    0   0.6365   age130_m42            0.0000     2.2217E-03     5.8357   1.1140   101.9996
 13      4.9015     7.0544E+00    7.0818E+00    1.434000E+09  0.00400  2.132E-04    0   0.5798   age139_m42            0.0000     2.1468E-03     6.1218   0.1196   105.0615
 14      0.0000     0.0000E+00    0.0000E+00    4.250000E+09  0.00400  5.895E-05    0   0.5377   age158_m42            0.0000     2.1622E-03     7.1815  -0.3619   102.6154
 15      0.8918     7.7961E+00    7.0354E+00    7.500000E+09  0.00400  3.510E-05    0   0.5212   age171_m42            0.0000     2.4647E-03     7.8596  -0.5693   102.5751
 16      0.0000     0.0000E+00    0.0000E+00    1.300000E+10  0.00400  2.005E-05    0   0.5034   age193_m42            0.0000     2.8045E-03     8.5215  -0.7511   102.5288
 17      0.0000     0.0000E+00    0.0000E+00    1.800000E+10  0.00400  1.525E-05    0   0.4967   age213_m42            0.0000     2.7314E-03     8.3572  -0.7690   101.9317
 18     15.4190     3.8216E-01    6.6169E-01    1.000000E+06  0.00800  1.238E-02    0   1.0000   age020_m52            0.0000     1.5883E-03     6.7710   2.9800    88.2506
 19      2.5777     2.5730E-02    4.4398E-02    3.160000E+06  0.00800  3.074E-02    0   0.9966   age045_m52            0.0000     1.5703E-03     6.7289   2.9024    89.0696
 20      0.4085     4.6982E-03    7.6814E-03    5.010000E+06  0.00800  2.668E-02    0   0.9443   age055_m52            0.0000     1.4614E-03     6.2733   2.6584    90.9979
 21      0.2821     4.0527E-03    6.4395E-03    6.610000E+06  0.00800  2.136E-02    0   0.9177   age061_m52            0.0000     1.3155E-03     4.8256   1.4287    96.5807
 22      0.0000     0.0000E+00    0.0000E+00    1.000000E+07  0.00800  1.215E-02    0   0.8827   age070_m52            0.0000     1.4131E-03     4.7320   2.1272    94.4538
 23      0.5976     2.1036E-02    3.1149E-02    1.445000E+07  0.00800  8.717E-03    0   0.8552   age078_m52            0.0000     1.3963E-03     4.8963   2.2268    94.0320
 24      0.0000     0.0000E+00    0.0000E+00    2.512000E+07  0.00800  5.592E-03    0   0.8162   age090_m52            0.0000     1.4079E-03     4.5212   1.8759    96.5086
 25      0.0000     0.0000E+00    0.0000E+00    4.000000E+07  0.00800  3.896E-03    0   0.7841   age104_m52            0.0000     1.4433E-03     4.6485   1.7731    97.6791
 26      0.0000     0.0000E+00    0.0000E+00    1.015200E+08  0.00800  2.148E-03    0   0.7226   age116_m52            0.0000     1.5982E-03     5.0179   1.6868    98.3284
 27      0.0081     2.5029E-03    2.8962E-03    2.861200E+08  0.00800  9.925E-04    0   0.6683   age125_m52            0.0000     2.2239E-03     5.7806   1.1789   102.9553
 28      0.0000     0.0000E+00    0.0000E+00    9.047900E+08  0.00800  3.141E-04    0   0.6138   age135_m52            0.0000     2.7116E-03     7.1855   0.3266   109.1389
 29      0.0000     0.0000E+00    0.0000E+00    1.434000E+09  0.00800  1.719E-04    0   0.5853   age139_m52            0.0000     2.2517E-03     7.1502  -0.2640   107.5504
 30      0.6439     2.5100E+00    2.4337E+00    2.500000E+09  0.00800  7.872E-05    0   0.5600   age150_m52            0.0000     2.6435E-03     8.3631  -0.5724   106.1334
 31      0.0379     2.6789E-01    2.5167E-01    4.250000E+09  0.00800  4.336E-05    0   0.5426   age158_m52            0.0000     2.7411E-03     8.4494  -0.5886   105.1972
 32      0.0000     0.0000E+00    0.0000E+00    6.250000E+09  0.00800  3.159E-05    0   0.5319   age166_m52            0.0000     3.2761E-03     9.4228  -0.8192   106.1245
 33      0.0000     0.0000E+00    0.0000E+00    1.300000E+10  0.00800  1.361E-05    0   0.5073   age193_m52            0.0000     4.6982E-03     9.6997  -1.0000    99.4922
 34      0.0000     0.0000E+00    0.0000E+00    1.800000E+10  0.00800  9.886E-06    0   0.4990   age213_m52            0.0000     5.9646E-03    11.4265  -1.0000    96.5981
 35      7.6504     1.5204E-01    2.6324E-01    1.000000E+06  0.02000  1.544E-02    0   1.0000   age020_m62            0.0000     1.6163E-03     6.7992   2.9786    88.3990
 36      1.0283     8.3874E-03    1.4316E-02    3.160000E+06  0.02000  3.762E-02    0   0.9858   age045_m62            0.0000     1.6422E-03     6.8487   2.9165    89.1948
 37      0.2656     2.4724E-03    3.9992E-03    5.010000E+06  0.02000  3.296E-02    0   0.9342   age055_m62            0.0000     1.4707E-03     6.3388   2.5210    93.3324
 38      0.3041     8.0861E-03    1.2406E-02    8.710000E+06  0.02000  1.154E-02    0   0.8861   age067_m62            0.0000     1.9123E-03     6.7452   1.6622    94.3549
 39      0.4357     1.7448E-02    2.5594E-02    1.445000E+07  0.02000  7.663E-03    0   0.8472   age078_m62            0.0000     1.4563E-03     4.9879   1.7960    95.8596
 40      0.0000     0.0000E+00    0.0000E+00    2.512000E+07  0.02000  4.532E-03    0   0.8099   age090_m62            0.0000     1.4943E-03     5.1248   1.7915    95.4375
 41      0.0000     0.0000E+00    0.0000E+00    5.500000E+07  0.02000  2.733E-03    0   0.7595   age110_m62            0.0000     1.4521E-03     4.6795   1.7590    96.9334
 42      0.2356     5.2800E-02    6.3856E-02    1.609000E+08  0.02000  1.369E-03    0   0.6985   age120_m62            0.0000     1.9601E-03     5.2469   1.5631   100.6157
 43      0.3009     1.0245E-01    1.1910E-01    2.861200E+08  0.02000  9.013E-04    0   0.6714   age125_m62            0.0000     2.5067E-03     5.8936   1.2921   104.1442
 44      0.0658     4.0160E-02    4.4842E-02    5.088000E+08  0.02000  5.028E-04    0   0.6449   age130_m62            0.0000     2.9855E-03     7.3110   0.8683   108.4907
 45      0.0000     0.0000E+00    0.0000E+00    9.047900E+08  0.02000  2.428E-04    0   0.6179   age135_m62            0.0000     2.7042E-03     7.8094   0.2439   109.4003
 46      0.0000     0.0000E+00    0.0000E+00    1.434000E+09  0.02000  1.263E-04    0   0.5908   age139_m62            0.0000     2.6936E-03     8.1417  -0.2162   108.5272
 47      0.0000     0.0000E+00    0.0000E+00    2.500000E+09  0.02000  5.985E-05    0   0.5673   age150_m62            0.0000     3.1852E-03     9.3491  -0.6195   108.3749
 48      1.3382     1.2553E+01    1.1885E+01    4.250000E+09  0.02000  3.271E-05    0   0.5468   age158_m62            0.0000     3.9860E-03    10.8828  -0.9713   109.0357
 49      0.6772     1.5279E+01    1.3669E+01    1.000000E+10  0.02000  1.360E-05    0   0.5167   age181_m62            0.0000     6.0284E-03    11.2544  -1.0000   101.7678
 50      0.0000     0.0000E+00    0.0000E+00    1.800000E+10  0.02000  7.124E-06    0   0.5013   age213_m62            0.0000     8.3750E-03    14.0125  -1.0000    95.8330
 51      0.0000     0.0000E+00    0.0000E+00    1.000000E+06  0.05000  2.592E-02    0   0.9998   age020_m72            0.0000     1.6680E-03     6.8374   2.9727    88.3569
 52      0.0000     0.0000E+00    0.0000E+00    3.160000E+06  0.05000  4.845E-02    0   0.9577   age045_m72            0.0000     1.5454E-03     6.7510   2.7895    90.6383
 53      0.0000     0.0000E+00    0.0000E+00    5.010000E+06  0.05000  3.072E-02    0   0.9147   age055_m72            0.0000     1.5342E-03     5.6165   2.3555    92.9678
 54      0.0000     0.0000E+00    0.0000E+00    6.610000E+06  0.05000  1.455E-02    0   0.8877   age061_m72            0.0000     2.5746E-03     9.2615   1.7238    94.0846
 55      1.4409     4.8725E-02    7.1912E-02    1.000000E+07  0.05000  9.074E-03    0   0.8524   age070_m72            0.0000     1.6561E-03     6.6020   2.5300    92.6910
 56      0.0000     0.0000E+00    0.0000E+00    2.512000E+07  0.05000  4.250E-03    0   0.7902   age090_m72            0.0000     1.5254E-03     5.6832   2.2291    94.5630
 57      0.0000     0.0000E+00    0.0000E+00    4.000000E+07  0.05000  3.087E-03    0   0.7618   age104_m72            0.0000     1.5796E-03     5.5487   2.0052    95.9974
 58      0.0000     0.0000E+00    0.0000E+00    1.015200E+08  0.05000  1.700E-03    0   0.7096   age116_m72            0.0000     1.8562E-03     5.1068   1.7192    99.7013
 59      6.1760     2.5664E+00    2.9474E+00    2.861200E+08  0.05000  7.384E-04    0   0.6633   age125_m72            0.0000     2.7518E-03     6.6223   1.1332   106.5008
 60     17.4047     1.3984E+01    1.5428E+01    5.088000E+08  0.05000  3.819E-04    0   0.6372   age130_m72            0.0000     2.7618E-03     7.7134   0.5911   110.1477
 61      8.8985     1.6291E+01    1.7235E+01    9.047900E+08  0.05000  1.676E-04    0   0.6110   age135_m72            0.0000     3.0466E-03     9.1842  -0.1675   110.6586
 62      0.1863     6.4675E-01    6.5777E-01    1.434000E+09  0.05000  8.837E-05    0   0.5874   age139_m72            0.0000     3.4043E-03     9.7428  -0.6377   110.6195
 63      2.6667     1.9330E+01    1.8736E+01    2.500000E+09  0.05000  4.233E-05    0   0.5598   age150_m72            0.0000     4.2678E-03    11.4281  -0.9942   110.7565
 64      0.0000     0.0000E+00    0.0000E+00    6.250000E+09  0.05000  1.435E-05    0   0.5249   age166_m72            0.0000     6.6932E-03    12.2702  -1.0000    99.1321
 65      0.0000     0.0000E+00    0.0000E+00    1.300000E+10  0.05000  6.513E-06    0   0.5036   age193_m72            0.0000     1.0291E-02    17.0046  -1.0000    92.6773
 66      0.0000     0.0000E+00    0.0000E+00    1.800000E+10  0.05000  4.527E-06    0   0.4945   age213_m72            0.0000     1.2836E-02    19.9160  -1.0000    87.9613


## Synthesis Results - Average & Chains ##

# j      x_j: min, <> & last-chain-values for 1 ...  7 chains
  1     16.3040      0.3490      1.7384      0.8026      0.0000      1.3385      0.0000      0.0000      1.0404
  2      6.3729      0.3115      0.2763      1.6177      0.9800      0.4985      1.5815      1.8207      2.5459
  3      0.3571      0.3674      3.7604      1.1682      2.8244      0.4981      1.4681      0.2941      0.0000
  4      0.0000      0.2801      0.0000      0.0000      0.5698      2.3822      0.1389      2.5876      0.0000
  5      0.0000      0.3355      0.0000      0.0000      2.7596      2.4999      2.9254      1.7813      1.4430
  6      0.0000      0.2790      0.0000      1.7617      1.0364      0.0000      0.0000      1.1822      0.0000
  7      0.0000      0.3045      0.2061      1.4098      0.4133      0.3007      0.1217      1.6594      1.0411
  8      0.3401      0.4257      0.2882      1.2250      0.5598      1.0520      4.0010      2.6883      1.9212
  9      0.0000      0.3086      0.0000      0.6462      0.1381      3.1343      0.6362      0.0000      0.3682
 10      0.0000      0.3583      0.1756      0.2698      2.0183      1.4264      2.2873      0.0000      0.2947
 11      0.2566      0.4093      0.4793      2.8470      0.8275      2.5279      1.9833      0.3148      1.7560
 12      0.5098      0.2304      0.0000      0.9075      0.1500      0.0788      1.0290      2.4387      0.1061
 13      4.9015      0.3929      0.2854      1.2290      1.1696      0.0000      1.2216      1.6332      2.0768
 14      0.0000      0.3830      3.6576      0.0000      1.8458      0.7434      0.7739      2.0749      2.5239
 15      0.8918      1.9460      3.1881      3.3662      1.4609      1.4715      1.5079      0.0000      1.6572
 16      0.0000      0.3434      1.2029      0.3492      0.6541      0.0000      0.8960      0.8052      2.2528
 17      0.0000      0.2395      0.6700      0.2909      0.4131      0.9977      1.0503      0.0327      0.7840
 18     15.4190      0.3512      0.1010      1.9910      3.7548      0.1536      0.9919      0.0000      2.0128
 19      2.5777      0.3746      2.2347      2.1525      0.7013      5.1216      0.7841      0.0863      0.0534
 20      0.4085      0.2735      1.7746      3.2446      0.5381      0.0000      0.5672      0.0000      0.0000
 21      0.2821      0.2486      2.0546      0.9669      2.4509      0.0000      0.0000      0.0545      0.0000
 22      0.0000      0.2941      0.0000      0.0000      0.6595      3.4860      1.4495      0.6524      0.0000
 23      0.5976      0.3103      0.1787      1.6666      0.7636      1.9059      1.1146      2.3206      0.0000
 24      0.0000      0.2886      2.8023      0.5752      0.8093      0.0000      0.9377      0.5083      0.0000
 25      0.0000      0.2782      0.5751      0.0000      0.5406      2.7215      2.3951      0.5409      1.4015
 26      0.0000      0.5131      0.0000      2.0884      0.0000      0.2430      0.0000      0.0000      1.6503
 27      0.0081      0.3012      2.5247      1.1597      0.0000      0.0000      0.5000      0.0000      0.0000
 28      0.0000      0.3936      0.0000      0.5759      0.0000      0.0000      1.9688      0.0739      0.6642
 29      0.0000      0.3135      1.3530      0.2318      0.6154      0.0000      0.7788      0.0000      0.0000
 30      0.6439      0.9242      3.0825      2.3125      0.0000      0.4339      0.2610      0.7168      3.0786
 31      0.0379      0.2744      1.9102      0.4921      0.4723      0.0000      0.3505      0.0513      0.7355
 32      0.0000      0.2140      0.0000      0.0000      0.8103      2.6932      2.0219      0.5299      0.0000
 33      0.0000      0.3291      0.0000      0.1386      0.0000      1.0761      0.6744      2.0684      0.3986
 34      0.0000      0.3128      0.0000      0.0000      0.6374      0.2582      1.5981      1.1472      1.2827
 35      7.6504      0.3604      3.0621      0.5939      0.5455      0.4955      2.4020      1.1679      0.0000
 36      1.0283      0.3581      0.0000      0.5015      0.4355      0.6272      1.5762      0.0000      3.1292
 37      0.2656      0.3394      3.6087      0.7775      1.2278      0.3332      2.3855      0.4218      1.8273
 38      0.3041      0.2744      0.9716      0.9504      1.2934      4.2487      2.2021      0.0000      0.0000
 39      0.4357      0.3092      0.3665      0.3414      0.0000      0.0259      3.1439      4.0015      0.1821
 40      0.0000      0.2849      1.1989      0.2595      2.0743      0.6624      0.0000      0.3014      0.0000
 41      0.0000      0.4458      0.0000      2.8495      1.6944      0.0000      1.4073      1.5073      0.4408
 42      0.2356      0.3011      0.2486      0.8040      1.1234      0.0000      0.0000      0.4255      0.0000
 43      0.3009      0.3044      2.5817      1.4974      3.3138      2.5090      0.0000      0.8384      1.7342
 44      0.0658      2.4938      1.5482      2.1810      2.6457      2.6997      2.6408      2.2996      1.8114
 45      0.0000      7.0312      0.8638      5.7384      0.8210      5.0349      3.0395      5.2930      2.5083
 46      0.0000      0.3593      0.0000      0.4552      0.6708      2.4973      0.3258      0.0000      0.0000
