###################################################################
## OUTPUT of StarlightChains_v04.for    [Cid@UFSC - 01/Apr/2007] ##
###################################################################

## Some input info
KUG0210-078._54_42.txt                   [arq_obs]
Base.CB07.vall.4m                        [arq_base]
Masks.EmLines.NEW.gm                     [arq_masks]
StCv04.C11.config                        [arq_config]
   66                                    [N_base]
    0                                    [N_YAV_components = # of components with extra extinction!]
    0                                    [i_FitPowerLaw (1/0 = Yes/No)]
-9.99                                    [alpha_PowerLaw]
CCM                                      [red_law_option]
 1.458241                                [q_norm = A(l_norm)/A(V)]

## (Re)Sampling Parameters
 3741.00                                 [l_ini (A)]
 7218.00                                 [l_fin (A)]
    1.00                                 [dl    (A)]     (OBS: dl_cushion =    50.00 A)

## Normalization info
 4020.00                                 [l_norm (A) - for base]
 4010.00                                 [llow_norm (A) - window for f_obs]
 4060.00                                 [lupp_norm (A) - window for f_obs]
2.699703E-18                             [fobs_norm (in input units)]

## S/N
 3691.00                                 [llow_SN (A) - window for S/N]
 7268.00                                 [lupp_SN (A) - window for S/N]
   2.650                                 [S/N in S/N window]
   1.431                                 [S/N in norm. window]
   0.006                                 [S/N_err in S/N window]
   0.003                                 [S/N_err in norm. window]
  1.0000                                 [fscale_chi2]

## etc...
    -2008010                             [idum_orig]
  2367                                   [NOl_eff]
  2306                                   [Nl_eff]
    61    NSIGMA                         [Ntot_cliped & clip_method]
  5313630                                [Nglobal_steps]
   7                                     [N_chains]
   7                                     [NEX0s_base = N_base in EX0s-fits]
 0   0   1       61   2.0   9.108E+02    [Clip-Bug, RC-Crash & Burn-In warning-flags, n_censored_weights, wei_nsig_threshold & wei_limit]
    56     55.162     54.280      0.882  [idt_all, wdt_TotTime, wdt_UsrTime & wdt_SysTime (sec)]

## Synthesis Results - Best model ##

 1.68641E-05                             [chi2/Nl_eff]
    37.41291                             [adev (%)]

   130.00000                             [sum-of-x (%)]
 4.29829E-16                             [Flux_tot (units of input spectrum!)]
 3.79411E-14                             [Mini_tot (???)]
 3.79411E-14                             [Mcor_tot (???)]

 -42.32                                  [v0_min  (km/s)]
 336.51                                  [vd_min  (km/s)]
 3.5797                                  [AV_min  (mag)]
 0.0000                                  [YAV_min (mag)]

# j     x_j(%)      Mini_j(%)     Mcor_j(%)     age_j(yr)     Z_j      (L/M)_j    YAV?  Mstars   component_j        a/Fe...       SSP_chi2r SSP_adev(%)   SSP_AV   SSP_x(%)
  1    110.7861     8.8249E+01    8.8249E+01    1.000000E+06  0.00400  1.094E-02    0   1.0000   age020_m42            0.0000     1.5013E-05    37.0200   3.0289   171.5952
  2      0.0000     0.0000E+00    0.0000E+00    3.160000E+06  0.00400  4.007E-02    0   0.9999   age045_m42            0.0000     1.5176E-05    37.7211   2.2734   184.9541
  3      0.0000     0.0000E+00    0.0000E+00    5.010000E+06  0.00400  2.539E-02    0   0.9488   age055_m42            0.0000     1.5213E-05    37.4749   2.6215   178.5853
  4      0.0000     0.0000E+00    0.0000E+00    6.610000E+06  0.00400  2.620E-02    0   0.9220   age061_m42            0.0000     1.5376E-05    37.9221   2.2135   184.0594
  5      0.0000     0.0000E+00    0.0000E+00    1.000000E+07  0.00400  1.322E-02    0   0.8862   age070_m42            0.0000     1.5675E-05    39.4049   1.9741   184.1801
  6      0.0000     0.0000E+00    0.0000E+00    1.445000E+07  0.00400  7.883E-03    0   0.8571   age078_m42            0.0000     1.5564E-05    39.0448   2.3067   179.4724
  7      0.0000     0.0000E+00    0.0000E+00    2.512000E+07  0.00400  5.251E-03    0   0.8174   age090_m42            0.0000     1.5746E-05    39.7364   1.8485   184.7593
  8      0.0000     0.0000E+00    0.0000E+00    4.000000E+07  0.00400  3.649E-03    0   0.7851   age104_m42            0.0000     1.5759E-05    39.6853   1.6119   187.0200
  9      0.0000     0.0000E+00    0.0000E+00    5.500000E+07  0.00400  3.098E-03    0   0.7629   age110_m42            0.0000     1.5651E-05    39.1424   1.7384   189.3808
 10      0.0000     0.0000E+00    0.0000E+00    1.015200E+08  0.00400  2.228E-03    0   0.7207   age116_m42            0.0000     1.5657E-05    38.7931   1.7376   191.2222
 11      0.0000     0.0000E+00    0.0000E+00    2.861200E+08  0.00400  1.093E-03    0   0.6648   age125_m42            0.0000     1.5984E-05    39.8189   1.1743   195.3844
 12      0.0000     0.0000E+00    0.0000E+00    5.088000E+08  0.00400  6.597E-04    0   0.6365   age130_m42            0.0000     1.5964E-05    39.1939   1.1332   199.7136
 13      0.0000     0.0000E+00    0.0000E+00    1.434000E+09  0.00400  2.132E-04    0   0.5798   age139_m42            0.0000     1.6063E-05    38.8518   0.1604   204.0772
 14      0.0000     0.0000E+00    0.0000E+00    4.250000E+09  0.00400  5.895E-05    0   0.5377   age158_m42            0.0000     1.5910E-05    37.4129  -0.2676   195.8867
 15      0.0000     0.0000E+00    0.0000E+00    7.500000E+09  0.00400  3.510E-05    0   0.5212   age171_m42            0.0000     1.5959E-05    36.9871  -0.4702   195.6157
 16      0.0000     0.0000E+00    0.0000E+00    1.300000E+10  0.00400  2.005E-05    0   0.5034   age193_m42            0.0000     1.6093E-05    36.6796  -0.6412   194.9060
 17      0.0000     0.0000E+00    0.0000E+00    1.800000E+10  0.00400  1.525E-05    0   0.4967   age213_m42            0.0000     1.6065E-05    36.7668  -0.6570   193.5841
 18      6.4977     4.5738E+00    4.5738E+00    1.000000E+06  0.00800  1.238E-02    0   1.0000   age020_m52            0.0000     1.5016E-05    37.0006   3.0266   171.8229
 19      0.0000     0.0000E+00    0.0000E+00    3.160000E+06  0.00800  3.074E-02    0   0.9966   age045_m52            0.0000     1.5047E-05    37.0168   2.9563   173.0071
 20      0.0000     0.0000E+00    0.0000E+00    5.010000E+06  0.00800  2.668E-02    0   0.9443   age055_m52            0.0000     1.5219E-05    37.4172   2.7118   176.4558
 21      0.0000     0.0000E+00    0.0000E+00    6.610000E+06  0.00800  2.136E-02    0   0.9177   age061_m52            0.0000     1.5682E-05    39.1306   1.4877   185.6311
 22      0.0000     0.0000E+00    0.0000E+00    1.000000E+07  0.00800  1.215E-02    0   0.8827   age070_m52            0.0000     1.5699E-05    39.8140   2.1664   182.6564
 23      0.0000     0.0000E+00    0.0000E+00    1.445000E+07  0.00800  8.717E-03    0   0.8552   age078_m52            0.0000     1.5579E-05    39.1692   2.2683   182.1096
 24      0.0000     0.0000E+00    0.0000E+00    2.512000E+07  0.00800  5.592E-03    0   0.8162   age090_m52            0.0000     1.5753E-05    39.9808   1.9106   187.0102
 25      0.0000     0.0000E+00    0.0000E+00    4.000000E+07  0.00800  3.896E-03    0   0.7841   age104_m52            0.0000     1.5727E-05    39.7915   1.8033   189.8363
 26      0.0000     0.0000E+00    0.0000E+00    1.015200E+08  0.00800  2.148E-03    0   0.7226   age116_m52            0.0000     1.5726E-05    39.2005   1.7229   191.1535
 27      0.0000     0.0000E+00    0.0000E+00    2.861200E+08  0.00800  9.925E-04    0   0.6683   age125_m52            0.0000     1.6000E-05    39.2858   1.2009   201.4918
 28      0.0000     0.0000E+00    0.0000E+00    9.047900E+08  0.00800  3.141E-04    0   0.6138   age135_m52            0.0000     1.6087E-05    38.6610   0.3565   213.5247
 29      0.0000     0.0000E+00    0.0000E+00    1.434000E+09  0.00800  1.719E-04    0   0.5853   age139_m52            0.0000     1.5939E-05    38.3234  -0.2065   207.8350
 30      0.0000     0.0000E+00    0.0000E+00    2.500000E+09  0.00800  7.872E-05    0   0.5600   age150_m52            0.0000     1.5967E-05    36.9721  -0.4800   203.3606
 31      0.0000     0.0000E+00    0.0000E+00    4.250000E+09  0.00800  4.336E-05    0   0.5426   age158_m52            0.0000     1.6005E-05    36.8409  -0.4903   201.0795
 32      0.0000     0.0000E+00    0.0000E+00    6.250000E+09  0.00800  3.159E-05    0   0.5319   age166_m52            0.0000     1.6178E-05    36.3754  -0.7094   202.4735
 33      0.0000     0.0000E+00    0.0000E+00    1.300000E+10  0.00800  1.361E-05    0   0.5073   age193_m52            0.0000     1.6630E-05    37.6563  -1.0000   194.1421
 34      0.0000     0.0000E+00    0.0000E+00    1.800000E+10  0.00800  9.886E-06    0   0.4990   age213_m52            0.0000     1.7001E-05    38.6537  -1.0000   188.8751
 35     12.7162     7.1771E+00    7.1771E+00    1.000000E+06  0.02000  1.544E-02    0   1.0000   age020_m62            0.0000     1.5020E-05    37.0261   3.0289   171.9203
 36      0.0000     0.0000E+00    0.0000E+00    3.160000E+06  0.02000  3.762E-02    0   0.9858   age045_m62            0.0000     1.5075E-05    37.0048   2.9727   173.0749
 37      0.0000     0.0000E+00    0.0000E+00    5.010000E+06  0.02000  3.296E-02    0   0.9342   age055_m62            0.0000     1.5279E-05    37.4308   2.5757   181.1540
 38      0.0000     0.0000E+00    0.0000E+00    8.710000E+06  0.02000  1.154E-02    0   0.8861   age067_m62            0.0000     1.6454E-05    42.9302   1.6896   180.5621
 39      0.0000     0.0000E+00    0.0000E+00    1.445000E+07  0.02000  7.663E-03    0   0.8472   age078_m62            0.0000     1.5937E-05    40.8989   1.8279   184.8252
 40      0.0000     0.0000E+00    0.0000E+00    2.512000E+07  0.02000  4.532E-03    0   0.8099   age090_m62            0.0000     1.6053E-05    41.1924   1.8248   183.7127
 41      0.0000     0.0000E+00    0.0000E+00    5.500000E+07  0.02000  2.733E-03    0   0.7595   age110_m62            0.0000     1.5822E-05    39.7483   1.8033   187.2890
 42      0.0000     0.0000E+00    0.0000E+00    1.609000E+08  0.02000  1.369E-03    0   0.6985   age120_m62            0.0000     1.5909E-05    39.3029   1.5927   196.2088
 43      0.0000     0.0000E+00    0.0000E+00    2.861200E+08  0.02000  9.013E-04    0   0.6714   age125_m62            0.0000     1.6019E-05    39.1450   1.3008   205.0482
 44      0.0000     0.0000E+00    0.0000E+00    5.088000E+08  0.02000  5.028E-04    0   0.6449   age130_m62            0.0000     1.5984E-05    38.4357   0.8669   215.3827
 45      0.0000     0.0000E+00    0.0000E+00    9.047900E+08  0.02000  2.428E-04    0   0.6179   age135_m62            0.0000     1.5863E-05    37.7174   0.2852   213.7564
 46      0.0000     0.0000E+00    0.0000E+00    1.434000E+09  0.02000  1.263E-04    0   0.5908   age139_m62            0.0000     1.5820E-05    37.1755  -0.1490   209.9368
 47      0.0000     0.0000E+00    0.0000E+00    2.500000E+09  0.02000  5.985E-05    0   0.5673   age150_m62            0.0000     1.6003E-05    36.3196  -0.5197   207.7859
 48      0.0000     0.0000E+00    0.0000E+00    4.250000E+09  0.02000  3.271E-05    0   0.5468   age158_m62            0.0000     1.6386E-05    35.5172  -0.8405   207.3051
 49      0.0000     0.0000E+00    0.0000E+00    1.000000E+10  0.02000  1.360E-05    0   0.5167   age181_m62            0.0000     1.6947E-05    36.9238  -1.0000   199.2911
 50      0.0000     0.0000E+00    0.0000E+00    1.800000E+10  0.02000  7.124E-06    0   0.5013   age213_m62            0.0000     1.7614E-05    39.2355  -1.0000   188.2955
 51      0.0000     0.0000E+00    0.0000E+00    1.000000E+06  0.05000  2.592E-02    0   0.9998   age020_m72            0.0000     1.5004E-05    37.0340   3.0266   171.5663
 52      0.0000     0.0000E+00    0.0000E+00    3.160000E+06  0.05000  4.845E-02    0   0.9577   age045_m72            0.0000     1.5160E-05    37.0262   2.8507   175.5798
 53      0.0000     0.0000E+00    0.0000E+00    5.010000E+06  0.05000  3.072E-02    0   0.9147   age055_m72            0.0000     1.5670E-05    39.6106   2.3962   179.4188
 54      0.0000     0.0000E+00    0.0000E+00    6.610000E+06  0.05000  1.455E-02    0   0.8877   age061_m72            0.0000     1.6996E-05    45.0840   1.7297   179.6270
 55      0.0000     0.0000E+00    0.0000E+00    1.000000E+07  0.05000  9.074E-03    0   0.8524   age070_m72            0.0000     1.5743E-05    39.9514   2.5543   179.3973
 56      0.0000     0.0000E+00    0.0000E+00    2.512000E+07  0.05000  4.250E-03    0   0.7902   age090_m72            0.0000     1.5820E-05    40.2090   2.2601   182.9801
 57      0.0000     0.0000E+00    0.0000E+00    4.000000E+07  0.05000  3.087E-03    0   0.7618   age104_m72            0.0000     1.5956E-05    40.7014   2.0303   185.8437
 58      0.0000     0.0000E+00    0.0000E+00    1.015200E+08  0.05000  1.700E-03    0   0.7096   age116_m72            0.0000     1.5910E-05    39.8164   1.7444   194.3028
 59      0.0000     0.0000E+00    0.0000E+00    2.861200E+08  0.05000  7.384E-04    0   0.6633   age125_m72            0.0000     1.5949E-05    38.7248   1.1326   210.9098
 60      0.0000     0.0000E+00    0.0000E+00    5.088000E+08  0.05000  3.819E-04    0   0.6372   age130_m72            0.0000     1.5788E-05    37.7259   0.6097   217.2603
 61      0.0000     0.0000E+00    0.0000E+00    9.047900E+08  0.05000  1.676E-04    0   0.6110   age135_m72            0.0000     1.5803E-05    36.3056  -0.0822   213.7884
 62      0.0000     0.0000E+00    0.0000E+00    1.434000E+09  0.05000  8.837E-05    0   0.5874   age139_m72            0.0000     1.6039E-05    36.2529  -0.5348   211.8773
 63      0.0000     0.0000E+00    0.0000E+00    2.500000E+09  0.05000  4.233E-05    0   0.5598   age150_m72            0.0000     1.6503E-05    35.3420  -0.8541   210.2327
 64      0.0000     0.0000E+00    0.0000E+00    6.250000E+09  0.05000  1.435E-05    0   0.5249   age166_m72            0.0000     1.7116E-05    38.0248  -1.0000   194.3988
 65      0.0000     0.0000E+00    0.0000E+00    1.300000E+10  0.05000  6.513E-06    0   0.5036   age193_m72            0.0000     1.8226E-05    41.3652  -1.0000   182.2901
 66      0.0000     0.0000E+00    0.0000E+00    1.800000E+10  0.05000  4.527E-06    0   0.4945   age213_m72            0.0000     1.8972E-05    43.3443  -1.0000   173.4707


## Synthesis Results - Average & Chains ##

# j      x_j: min, <> & last-chain-values for 1 ...  7 chains
  1    110.7861    114.5607    122.9840    121.6491    122.2914    122.3334    121.1929    122.5869    123.0861
  2      0.0000      0.1544      0.0000      0.0000      0.0835      0.0737      0.0065      0.0355      0.0000
  3      0.0000      0.1077      0.0230      0.0532      0.0000      0.0043      0.0557      0.0109      0.0000
  4      0.0000      0.1340      0.0041      0.0758      0.0087      0.0352      0.0394      0.0380      0.0130
  5      0.0000      0.1373      0.0326      0.0000      0.0016      0.0000      0.0569      0.0474      0.0096
  6      0.0000      0.1404      0.0000      0.0513      0.0308      0.0000      0.0174      0.0135      0.0000
  7      0.0000      0.1337      0.0054      0.0456      0.0166      0.0000      0.0333      0.0198      0.0000
  8      0.0000      0.1347      0.0124      0.0000      0.0000      0.0000      0.0000      0.0428      0.0331
  9      0.0000      0.1717      0.0111      0.0477      0.1158      0.0000      0.0181      0.0860      0.0189
 10      0.0000      0.1223      0.0000      0.0815      0.0023      0.0901      0.0000      0.0000      0.0000
 11      0.0000      0.1177      0.0000      0.0959      0.0130      0.0000      0.0000      0.0061      0.0000
 12      0.0000      0.1522      0.0000      0.0315      0.0000      0.0300      0.0320      0.0309      0.0313
 13      0.0000      0.1006      0.0155      0.0000      0.0000      0.0006      0.0065      0.0034      0.0208
 14      0.0000      0.1193      0.0179      0.0000      0.0000      0.0013      0.0458      0.0000      0.0000
 15      0.0000      0.1402      0.0057      0.1386      0.0451      0.0525      0.0000      0.0005      0.0064
 16      0.0000      0.1313      0.0105      0.0079      0.0323      0.0352      0.1068      0.0210      0.0001
 17      0.0000      0.1594      0.0410      0.0000      0.0000      0.0052      0.0115      0.0555      0.0000
 18      6.4977      0.7573      0.5448      0.4110      0.7062      0.5689      1.5045      0.5603      0.5288
 19      0.0000      0.1312      0.0012      0.2123      0.0361      0.0763      0.0000      0.0518      0.0244
 20      0.0000      0.1723      0.0199      0.0000      0.0418      0.0512      0.0156      0.0357      0.0417
 21      0.0000      0.1873      0.0009      0.0588      0.0091      0.0000      0.0000      0.0323      0.0195
 22      0.0000      0.1758      0.0217      0.0059      0.0309      0.0310      0.0516      0.0470      0.0305
 23      0.0000      0.1247      0.0000      0.0624      0.0060      0.0366      0.0217      0.0551      0.0129
 24      0.0000      0.1017      0.0062      0.0352      0.0560      0.0000      0.1220      0.0000      0.0148
 25      0.0000      0.1571      0.0459      0.1140      0.0340      0.0000      0.0000      0.0184      0.0099
 26      0.0000      0.1019      0.0376      0.0804      0.0371      0.0000      0.0602      0.0000      0.0014
 27      0.0000      0.1188      0.0058      0.0000      0.0000      0.0317      0.0146      0.0000      0.0000
 28      0.0000      0.1613      0.0244      0.0000      0.0047      0.0000      0.0000      0.0203      0.0220
 29      0.0000      0.1887      0.0000      0.0004      0.0240      0.0260      0.0698      0.0000      0.0000
 30      0.0000      0.1627      0.0135      0.0486      0.0000      0.0136      0.0000      0.0024      0.0000
 31      0.0000      0.1924      0.0166      0.0079      0.0279      0.0000      0.0485      0.0396      0.0193
 32      0.0000      0.1213      0.0060      0.0000      0.0000      0.0151      0.0081      0.0263      0.0163
 33      0.0000      0.1441      0.0000      0.0135      0.1351      0.0000      0.0000      0.0239      0.0138
 34      0.0000      0.2450      0.0138      0.0448      0.0881      0.0639      0.2420      0.0752      0.0156
 35     12.7162      0.2013      0.0813      0.0262      0.0629      0.0000      0.0465      0.0048      0.0000
 36      0.0000      0.1349      0.0001      0.0511      0.0000      0.0202      0.0493      0.0000      0.0324
 37      0.0000      0.1059      0.0432      0.0448      0.0146      0.1275      0.0262      0.0061      0.0324
 38      0.0000      0.1105      0.0075      0.0574      0.0217      0.0139      0.0024      0.0000      0.0072
 39      0.0000      0.2075      0.0497      0.0937      0.0000      0.0633      0.0134      0.0051      0.0413
 40      0.0000      0.1347      0.0252      0.0352      0.0076      0.0257      0.0667      0.0933      0.0000
 41      0.0000      0.1344      0.0266      0.0000      0.0000      0.0000      0.0815      0.0000      0.0162
 42      0.0000      0.1425      0.0250      0.0273      0.0105      0.0041      0.0000      0.0000      0.0150
 43      0.0000      0.1539      0.0000      0.0244      0.0386      0.0011      0.0223      0.0168      0.0314
 44      0.0000      0.1452      0.0337      0.0545      0.0547      0.0234      0.0300      0.0000      0.0376
 45      0.0000      0.1556      0.0000      0.0016      0.0000      0.0573      0.0000      0.0474      0.0125
 46      0.0000      0.1253      0.0051      0.0000      0.0158      0.0204      0.0657      0.0000      0.0000
