###################################################################
## OUTPUT of StarlightChains_v04.for    [Cid@UFSC - 01/Apr/2007] ##
###################################################################

## Some input info
KUG0210-078._38_24.txt                   [arq_obs]
Base.CB07.vall.4m                        [arq_base]
Masks.EmLines.NEW.gm                     [arq_masks]
StCv04.C11.config                        [arq_config]
   66                                    [N_base]
    0                                    [N_YAV_components = # of components with extra extinction!]
    0                                    [i_FitPowerLaw (1/0 = Yes/No)]
-9.99                                    [alpha_PowerLaw]
CCM                                      [red_law_option]
 1.458241                                [q_norm = A(l_norm)/A(V)]

## (Re)Sampling Parameters
 3741.00                                 [l_ini (A)]
 7218.00                                 [l_fin (A)]
    1.00                                 [dl    (A)]     (OBS: dl_cushion =    50.00 A)

## Normalization info
 4020.00                                 [l_norm (A) - for base]
 4010.00                                 [llow_norm (A) - window for f_obs]
 4060.00                                 [lupp_norm (A) - window for f_obs]
5.772333E-18                             [fobs_norm (in input units)]

## S/N
 3691.00                                 [llow_SN (A) - window for S/N]
 7268.00                                 [lupp_SN (A) - window for S/N]
   2.936                                 [S/N in S/N window]
   2.069                                 [S/N in norm. window]
   0.010                                 [S/N_err in S/N window]
   0.007                                 [S/N_err in norm. window]
  1.0000                                 [fscale_chi2]

## etc...
    -2007649                             [idum_orig]
  2374                                   [NOl_eff]
  2206                                   [Nl_eff]
   168    NSIGMA                         [Ntot_cliped & clip_method]
   444500                                [Nglobal_steps]
   7                                     [N_chains]
   7                                     [NEX0s_base = N_base in EX0s-fits]
 0   0   1      168   2.0   3.317E+03    [Clip-Bug, RC-Crash & Burn-In warning-flags, n_censored_weights, wei_nsig_threshold & wei_limit]
    13     12.756     12.371      0.385  [idt_all, wdt_TotTime, wdt_UsrTime & wdt_SysTime (sec)]

## Synthesis Results - Best model ##

 2.11472E-05                             [chi2/Nl_eff]
    27.45578                             [adev (%)]

   130.00000                             [sum-of-x (%)]
 4.49919E-16                             [Flux_tot (units of input spectrum!)]
 4.11260E-14                             [Mini_tot (???)]
 4.11260E-14                             [Mcor_tot (???)]

 344.21                                  [v0_min  (km/s)]
   0.29                                  [vd_min  (km/s)]
 3.0479                                  [AV_min  (mag)]
 0.0000                                  [YAV_min (mag)]

# j     x_j(%)      Mini_j(%)     Mcor_j(%)     age_j(yr)     Z_j      (L/M)_j    YAV?  Mstars   component_j        a/Fe...       SSP_chi2r SSP_adev(%)   SSP_AV   SSP_x(%)
  1    130.0000     1.0000E+02    1.0000E+02    1.000000E+06  0.00400  1.094E-02    0   1.0000   age020_m42            0.0000     1.9454E-05    26.9455   2.6918   151.4007
  2      0.0000     0.0000E+00    0.0000E+00    3.160000E+06  0.00400  4.007E-02    0   0.9999   age045_m42            0.0000     1.9877E-05    27.8768   2.0377   156.8719
  3      0.0000     0.0000E+00    0.0000E+00    5.010000E+06  0.00400  2.539E-02    0   0.9488   age055_m42            0.0000     1.9655E-05    27.4961   2.3282   155.0162
  4      0.0000     0.0000E+00    0.0000E+00    6.610000E+06  0.00400  2.620E-02    0   0.9220   age061_m42            0.0000     1.9919E-05    28.0842   1.9727   156.7862
  5      0.0000     0.0000E+00    0.0000E+00    1.000000E+07  0.00400  1.322E-02    0   0.8862   age070_m42            0.0000     2.0322E-05    29.3484   1.7124   159.2160
  6      0.0000     0.0000E+00    0.0000E+00    1.445000E+07  0.00400  7.883E-03    0   0.8571   age078_m42            0.0000     2.0098E-05    28.8437   2.0125   156.8390
  7      0.0000     0.0000E+00    0.0000E+00    2.512000E+07  0.00400  5.251E-03    0   0.8174   age090_m42            0.0000     2.0409E-05    29.6584   1.5913   159.6157
  8      0.0000     0.0000E+00    0.0000E+00    4.000000E+07  0.00400  3.649E-03    0   0.7851   age104_m42            0.0000     2.0426E-05    29.6732   1.3748   160.2162
  9      0.0000     0.0000E+00    0.0000E+00    5.500000E+07  0.00400  3.098E-03    0   0.7629   age110_m42            0.0000     2.0335E-05    29.2208   1.5270   159.9988
 10      0.0000     0.0000E+00    0.0000E+00    1.015200E+08  0.00400  2.228E-03    0   0.7207   age116_m42            0.0000     2.0299E-05    29.0028   1.5498   159.9538
 11      0.0000     0.0000E+00    0.0000E+00    2.861200E+08  0.00400  1.093E-03    0   0.6648   age125_m42            0.0000     2.0734E-05    30.0017   1.0145   162.3391
 12      0.0000     0.0000E+00    0.0000E+00    5.088000E+08  0.00400  6.597E-04    0   0.6365   age130_m42            0.0000     2.0654E-05    29.4809   1.0063   163.2618
 13      0.0000     0.0000E+00    0.0000E+00    1.434000E+09  0.00400  2.132E-04    0   0.5798   age139_m42            0.0000     2.0383E-05    29.2528   0.0688   164.5204
 14      0.0000     0.0000E+00    0.0000E+00    4.250000E+09  0.00400  5.895E-05    0   0.5377   age158_m42            0.0000     1.9662E-05    27.6584  -0.4064   160.1535
 15      0.0000     0.0000E+00    0.0000E+00    7.500000E+09  0.00400  3.510E-05    0   0.5212   age171_m42            0.0000     1.9675E-05    27.2981  -0.5975   159.0605
 16      0.0000     0.0000E+00    0.0000E+00    1.300000E+10  0.00400  2.005E-05    0   0.5034   age193_m42            0.0000     1.9769E-05    27.0575  -0.7656   158.1840
 17      0.0000     0.0000E+00    0.0000E+00    1.800000E+10  0.00400  1.525E-05    0   0.4967   age213_m42            0.0000     1.9705E-05    27.0904  -0.7902   157.6851
 18      0.0000     0.0000E+00    0.0000E+00    1.000000E+06  0.00800  1.238E-02    0   1.0000   age020_m52            0.0000     1.9464E-05    26.9026   2.6836   151.8449
 19      0.0000     0.0000E+00    0.0000E+00    3.160000E+06  0.00800  3.074E-02    0   0.9966   age045_m52            0.0000     1.9484E-05    26.9625   2.6150   152.7593
 20      0.0000     0.0000E+00    0.0000E+00    5.010000E+06  0.00800  2.668E-02    0   0.9443   age055_m52            0.0000     1.9637E-05    27.4006   2.3999   154.3294
 21      0.0000     0.0000E+00    0.0000E+00    6.610000E+06  0.00800  2.136E-02    0   0.9177   age061_m52            0.0000     2.0344E-05    29.0951   1.2136   160.9504
 22      0.0000     0.0000E+00    0.0000E+00    1.000000E+07  0.00800  1.215E-02    0   0.8827   age070_m52            0.0000     2.0392E-05    29.5656   1.8810   159.5269
 23      0.0000     0.0000E+00    0.0000E+00    1.445000E+07  0.00800  8.717E-03    0   0.8552   age078_m52            0.0000     2.0186E-05    29.0323   1.9860   158.5090
 24      0.0000     0.0000E+00    0.0000E+00    2.512000E+07  0.00800  5.592E-03    0   0.8162   age090_m52            0.0000     2.0475E-05    29.8411   1.6585   161.2450
 25      0.0000     0.0000E+00    0.0000E+00    4.000000E+07  0.00800  3.896E-03    0   0.7841   age104_m52            0.0000     2.0434E-05    29.6948   1.5772   161.7589
 26      0.0000     0.0000E+00    0.0000E+00    1.015200E+08  0.00800  2.148E-03    0   0.7226   age116_m52            0.0000     2.0295E-05    29.2659   1.5233   160.8403
 27      0.0000     0.0000E+00    0.0000E+00    2.861200E+08  0.00800  9.925E-04    0   0.6683   age125_m52            0.0000     2.0676E-05    29.5616   1.0724   164.7495
 28      0.0000     0.0000E+00    0.0000E+00    9.047900E+08  0.00800  3.141E-04    0   0.6138   age135_m52            0.0000     2.0469E-05    29.0547   0.3008   169.2506
 29      0.0000     0.0000E+00    0.0000E+00    1.434000E+09  0.00800  1.719E-04    0   0.5853   age139_m52            0.0000     1.9948E-05    28.5318  -0.2925   166.7166
 30      0.0000     0.0000E+00    0.0000E+00    2.500000E+09  0.00800  7.872E-05    0   0.5600   age150_m52            0.0000     1.9606E-05    27.3383  -0.5817   163.4315
 31      0.0000     0.0000E+00    0.0000E+00    4.250000E+09  0.00800  4.336E-05    0   0.5426   age158_m52            0.0000     1.9547E-05    27.1835  -0.6010   162.1392
 32      0.0000     0.0000E+00    0.0000E+00    6.250000E+09  0.00800  3.159E-05    0   0.5319   age166_m52            0.0000     1.9614E-05    26.8250  -0.8034   161.8798
 33      0.0000     0.0000E+00    0.0000E+00    1.300000E+10  0.00800  1.361E-05    0   0.5073   age193_m52            0.0000     2.0120E-05    30.0415  -1.0000   151.2072
 34      0.0000     0.0000E+00    0.0000E+00    1.800000E+10  0.00800  9.886E-06    0   0.4990   age213_m52            0.0000     2.0618E-05    31.3981  -1.0000   146.4900
 35      0.0000     0.0000E+00    0.0000E+00    1.000000E+06  0.02000  1.544E-02    0   1.0000   age020_m62            0.0000     1.9498E-05    26.9338   2.6799   152.2362
 36      0.0000     0.0000E+00    0.0000E+00    3.160000E+06  0.02000  3.762E-02    0   0.9858   age045_m62            0.0000     1.9607E-05    27.0072   2.6223   153.4238
 37      0.0000     0.0000E+00    0.0000E+00    5.010000E+06  0.02000  3.296E-02    0   0.9342   age055_m62            0.0000     1.9782E-05    27.5919   2.2971   156.3292
 38      0.0000     0.0000E+00    0.0000E+00    8.710000E+06  0.02000  1.154E-02    0   0.8861   age067_m62            0.0000     2.1506E-05    32.3629   1.3483   163.9739
 39      0.0000     0.0000E+00    0.0000E+00    1.445000E+07  0.02000  7.663E-03    0   0.8472   age078_m62            0.0000     2.0789E-05    30.5464   1.5425   162.3788
 40      0.0000     0.0000E+00    0.0000E+00    2.512000E+07  0.02000  4.532E-03    0   0.8099   age090_m62            0.0000     2.0796E-05    30.7361   1.5402   161.5437
 41      0.0000     0.0000E+00    0.0000E+00    5.500000E+07  0.02000  2.733E-03    0   0.7595   age110_m62            0.0000     2.0335E-05    29.6263   1.5580   160.9099
 42      0.0000     0.0000E+00    0.0000E+00    1.609000E+08  0.02000  1.369E-03    0   0.6985   age120_m62            0.0000     2.0500E-05    29.5028   1.4183   163.4887
 43      0.0000     0.0000E+00    0.0000E+00    2.861200E+08  0.02000  9.013E-04    0   0.6714   age125_m62            0.0000     2.0753E-05    29.5577   1.1871   166.6611
 44      0.0000     0.0000E+00    0.0000E+00    5.088000E+08  0.02000  5.028E-04    0   0.6449   age130_m62            0.0000     2.0687E-05    28.9775   0.8240   169.6212
 45      0.0000     0.0000E+00    0.0000E+00    9.047900E+08  0.02000  2.428E-04    0   0.6179   age135_m62            0.0000     1.9895E-05    28.1376   0.2279   169.0462
 46      0.0000     0.0000E+00    0.0000E+00    1.434000E+09  0.02000  1.263E-04    0   0.5908   age139_m62            0.0000     1.9493E-05    27.5576  -0.2269   167.2230
 47      0.0000     0.0000E+00    0.0000E+00    2.500000E+09  0.02000  5.985E-05    0   0.5673   age150_m62            0.0000     1.9356E-05    26.8331  -0.6075   165.6672
 48      0.0000     0.0000E+00    0.0000E+00    4.250000E+09  0.02000  3.271E-05    0   0.5468   age158_m62            0.0000     1.9569E-05    26.3073  -0.9191   164.2932
 49      0.0000     0.0000E+00    0.0000E+00    1.000000E+10  0.02000  1.360E-05    0   0.5167   age181_m62            0.0000     2.0056E-05    29.2452  -1.0000   154.0296
 50      0.0000     0.0000E+00    0.0000E+00    1.800000E+10  0.02000  7.124E-06    0   0.5013   age213_m62            0.0000     2.1182E-05    32.1985  -1.0000   144.9754
 51      0.0000     0.0000E+00    0.0000E+00    1.000000E+06  0.05000  2.592E-02    0   0.9998   age020_m72            0.0000     1.9480E-05    26.9315   2.6689   152.4882
 52      0.0000     0.0000E+00    0.0000E+00    3.160000E+06  0.05000  4.845E-02    0   0.9577   age045_m72            0.0000     1.9608E-05    27.0703   2.5218   154.2756
 53      0.0000     0.0000E+00    0.0000E+00    5.010000E+06  0.05000  3.072E-02    0   0.9147   age055_m72            0.0000     2.0276E-05    29.1658   2.0806   158.6480
 54      0.0000     0.0000E+00    0.0000E+00    6.610000E+06  0.05000  1.455E-02    0   0.8877   age061_m72            0.0000     2.2587E-05    34.0108   1.3753   165.4651
 55      0.0000     0.0000E+00    0.0000E+00    1.000000E+07  0.05000  9.074E-03    0   0.8524   age070_m72            0.0000     2.0520E-05    29.4018   2.2491   158.3351
 56      0.0000     0.0000E+00    0.0000E+00    2.512000E+07  0.05000  4.250E-03    0   0.7902   age090_m72            0.0000     2.0468E-05    29.6879   1.9897   159.1083
 57      0.0000     0.0000E+00    0.0000E+00    4.000000E+07  0.05000  3.087E-03    0   0.7618   age104_m72            0.0000     2.0655E-05    30.2060   1.7813   160.5870
 58      0.0000     0.0000E+00    0.0000E+00    1.015200E+08  0.05000  1.700E-03    0   0.7096   age116_m72            0.0000     2.0599E-05    29.8330   1.5575   162.9757
 59      0.0000     0.0000E+00    0.0000E+00    2.861200E+08  0.05000  7.384E-04    0   0.6633   age125_m72            0.0000     2.0573E-05    29.2092   1.0569   168.6068
 60      0.0000     0.0000E+00    0.0000E+00    5.088000E+08  0.05000  3.819E-04    0   0.6372   age130_m72            0.0000     1.9978E-05    28.2762   0.5620   171.2288
 61      0.0000     0.0000E+00    0.0000E+00    9.047900E+08  0.05000  1.676E-04    0   0.6110   age135_m72            0.0000     1.9128E-05    26.8075  -0.1610   169.5818
 62      0.0000     0.0000E+00    0.0000E+00    1.434000E+09  0.05000  8.837E-05    0   0.5874   age139_m72            0.0000     1.9238E-05    26.7119  -0.6168   168.4191
 63      0.0000     0.0000E+00    0.0000E+00    2.500000E+09  0.05000  4.233E-05    0   0.5598   age150_m72            0.0000     1.9425E-05    26.0969  -0.9318   166.3144
 64      0.0000     0.0000E+00    0.0000E+00    6.250000E+09  0.05000  1.435E-05    0   0.5249   age166_m72            0.0000     2.0479E-05    30.7261  -1.0000   149.9717
 65      0.0000     0.0000E+00    0.0000E+00    1.300000E+10  0.05000  6.513E-06    0   0.5036   age193_m72            0.0000     2.2716E-05    34.8467  -1.0000   140.3174
 66      0.0000     0.0000E+00    0.0000E+00    1.800000E+10  0.05000  4.527E-06    0   0.4945   age213_m72            0.0000     2.4332E-05    37.1323  -1.0000   133.5402


## Synthesis Results - Average & Chains ##

# j      x_j: min, <> & last-chain-values for 1 ...  7 chains
  1    130.0000    129.7944    129.5549    129.4903    129.5131    129.5962    129.4190    129.5619    129.5632
  2      0.0000      0.0026      0.0000      0.0095      0.0000      0.0000      0.0137      0.0095      0.0000
  3      0.0000      0.0031      0.0182      0.0099      0.0199      0.0026      0.0077      0.0046      0.0075
  4      0.0000      0.0030      0.0045      0.0085      0.0072      0.0110      0.0021      0.0000      0.0003
  5      0.0000      0.0036      0.0057      0.0108      0.0077      0.0099      0.0093      0.0412      0.0069
  6      0.0000      0.0034      0.0000      0.0009      0.0012      0.0100      0.0334      0.0000      0.0129
  7      0.0000      0.0029      0.0097      0.0165      0.0061      0.0062      0.0123      0.0003      0.0000
  8      0.0000      0.0042      0.0093      0.0041      0.0173      0.0107      0.0072      0.0005      0.0000
  9      0.0000      0.0029      0.0022      0.0000      0.0102      0.0004      0.0021      0.0107      0.0000
 10      0.0000      0.0033      0.0166      0.0143      0.0000      0.0006      0.0014      0.0046      0.0011
 11      0.0000      0.0037      0.0070      0.0023      0.0382      0.0083      0.0000      0.0000      0.0000
 12      0.0000      0.0031      0.0036      0.0053      0.0000      0.0098      0.0024      0.0057      0.0157
 13      0.0000      0.0024      0.0008      0.0031      0.0083      0.0021      0.0038      0.0062      0.0036
 14      0.0000      0.0026      0.0000      0.0123      0.0006      0.0127      0.0000      0.0029      0.0183
 15      0.0000      0.0036      0.0130      0.0000      0.0000      0.0032      0.0170      0.0010      0.0313
 16      0.0000      0.0023      0.0000      0.0057      0.0046      0.0000      0.0031      0.0002      0.0018
 17      0.0000      0.0027      0.0000      0.0179      0.0035      0.0030      0.0192      0.0100      0.0000
 18      0.0000      0.0040      0.0040      0.0140      0.0228      0.0000      0.0098      0.0164      0.0371
 19      0.0000      0.0026      0.0101      0.0045      0.0255      0.0000      0.0063      0.0000      0.0000
 20      0.0000      0.0027      0.0000      0.0045      0.0031      0.0100      0.0028      0.0076      0.0036
 21      0.0000      0.0035      0.0013      0.0176      0.0035      0.0070      0.0240      0.0000      0.0023
 22      0.0000      0.0039      0.0000      0.0128      0.0139      0.0000      0.0087      0.0099      0.0051
 23      0.0000      0.0025      0.0000      0.0098      0.0000      0.0024      0.0000      0.0000      0.0000
 24      0.0000      0.0028      0.0000      0.0088      0.0009      0.0029      0.0045      0.0000      0.0000
 25      0.0000      0.0029      0.0108      0.0085      0.0110      0.0101      0.0094      0.0000      0.0000
 26      0.0000      0.0027      0.0023      0.0000      0.0058      0.0072      0.0000      0.0000      0.0162
 27      0.0000      0.0030      0.0046      0.0196      0.0052      0.0015      0.0048      0.0164      0.0177
 28      0.0000      0.0043      0.0082      0.0000      0.0035      0.0091      0.0025      0.0227      0.0000
 29      0.0000      0.0023      0.0145      0.0132      0.0052      0.0086      0.0042      0.0000      0.0024
 30      0.0000      0.0033      0.0065      0.0024      0.0000      0.0000      0.0034      0.0027      0.0121
 31      0.0000      0.0039      0.0025      0.0117      0.0066      0.0000      0.0012      0.0227      0.0148
 32      0.0000      0.0034      0.0154      0.0172      0.0105      0.0056      0.0322      0.0134      0.0093
 33      0.0000      0.0031      0.0028      0.0058      0.0000      0.0107      0.0211      0.0106      0.0169
 34      0.0000      0.0027      0.0000      0.0088      0.0019      0.0064      0.0054      0.0186      0.0035
 35      0.0000      0.0036      0.0141      0.0017      0.0074      0.0480      0.0000      0.0198      0.0106
 36      0.0000      0.0037      0.0121      0.0098      0.0102      0.0089      0.0177      0.0162      0.0038
 37      0.0000      0.0034      0.0035      0.0074      0.0031      0.0000      0.0000      0.0053      0.0175
 38      0.0000      0.0036      0.0221      0.0066      0.0154      0.0000      0.0067      0.0022      0.0171
 39      0.0000      0.0033      0.0000      0.0101      0.0047      0.0022      0.0114      0.0000      0.0000
 40      0.0000      0.0039      0.0131      0.0000      0.0031      0.0000      0.0072      0.0192      0.0043
 41      0.0000      0.0031      0.0071      0.0000      0.0000      0.0082      0.0134      0.0102      0.0056
 42      0.0000      0.0043      0.0000      0.0096      0.0141      0.0042      0.0224      0.0037      0.0000
 43      0.0000      0.0028      0.0095      0.0034      0.0084      0.0026      0.0124      0.0015      0.0110
 44      0.0000      0.0036      0.0064      0.0271      0.0045      0.0102      0.0063      0.0010      0.0000
 45      0.0000      0.0033      0.0010      0.0094      0.0000      0.0003      0.0145      0.0000      0.0205
 46      0.0000      0.0025      0.0000      0.0000      0.0023      0.0000      0.0059      0.0070      0.0134
