###################################################################
## OUTPUT of StarlightChains_v04.for    [Cid@UFSC - 01/Apr/2007] ##
###################################################################

## Some input info
KUG0210-078._27_36.txt                   [arq_obs]
Base.CB07.vall.4m                        [arq_base]
Masks.EmLines.NEW.gm                     [arq_masks]
StCv04.C11.config                        [arq_config]
   66                                    [N_base]
    0                                    [N_YAV_components = # of components with extra extinction!]
    0                                    [i_FitPowerLaw (1/0 = Yes/No)]
-9.99                                    [alpha_PowerLaw]
CCM                                      [red_law_option]
 1.458241                                [q_norm = A(l_norm)/A(V)]

## (Re)Sampling Parameters
 3741.00                                 [l_ini (A)]
 7218.00                                 [l_fin (A)]
    1.00                                 [dl    (A)]     (OBS: dl_cushion =    50.00 A)

## Normalization info
 4020.00                                 [l_norm (A) - for base]
 4010.00                                 [llow_norm (A) - window for f_obs]
 4060.00                                 [lupp_norm (A) - window for f_obs]
7.304383E-17                             [fobs_norm (in input units)]

## S/N
 3691.00                                 [llow_SN (A) - window for S/N]
 7268.00                                 [lupp_SN (A) - window for S/N]
   5.548                                 [S/N in S/N window]
   3.895                                 [S/N in norm. window]
   0.161                                 [S/N_err in S/N window]
   0.113                                 [S/N_err in norm. window]
  1.0000                                 [fscale_chi2]

## etc...
    -2007356                             [idum_orig]
  2432                                   [NOl_eff]
  2428                                   [Nl_eff]
     4    NSIGMA                         [Ntot_cliped & clip_method]
  4154640                                [Nglobal_steps]
   7                                     [N_chains]
  42                                     [NEX0s_base = N_base in EX0s-fits]
 0   0   1        4   2.0   5.947E+03    [Clip-Bug, RC-Crash & Burn-In warning-flags, n_censored_weights, wei_nsig_threshold & wei_limit]
   107    107.133    106.624      0.509  [idt_all, wdt_TotTime, wdt_UsrTime & wdt_SysTime (sec)]

## Synthesis Results - Best model ##

 2.60399E-04                             [chi2/Nl_eff]
     7.06778                             [adev (%)]

   124.16702                             [sum-of-x (%)]
 1.93095E-16                             [Flux_tot (units of input spectrum!)]
 2.62597E-12                             [Mini_tot (???)]
 1.43303E-12                             [Mcor_tot (???)]

 111.84                                  [v0_min  (km/s)]
 187.64                                  [vd_min  (km/s)]
 0.5626                                  [AV_min  (mag)]
 0.0000                                  [YAV_min (mag)]

# j     x_j(%)      Mini_j(%)     Mcor_j(%)     age_j(yr)     Z_j      (L/M)_j    YAV?  Mstars   component_j        a/Fe...       SSP_chi2r SSP_adev(%)   SSP_AV   SSP_x(%)
  1      0.0000     0.0000E+00    0.0000E+00    1.000000E+06  0.00400  1.094E-02    0   1.0000   age020_m42            0.0000     4.3942E-04     8.8027   3.7191   104.0133
  2      0.0000     0.0000E+00    0.0000E+00    3.160000E+06  0.00400  4.007E-02    0   0.9999   age045_m42            0.0000     3.5786E-04     7.9843   2.9845   111.4920
  3      0.0000     0.0000E+00    0.0000E+00    5.010000E+06  0.00400  2.539E-02    0   0.9488   age055_m42            0.0000     3.9304E-04     8.3395   3.3089   108.5878
  4      0.3691     8.3438E-04    1.4097E-03    6.610000E+06  0.00400  2.620E-02    0   0.9220   age061_m42            0.0000     3.6658E-04     8.0820   2.9128   111.6309
  5      0.0000     0.0000E+00    0.0000E+00    1.000000E+07  0.00400  1.322E-02    0   0.8862   age070_m42            0.0000     4.3581E-04     8.9799   2.6475   113.1819
  6      0.0000     0.0000E+00    0.0000E+00    1.445000E+07  0.00400  7.883E-03    0   0.8571   age078_m42            0.0000     4.4026E-04     8.9072   2.9727   110.3906
  7      0.0000     0.0000E+00    0.0000E+00    2.512000E+07  0.00400  5.251E-03    0   0.8174   age090_m42            0.0000     4.4934E-04     9.2078   2.5204   113.6886
  8      2.7946     4.5354E-02    6.5249E-02    4.000000E+07  0.00400  3.649E-03    0   0.7851   age104_m42            0.0000     4.2899E-04     9.0563   2.2889   114.8538
  9      0.0000     0.0000E+00    0.0000E+00    5.500000E+07  0.00400  3.098E-03    0   0.7629   age110_m42            0.0000     3.9420E-04     8.5514   2.4346   115.2231
 10      0.0000     0.0000E+00    0.0000E+00    1.015200E+08  0.00400  2.228E-03    0   0.7207   age116_m42            0.0000     3.8141E-04     8.3212   2.4501   115.6575
 11      0.0000     0.0000E+00    0.0000E+00    2.861200E+08  0.00400  1.093E-03    0   0.6648   age125_m42            0.0000     3.9609E-04     8.3070   1.8773   119.0266
 12      0.0000     0.0000E+00    0.0000E+00    5.088000E+08  0.00400  6.597E-04    0   0.6365   age130_m42            0.0000     3.7071E-04     7.9849   1.8604   120.4514
 13      3.2364     8.9899E-01    9.5515E-01    1.434000E+09  0.00400  2.132E-04    0   0.5798   age139_m42            0.0000     3.1650E-04     7.8027   0.8861   123.2709
 14      0.0000     0.0000E+00    0.0000E+00    4.250000E+09  0.00400  5.895E-05    0   0.5377   age158_m42            0.0000     2.6940E-04     7.2538   0.4347   119.2150
 15      9.3052     1.5700E+01    1.4995E+01    7.500000E+09  0.00400  3.510E-05    0   0.5212   age171_m42            0.0000     2.7252E-04     7.0514   0.2402   118.7119
 16      0.5698     1.6829E+00    1.5524E+00    1.300000E+10  0.00400  2.005E-05    0   0.5034   age193_m42            0.0000     2.8423E-04     6.9252   0.0702   118.2617
 17      6.7030     2.6030E+01    2.3692E+01    1.800000E+10  0.00400  1.525E-05    0   0.4967   age213_m42            0.0000     2.8166E-04     6.9765   0.0490   117.6794
 18      0.0000     0.0000E+00    0.0000E+00    1.000000E+06  0.00800  1.238E-02    0   1.0000   age020_m52            0.0000     4.3993E-04     8.8101   3.7154   104.2197
 19      1.0330     1.9901E-03    3.6343E-03    3.160000E+06  0.00800  3.074E-02    0   0.9966   age045_m52            0.0000     4.3205E-04     8.7645   3.6375   105.2196
 20      0.0000     0.0000E+00    0.0000E+00    5.010000E+06  0.00800  2.668E-02    0   0.9443   age055_m52            0.0000     4.0553E-04     8.4994   3.3939   107.5343
 21      0.0000     0.0000E+00    0.0000E+00    6.610000E+06  0.00800  2.136E-02    0   0.9177   age061_m52            0.0000     4.0751E-04     8.9360   2.1478   114.6417
 22      0.0000     0.0000E+00    0.0000E+00    1.000000E+07  0.00800  1.215E-02    0   0.8827   age070_m52            0.0000     4.6550E-04     9.2119   2.8293   112.7201
 23      0.0000     0.0000E+00    0.0000E+00    1.445000E+07  0.00800  8.717E-03    0   0.8552   age078_m52            0.0000     4.3648E-04     8.9495   2.9394   111.8851
 24      0.0000     0.0000E+00    0.0000E+00    2.512000E+07  0.00800  5.592E-03    0   0.8162   age090_m52            0.0000     4.4894E-04     9.1916   2.5817   115.0833
 25      0.0000     0.0000E+00    0.0000E+00    4.000000E+07  0.00800  3.896E-03    0   0.7841   age104_m52            0.0000     4.1808E-04     8.8401   2.4885   116.2143
 26      0.0000     0.0000E+00    0.0000E+00    1.015200E+08  0.00800  2.148E-03    0   0.7226   age116_m52            0.0000     3.8154E-04     8.3992   2.4199   116.4241
 27      0.0000     0.0000E+00    0.0000E+00    2.861200E+08  0.00800  9.925E-04    0   0.6683   age125_m52            0.0000     3.7613E-04     8.1112   1.9253   121.5552
 28      0.0000     0.0000E+00    0.0000E+00    9.047900E+08  0.00800  3.141E-04    0   0.6138   age135_m52            0.0000     3.1301E-04     7.4026   1.1094   127.5940
 29     22.4194     7.7237E+00    8.2840E+00    1.434000E+09  0.00800  1.719E-04    0   0.5853   age139_m52            0.0000     2.7275E-04     7.1698   0.5279   125.1258
 30      0.0000     0.0000E+00    0.0000E+00    2.500000E+09  0.00800  7.872E-05    0   0.5600   age150_m52            0.0000     2.6467E-04     6.9229   0.2511   122.4172
 31      5.2971     7.2348E+00    7.1936E+00    4.250000E+09  0.00800  4.336E-05    0   0.5426   age158_m52            0.0000     2.6795E-04     6.8609   0.2363   121.2763
 32      1.5307     2.8695E+00    2.7969E+00    6.250000E+09  0.00800  3.159E-05    0   0.5319   age166_m52            0.0000     2.8640E-04     6.9089   0.0255   121.6968
 33      0.0000     0.0000E+00    0.0000E+00    1.300000E+10  0.00800  1.361E-05    0   0.5073   age193_m52            0.0000     3.3346E-04     7.4056  -0.4523   121.3994
 34      0.0000     0.0000E+00    0.0000E+00    1.800000E+10  0.00800  9.886E-06    0   0.4990   age213_m52            0.0000     3.6820E-04     7.7397  -0.5712   121.3016
 35      0.0000     0.0000E+00    0.0000E+00    1.000000E+06  0.02000  1.544E-02    0   1.0000   age020_m62            0.0000     4.4385E-04     8.8450   3.7118   104.4542
 36      5.6807     8.9425E-03    1.6154E-02    3.160000E+06  0.02000  3.762E-02    0   0.9858   age045_m62            0.0000     4.4217E-04     8.8484   3.6499   105.4142
 37      0.0000     0.0000E+00    0.0000E+00    5.010000E+06  0.02000  3.296E-02    0   0.9342   age055_m62            0.0000     3.7936E-04     8.2252   3.2668   110.0347
 38      0.0000     0.0000E+00    0.0000E+00    8.710000E+06  0.02000  1.154E-02    0   0.8861   age067_m62            0.0000     7.4961E-04    12.1633   2.3022   114.4614
 39      0.0000     0.0000E+00    0.0000E+00    1.445000E+07  0.02000  7.663E-03    0   0.8472   age078_m62            0.0000     5.1984E-04     9.8276   2.4775   115.0082
 40      0.0000     0.0000E+00    0.0000E+00    2.512000E+07  0.02000  4.532E-03    0   0.8099   age090_m62            0.0000     5.3589E-04     9.9468   2.4702   114.5941
 41      0.3223     6.9846E-03    9.7208E-03    5.500000E+07  0.02000  2.733E-03    0   0.7595   age110_m62            0.0000     4.2312E-04     8.8898   2.4730   115.3210
 42      0.0000     0.0000E+00    0.0000E+00    1.609000E+08  0.02000  1.369E-03    0   0.6985   age120_m62            0.0000     3.9583E-04     8.4651   2.2994   119.0878
 43      0.0000     0.0000E+00    0.0000E+00    2.861200E+08  0.02000  9.013E-04    0   0.6714   age125_m62            0.0000     4.0122E-04     8.4608   2.0422   122.8948
 44      0.0000     0.0000E+00    0.0000E+00    5.088000E+08  0.02000  5.028E-04    0   0.6449   age130_m62            0.0000     3.5891E-04     7.8112   1.6484   127.0538
 45      0.0000     0.0000E+00    0.0000E+00    9.047900E+08  0.02000  2.428E-04    0   0.6179   age135_m62            0.0000     2.8333E-04     7.1581   1.0504   126.9949
 46      0.9719     4.5572E-01    4.9337E-01    1.434000E+09  0.02000  1.263E-04    0   0.5908   age139_m62            0.0000     2.7089E-04     7.0306   0.6038   125.3586
 47     10.2614     1.0154E+01    1.0555E+01    2.500000E+09  0.02000  5.985E-05    0   0.5673   age150_m62            0.0000     2.8263E-04     6.9743   0.2269   124.2474
 48      0.0000     0.0000E+00    0.0000E+00    4.250000E+09  0.02000  3.271E-05    0   0.5468   age158_m62            0.0000     3.2366E-04     7.4247  -0.0902   123.8107
 49      0.0000     0.0000E+00    0.0000E+00    1.000000E+10  0.02000  1.360E-05    0   0.5167   age181_m62            0.0000     3.9915E-04     8.1472  -0.4560   124.1249
 50      0.0000     0.0000E+00    0.0000E+00    1.800000E+10  0.02000  7.124E-06    0   0.5013   age213_m62            0.0000     4.6688E-04     8.8025  -0.6812   123.8213
 51      0.0000     0.0000E+00    0.0000E+00    1.000000E+06  0.05000  2.592E-02    0   0.9998   age020_m72            0.0000     4.5660E-04     8.9707   3.7044   104.4470
 52      0.0000     0.0000E+00    0.0000E+00    3.160000E+06  0.05000  4.845E-02    0   0.9577   age045_m72            0.0000     4.1147E-04     8.5513   3.5300   106.9440
 53      0.0000     0.0000E+00    0.0000E+00    5.010000E+06  0.05000  3.072E-02    0   0.9147   age055_m72            0.0000     4.6576E-04     8.7598   3.0510   111.0845
 54      0.0000     0.0000E+00    0.0000E+00    6.610000E+06  0.05000  1.455E-02    0   0.8877   age061_m72            0.0000     9.6826E-04    13.9047   2.3259   115.2179
 55      0.0000     0.0000E+00    0.0000E+00    1.000000E+07  0.05000  9.074E-03    0   0.8524   age070_m72            0.0000     4.8688E-04     8.4260   3.2125   111.0637
 56      0.0000     0.0000E+00    0.0000E+00    2.512000E+07  0.05000  4.250E-03    0   0.7902   age090_m72            0.0000     4.5680E-04     8.5893   2.9238   113.0521
 57      0.0000     0.0000E+00    0.0000E+00    4.000000E+07  0.05000  3.087E-03    0   0.7618   age104_m72            0.0000     4.7284E-04     8.9151   2.6986   114.8229
 58      0.0000     0.0000E+00    0.0000E+00    1.015200E+08  0.05000  1.700E-03    0   0.7096   age116_m72            0.0000     4.1905E-04     8.6155   2.4428   118.3975
 59      0.7792     6.2494E-02    7.5960E-02    2.861200E+08  0.05000  7.384E-04    0   0.6633   age125_m72            0.0000     3.7185E-04     8.0968   1.9002   125.1271
 60      0.0000     0.0000E+00    0.0000E+00    5.088000E+08  0.05000  3.819E-04    0   0.6372   age130_m72            0.0000     3.0691E-04     7.5076   1.3940   128.0699
 61     44.8270     1.5840E+01    1.7735E+01    9.047900E+08  0.05000  1.676E-04    0   0.6110   age135_m72            0.0000     2.7724E-04     7.0941   0.6828   126.7692
 62      0.0000     0.0000E+00    0.0000E+00    1.434000E+09  0.05000  8.837E-05    0   0.5874   age139_m72            0.0000     2.9299E-04     7.1142   0.2201   126.3574
 63      8.0660     1.1285E+01    1.1576E+01    2.500000E+09  0.05000  4.233E-05    0   0.5598   age150_m72            0.0000     3.3835E-04     7.6346  -0.0988   125.2699
 64      0.0000     0.0000E+00    0.0000E+00    6.250000E+09  0.05000  1.435E-05    0   0.5249   age166_m72            0.0000     4.1015E-04     8.4773  -0.5616   124.0283
 65      0.0000     0.0000E+00    0.0000E+00    1.300000E+10  0.05000  6.513E-06    0   0.5036   age193_m72            0.0000     5.1229E-04     9.4044  -0.8572   125.8639
 66      0.0000     0.0000E+00    0.0000E+00    1.800000E+10  0.05000  4.527E-06    0   0.4945   age213_m72            0.0000     5.7881E-04     9.9803  -1.0000   124.9342


## Synthesis Results - Average & Chains ##

# j      x_j: min, <> & last-chain-values for 1 ...  7 chains
  1      0.0000      1.2442      1.1206      1.1986      2.6657      0.0000      1.2077      3.7804      1.1704
  2      0.0000      1.0544      0.1922      0.0026      1.5100      0.4563      0.0893      0.0000      0.0178
  3      0.0000      1.0541      4.4631      0.0273      0.0000      0.1424      0.0000      0.9272      0.0045
  4      0.3691      1.2781      0.5126      0.0455      0.0000      0.6275      0.0690      1.5127      0.0000
  5      0.0000      1.2994      0.0000      0.1548      0.0000      0.0000      0.1739      0.2549      0.1464
  6      0.0000      1.6096      3.8296      0.0000      3.9095      0.2453      0.0000      0.0000      0.0309
  7      0.0000      1.2272      3.3879      0.1914      1.5152      0.0000      0.1891      0.0000      0.2309
  8      2.7946      1.1786      0.0000      1.2937      0.0000      1.4388      1.3220      1.7578      1.2580
  9      0.0000      1.2804      0.5654      0.1912      0.0000      0.0000      0.2793      4.9948      0.1639
 10      0.0000      1.1089      1.1191      0.0941      0.8119      1.3970      0.0999      0.0000      0.1873
 11      0.0000      1.3937      0.0000      0.0446      0.5382      0.0000      0.0000      0.0000      0.0000
 12      0.0000      1.3556      0.0000      0.0363      0.1824      0.3824      0.0812      3.8150      0.0451
 13      3.2364      1.9807      4.4349      2.1360      0.0000      0.8082      2.1329      2.2162      2.0174
 14      0.0000      1.2572      0.7929      0.0000      0.9764      1.3745      0.0000      0.1793      0.0458
 15      9.3052      1.1076      2.8489      0.1070      2.0973      0.0000      0.0000      5.4931      0.0000
 16      0.5698      1.4154      0.1419      0.0000      0.0000      1.0269      0.0000      8.1986      0.0000
 17      6.7030      1.9418      5.7522      0.0000      3.6014      0.0000      0.0000      1.5332      0.0000
 18      0.0000      1.4587      0.6972      1.5509      0.0000      1.3253      1.3895      0.4510      1.4627
 19      1.0330      1.4130      0.0000      1.8053      4.8856      1.7732      1.7042      3.3155      1.8885
 20      0.0000      1.1359      0.0000      0.0373      0.0000      0.2385      0.0510      1.9704      0.2776
 21      0.0000      1.0418      1.1905      0.0726      4.2715      0.0726      0.1179      1.7268      0.0741
 22      0.0000      1.3152      0.6224      0.0274      0.0000      0.0000      0.0297      2.5045      0.0111
 23      0.0000      0.9997      0.4163      0.2076      0.2998      0.0000      0.2986      1.5409      0.3236
 24      0.0000      1.4326      0.0000      0.3522      3.5145      1.3500      1.2295      0.0000      0.0000
 25      0.0000      1.4393      4.8787      3.5717      0.0000      2.4819      2.5729      0.1664      2.7890
 26      0.0000      1.0488      9.7771      2.1325      0.0000      1.3582      2.3677      0.8831      2.0160
 27      0.0000      1.5181      0.0882      0.4035      4.0765      0.7389      0.4811      0.4494      0.4009
 28      0.0000      1.1659      3.9304      0.0000      2.8909      0.8394      0.0639      0.3875      0.0506
 29     22.4194      1.5095      1.1287      0.0172      3.5331      0.0000      0.0000      5.7926      0.0000
 30      0.0000      1.3295      8.1363      0.8603      1.7697      2.0345      0.1684      0.0000      1.7747
 31      5.2971      1.2282      3.5343      0.0501      1.2171      0.0000      0.5620      1.6517      0.0000
 32      1.5307      1.9002      0.6500      0.0000      0.0295      0.3601      0.0840      0.8838      0.0000
 33      0.0000      1.6247      0.0000      1.5096      3.2412      4.2118      1.9886      8.7236      1.5055
 34      0.0000      1.9918      0.0000      2.6257      3.4435      2.6678      3.1853      3.7256      2.6704
 35      0.0000      1.0180      1.2227      0.2470      1.2719      0.0000      0.3433      1.7966      0.1979
 36      5.6807      1.0518      0.0000      0.7685      2.2977      0.2888      0.7552      1.2256      0.8318
 37      0.0000      1.4628      0.3656      0.1020      0.0000      1.1995      0.0558      1.5641      0.0000
 38      0.0000      1.1362      0.0000      0.0000      0.5594      0.0239      0.0430      0.3228      0.0088
 39      0.0000      1.0651      0.4544      0.0000      0.0000      0.1684      0.0206      0.6613      0.0677
 40      0.0000      2.0865      0.3085      3.3207      0.0000      3.0944      3.4682      0.0000      3.1323
 41      0.3223      1.1063      0.0000      0.2726      0.0000      0.6290      0.2642      1.5654      0.2456
 42      0.0000      1.2709      0.6968      0.2116      0.1340      0.4595      0.2116      0.0000      0.1805
 43      0.0000      1.3708      3.9523      0.0604      0.5968      0.0000      0.0000      0.0000      0.0727
 44      0.0000      1.1160      4.1446      0.1388      4.1206      1.3773      0.2557      0.0000      0.2427
 45      0.0000      1.2795      0.0000      0.1413      0.0000      0.0849      0.0036      2.9187      0.0576
 46      0.9719      1.5947      2.4832      3.0110      0.3668      4.7662      2.7451      1.9855      2.6395
