###################################################################
## OUTPUT of StarlightChains_v04.for    [Cid@UFSC - 01/Apr/2007] ##
###################################################################

## Some input info
KUG0210-078._38_49.txt                   [arq_obs]
Base.CB07.vall.4m                        [arq_base]
Masks.EmLines.NEW.gm                     [arq_masks]
StCv04.C11.config                        [arq_config]
   66                                    [N_base]
    0                                    [N_YAV_components = # of components with extra extinction!]
    0                                    [i_FitPowerLaw (1/0 = Yes/No)]
-9.99                                    [alpha_PowerLaw]
CCM                                      [red_law_option]
 1.458241                                [q_norm = A(l_norm)/A(V)]

## (Re)Sampling Parameters
 3741.00                                 [l_ini (A)]
 7218.00                                 [l_fin (A)]
    1.00                                 [dl    (A)]     (OBS: dl_cushion =    50.00 A)

## Normalization info
 4020.00                                 [l_norm (A) - for base]
 4010.00                                 [llow_norm (A) - window for f_obs]
 4060.00                                 [lupp_norm (A) - window for f_obs]
6.982644E-18                             [fobs_norm (in input units)]

## S/N
 3691.00                                 [llow_SN (A) - window for S/N]
 7268.00                                 [lupp_SN (A) - window for S/N]
   3.959                                 [S/N in S/N window]
   3.967                                 [S/N in norm. window]
   0.008                                 [S/N_err in S/N window]
   0.008                                 [S/N_err in norm. window]
  1.0000                                 [fscale_chi2]

## etc...
    -2007674                             [idum_orig]
  2358                                   [NOl_eff]
  2312                                   [Nl_eff]
    46    NSIGMA                         [Ntot_cliped & clip_method]
  1619730                                [Nglobal_steps]
   7                                     [N_chains]
  30                                     [NEX0s_base = N_base in EX0s-fits]
 0   0   1       46   2.0   2.036E+03    [Clip-Bug, RC-Crash & Burn-In warning-flags, n_censored_weights, wei_nsig_threshold & wei_limit]
    24     23.530     22.760      0.770  [idt_all, wdt_TotTime, wdt_UsrTime & wdt_SysTime (sec)]

## Synthesis Results - Best model ##

 1.51778E-05                             [chi2/Nl_eff]
    48.13463                             [adev (%)]

   113.72941                             [sum-of-x (%)]
 1.41018E-17                             [Flux_tot (units of input spectrum!)]
 3.80994E-13                             [Mini_tot (???)]
 1.93711E-13                             [Mcor_tot (???)]

 127.31                                  [v0_min  (km/s)]
  80.47                                  [vd_min  (km/s)]
 0.4275                                  [AV_min  (mag)]
 0.0000                                  [YAV_min (mag)]

# j     x_j(%)      Mini_j(%)     Mcor_j(%)     age_j(yr)     Z_j      (L/M)_j    YAV?  Mstars   component_j        a/Fe...       SSP_chi2r SSP_adev(%)   SSP_AV   SSP_x(%)
  1      0.0000     0.0000E+00    0.0000E+00    1.000000E+06  0.00400  1.094E-02    0   1.0000   age020_m42            0.0000     1.6147E-05    50.2904   2.4227   102.6674
  2      0.0000     0.0000E+00    0.0000E+00    3.160000E+06  0.00400  4.007E-02    0   0.9999   age045_m42            0.0000     1.6766E-05    50.7181   1.6918   109.9986
  3      2.8222     3.6175E-03    6.7507E-03    5.010000E+06  0.00400  2.539E-02    0   0.9488   age055_m42            0.0000     1.6526E-05    50.5501   2.0148   107.0741
  4      0.0000     0.0000E+00    0.0000E+00    6.610000E+06  0.00400  2.620E-02    0   0.9220   age061_m42            0.0000     1.6820E-05    50.2798   1.6385   110.0539
  5      0.0000     0.0000E+00    0.0000E+00    1.000000E+07  0.00400  1.322E-02    0   0.8862   age070_m42            0.0000     1.6223E-05    48.4468   1.4804   110.8596
  6      0.0000     0.0000E+00    0.0000E+00    1.445000E+07  0.00400  7.883E-03    0   0.8571   age078_m42            0.0000     1.6094E-05    48.5192   1.7878   108.1262
  7     25.3864     1.5734E-01    2.5295E-01    2.512000E+07  0.00400  5.251E-03    0   0.8174   age090_m42            0.0000     1.6162E-05    48.1972   1.3767   111.2416
  8      0.0000     0.0000E+00    0.0000E+00    4.000000E+07  0.00400  3.649E-03    0   0.7851   age104_m42            0.0000     1.6245E-05    48.3349   1.1447   112.5271
  9      0.0000     0.0000E+00    0.0000E+00    5.500000E+07  0.00400  3.098E-03    0   0.7629   age110_m42            0.0000     1.6744E-05    48.8270   1.2475   113.1389
 10      0.0000     0.0000E+00    0.0000E+00    1.015200E+08  0.00400  2.228E-03    0   0.7207   age116_m42            0.0000     1.7249E-05    49.1907   1.2379   113.6732
 11      0.0000     0.0000E+00    0.0000E+00    2.861200E+08  0.00400  1.093E-03    0   0.6648   age125_m42            0.0000     1.7619E-05    49.0390   0.7102   116.1780
 12      0.0000     0.0000E+00    0.0000E+00    5.088000E+08  0.00400  6.597E-04    0   0.6365   age130_m42            0.0000     1.8292E-05    49.4912   0.6563   117.9071
 13      0.3239     4.9443E-02    5.6382E-02    1.434000E+09  0.00400  2.132E-04    0   0.5798   age139_m42            0.0000     1.7793E-05    48.8334  -0.2708   121.3483
 14      0.0000     0.0000E+00    0.0000E+00    4.250000E+09  0.00400  5.895E-05    0   0.5377   age158_m42            0.0000     1.7363E-05    49.9803  -0.7783   118.2231
 15      7.4764     6.9322E+00    7.1062E+00    7.500000E+09  0.00400  3.510E-05    0   0.5212   age171_m42            0.0000     1.7547E-05    50.3142  -0.9811   118.0113
 16      0.0000     0.0000E+00    0.0000E+00    1.300000E+10  0.00400  2.005E-05    0   0.5034   age193_m42            0.0000     1.7877E-05    47.3254  -1.0000   113.4492
 17      0.0000     0.0000E+00    0.0000E+00    1.800000E+10  0.00400  1.525E-05    0   0.4967   age213_m42            0.0000     1.7838E-05    46.7516  -1.0000   112.2505
 18      0.0000     0.0000E+00    0.0000E+00    1.000000E+06  0.00800  1.238E-02    0   1.0000   age020_m52            0.0000     1.6170E-05    50.2439   2.4191   102.8407
 19     42.1187     4.4592E-02    8.7406E-02    3.160000E+06  0.00800  3.074E-02    0   0.9966   age045_m52            0.0000     1.6231E-05    50.2689   2.3414   103.7916
 20      0.0000     0.0000E+00    0.0000E+00    5.010000E+06  0.00800  2.668E-02    0   0.9443   age055_m52            0.0000     1.6291E-05    50.0061   2.1176   106.0217
 21      0.0000     0.0000E+00    0.0000E+00    6.610000E+06  0.00800  2.136E-02    0   0.9177   age061_m52            0.0000     1.5686E-05    48.2958   0.9985   112.5386
 22      0.0000     0.0000E+00    0.0000E+00    1.000000E+07  0.00800  1.215E-02    0   0.8827   age070_m52            0.0000     1.5996E-05    48.1294   1.6859   110.1692
 23      0.0000     0.0000E+00    0.0000E+00    1.445000E+07  0.00800  8.717E-03    0   0.8552   age078_m52            0.0000     1.6124E-05    48.4591   1.7576   109.6347
 24      0.0000     0.0000E+00    0.0000E+00    2.512000E+07  0.00800  5.592E-03    0   0.8162   age090_m52            0.0000     1.6204E-05    48.0854   1.4479   112.4975
 25      0.0000     0.0000E+00    0.0000E+00    4.000000E+07  0.00800  3.896E-03    0   0.7841   age104_m52            0.0000     1.6460E-05    48.2935   1.3387   113.7176
 26      0.0000     0.0000E+00    0.0000E+00    1.015200E+08  0.00800  2.148E-03    0   0.7226   age116_m52            0.0000     1.6955E-05    48.6366   1.2365   114.1706
 27      0.0000     0.0000E+00    0.0000E+00    2.861200E+08  0.00800  9.925E-04    0   0.6683   age125_m52            0.0000     1.8066E-05    48.9263   0.7455   119.0879
 28      0.0000     0.0000E+00    0.0000E+00    9.047900E+08  0.00800  3.141E-04    0   0.6138   age135_m52            0.0000     1.8610E-05    49.5882  -0.0825   125.7231
 29      0.0000     0.0000E+00    0.0000E+00    1.434000E+09  0.00800  1.719E-04    0   0.5853   age139_m52            0.0000     1.7606E-05    49.2918  -0.6350   123.7552
 30      0.0000     0.0000E+00    0.0000E+00    2.500000E+09  0.00800  7.872E-05    0   0.5600   age150_m52            0.0000     1.7826E-05    50.3207  -0.9656   121.9021
 31      0.0000     0.0000E+00    0.0000E+00    4.250000E+09  0.00800  4.336E-05    0   0.5426   age158_m52            0.0000     1.7781E-05    50.4360  -0.9868   120.8724
 32      0.0000     0.0000E+00    0.0000E+00    6.250000E+09  0.00800  3.159E-05    0   0.5319   age166_m52            0.0000     1.8463E-05    46.4286  -1.0000   115.6056
 33      0.0000     0.0000E+00    0.0000E+00    1.300000E+10  0.00800  1.361E-05    0   0.5073   age193_m52            0.0000     2.1060E-05    41.3023  -1.0000   101.6609
 34      0.0000     0.0000E+00    0.0000E+00    1.800000E+10  0.00800  9.886E-06    0   0.4990   age213_m52            0.0000     2.2470E-05    40.7244  -1.0000    97.8086
 35      0.0000     0.0000E+00    0.0000E+00    1.000000E+06  0.02000  1.544E-02    0   1.0000   age020_m62            0.0000     1.6191E-05    50.1125   2.4191   102.9747
 36      0.0000     0.0000E+00    0.0000E+00    3.160000E+06  0.02000  3.762E-02    0   0.9858   age045_m62            0.0000     1.6244E-05    50.3890   2.3496   104.0741
 37      0.0000     0.0000E+00    0.0000E+00    5.010000E+06  0.02000  3.296E-02    0   0.9342   age055_m62            0.0000     1.6624E-05    50.4425   1.9741   108.7088
 38      0.3568     1.0063E-03    1.7537E-03    8.710000E+06  0.02000  1.154E-02    0   0.8861   age067_m62            0.0000     1.5383E-05    49.5103   1.3497   110.9855
 39      0.0000     0.0000E+00    0.0000E+00    1.445000E+07  0.02000  7.663E-03    0   0.8472   age078_m62            0.0000     1.5683E-05    48.2309   1.3985   112.0246
 40      0.0000     0.0000E+00    0.0000E+00    2.512000E+07  0.02000  4.532E-03    0   0.8099   age090_m62            0.0000     1.5783E-05    48.2329   1.4050   111.5079
 41      0.0000     0.0000E+00    0.0000E+00    5.500000E+07  0.02000  2.733E-03    0   0.7595   age110_m62            0.0000     1.6344E-05    48.0624   1.3319   112.8314
 42      0.0000     0.0000E+00    0.0000E+00    1.609000E+08  0.02000  1.369E-03    0   0.6985   age120_m62            0.0000     1.7554E-05    48.5152   1.1227   116.6616
 43      0.0000     0.0000E+00    0.0000E+00    2.861200E+08  0.02000  9.013E-04    0   0.6714   age125_m62            0.0000     1.8438E-05    48.6104   0.8624   120.4172
 44      0.0000     0.0000E+00    0.0000E+00    5.088000E+08  0.02000  5.028E-04    0   0.6449   age130_m62            0.0000     1.9059E-05    49.7009   0.4265   125.2408
 45      0.0000     0.0000E+00    0.0000E+00    9.047900E+08  0.02000  2.428E-04    0   0.6179   age135_m62            0.0000     1.8302E-05    49.7696  -0.1652   125.8735
 46      0.0000     0.0000E+00    0.0000E+00    1.434000E+09  0.02000  1.263E-04    0   0.5908   age139_m62            0.0000     1.7871E-05    49.6247  -0.6006   124.7236
 47      0.0000     0.0000E+00    0.0000E+00    2.500000E+09  0.02000  5.985E-05    0   0.5673   age150_m62            0.0000     1.8158E-05    50.4952  -1.0000   124.2236
 48      1.5046     1.4970E+00    1.6100E+00    4.250000E+09  0.02000  3.271E-05    0   0.5468   age158_m62            0.0000     1.9558E-05    44.5017  -1.0000   114.2983
 49      0.0000     0.0000E+00    0.0000E+00    1.000000E+10  0.02000  1.360E-05    0   0.5167   age181_m62            0.0000     2.2424E-05    40.7757  -1.0000   103.5370
 50      0.0000     0.0000E+00    0.0000E+00    1.800000E+10  0.02000  7.124E-06    0   0.5013   age213_m62            0.0000     2.4885E-05    40.1101  -1.0000    96.3092
 51      7.2705     9.1288E-03    1.7951E-02    1.000000E+06  0.05000  2.592E-02    0   0.9998   age020_m72            0.0000     1.6183E-05    49.7671   2.4177   102.8459
 52      0.0000     0.0000E+00    0.0000E+00    3.160000E+06  0.05000  4.845E-02    0   0.9577   age045_m72            0.0000     1.6395E-05    50.4897   2.2231   105.6542
 53      0.0000     0.0000E+00    0.0000E+00    5.010000E+06  0.05000  3.072E-02    0   0.9147   age055_m72            0.0000     1.5955E-05    48.6344   1.8832   108.3980
 54      3.9614     8.8607E-03    1.5470E-02    6.610000E+06  0.05000  1.455E-02    0   0.8877   age061_m72            0.0000     1.5753E-05    51.9059   1.4174   110.7426
 55      0.0000     0.0000E+00    0.0000E+00    1.000000E+07  0.05000  9.074E-03    0   0.8524   age070_m72            0.0000     1.6232E-05    49.9004   2.0326   107.9732
 56      1.1173     8.5561E-03    1.3298E-02    2.512000E+07  0.05000  4.250E-03    0   0.7902   age090_m72            0.0000     1.6368E-05    48.9313   1.7681   110.0103
 57      0.0000     0.0000E+00    0.0000E+00    4.000000E+07  0.05000  3.087E-03    0   0.7618   age104_m72            0.0000     1.6509E-05    48.7129   1.5662   111.7093
 58      0.0000     0.0000E+00    0.0000E+00    1.015200E+08  0.05000  1.700E-03    0   0.7096   age116_m72            0.0000     1.7372E-05    48.2563   1.2884   115.5952
 59      0.0000     0.0000E+00    0.0000E+00    2.861200E+08  0.05000  7.384E-04    0   0.6633   age125_m72            0.0000     1.8823E-05    48.7594   0.7080   122.9153
 60      0.0000     0.0000E+00    0.0000E+00    5.088000E+08  0.05000  3.819E-04    0   0.6372   age130_m72            0.0000     1.8559E-05    49.2350   0.1824   127.1340
 61      0.0000     0.0000E+00    0.0000E+00    9.047900E+08  0.05000  1.676E-04    0   0.6110   age135_m72            0.0000     1.8189E-05    50.2185  -0.5592   127.1935
 62      0.0000     0.0000E+00    0.0000E+00    1.434000E+09  0.05000  8.837E-05    0   0.5874   age139_m72            0.0000     1.8362E-05    50.2831  -1.0000   126.6745
 63      1.3169     1.0125E+00    1.1148E+00    2.500000E+09  0.05000  4.233E-05    0   0.5598   age150_m72            0.0000     1.9667E-05    44.5501  -1.0000   115.6871
 64      4.4358     1.0060E+01    1.0386E+01    6.250000E+09  0.05000  1.435E-05    0   0.5249   age166_m72            0.0000     2.2960E-05    40.9381  -1.0000   100.7734
 65     14.6937     7.3424E+01    7.2725E+01    1.300000E+10  0.05000  6.513E-06    0   0.5036   age193_m72            0.0000     2.6488E-05    41.1093  -1.0000    93.0160
 66      0.9448     6.7921E+00    6.6060E+00    1.800000E+10  0.05000  4.527E-06    0   0.4945   age213_m72            0.0000     2.8644E-05    41.4255  -1.0000    88.1257


## Synthesis Results - Average & Chains ##

# j      x_j: min, <> & last-chain-values for 1 ...  7 chains
  1      0.0000      0.8010      0.5138      0.0000      0.0000      1.5991      0.1801      0.7923      0.5392
  2      0.0000      0.8775      0.1159      0.4411      0.0000      1.0491      0.0097      1.2621      0.0000
  3      2.8222      0.9602      0.5125      0.0643      0.0000      1.0691      1.5198      0.0000      0.0000
  4      0.0000      0.6509      0.0000      0.0000      0.2077      0.1694      0.5779      0.2609      0.0000
  5      0.0000      0.8503      0.0000      0.1982      0.2137      0.0000      0.1028      0.2492      0.0000
  6      0.0000      0.6761      0.0000      0.8840      0.0000      0.0000      0.0000      0.0000      0.0000
  7     25.3864      1.2308      0.0000      0.3015      1.0228      0.7875      1.1156      0.9705      0.0883
  8      0.0000      0.8311      0.5284      0.1808      0.3337      0.7234      0.0544      0.0105      0.2692
  9      0.0000      0.8277      0.3782      0.0379      0.6087      0.2849      0.0000      0.5050      0.8740
 10      0.0000      0.5760      0.0830      0.0793      0.4057      0.0000      0.4281      0.0000      0.0000
 11      0.0000      0.8593      0.3396      0.4283      0.3064      0.1301      0.1781      0.0159      1.4753
 12      0.0000      1.0706      0.0000      0.1721      0.0179      0.0000      0.6785      0.1804      1.1193
 13      0.3239      1.0900      0.0673      0.1102      0.0000      0.0092      0.7450      0.0000      0.0000
 14      0.0000      1.1356      0.0000      0.1476      0.1441      0.3118      0.3810      0.5705      0.3773
 15      7.4764      0.7744      0.0000      0.0000      0.0226      0.4777      0.7308      0.0000      0.0000
 16      0.0000      0.6330      0.5806      0.0000      0.2075      0.0000      0.2061      0.1643      0.0000
 17      0.0000      0.7413      0.2718      0.2178      0.6210      0.6192      0.0000      0.3838      0.1186
 18      0.0000      0.7465      0.4433      0.1409      0.5395      1.4572      0.0000      1.3950      0.3999
 19     42.1187      2.9192      3.5392      2.8411      3.2656      3.2133      2.8091      3.5882      3.6055
 20      0.0000      1.4575      0.5506      0.0000      0.0000      1.0396      1.3938      0.6812      0.0000
 21      0.0000      0.7270      0.5143      0.6946      0.0600      0.0000      0.0790      0.3838      0.0000
 22      0.0000      0.6264      0.1598      0.3218      0.2654      0.0000      1.1912      0.5637      0.4731
 23      0.0000      0.7693      0.0000      0.3454      0.0000      0.4355      0.3017      0.0167      0.5305
 24      0.0000      0.9847      0.3264      0.7756      0.1493      0.5027      0.0000      0.0000      0.0780
 25      0.0000      1.0317      0.3680      0.0000      0.3263      0.5408      0.2368      0.0000      0.0000
 26      0.0000      0.9322      0.1096      0.0000      0.1470      0.0627      0.0000      0.0504      0.1147
 27      0.0000      0.8730      0.5282      0.0017      0.2707      1.4207      0.0000      0.1193      0.1041
 28      0.0000      0.9453      0.1197      1.4753      0.8347      0.1499      1.3537      0.0000      0.0000
 29      0.0000      0.7287      0.1984      0.1813      0.0826      0.0000      0.0000      0.1359      0.2557
 30      0.0000      0.8121      0.0000      0.8188      0.8171      0.4977      0.0000      1.1557      0.0000
 31      0.0000      1.1724      0.5831      0.6024      0.1803      0.6155      0.1214      0.4210      0.0000
 32      0.0000      0.8112      0.0102      0.0000      0.5001      0.5681      0.7674      0.0312      0.0000
 33      0.0000      0.8367      0.1385      0.2537      0.1984      0.0000      0.0711      0.0000      1.2963
 34      0.0000      0.9037      0.0000      0.0000      0.0174      0.0000      0.0000      0.0303      0.0000
 35      0.0000      0.7743      0.5756      0.3213      0.1034      0.0897      0.2222      0.0000      0.0000
 36      0.0000      6.3741      9.8506     10.3321     10.8488      9.1026     10.0047     10.2110      9.7589
 37      0.0000      0.8884      0.0736      0.3247      0.7594      0.4141      0.0000      0.2642      1.0266
 38      0.3568     22.7597     37.1091     34.4632     35.4743     32.3462     33.2140     33.7111     34.8565
 39      0.0000      0.7830      0.6482      0.3203      0.4190      0.0000      1.0991      0.0313      0.5400
 40      0.0000      1.0001      0.2026      0.1104      0.1480      0.0791      0.0000      0.5324      1.1495
 41      0.0000      0.7711      0.2655      0.4300      0.4282      0.0053      0.6293      0.6710      0.0000
 42      0.0000      1.3694      0.0000      0.0000      0.7259      0.0706      0.9919      0.3092      0.2251
 43      0.0000      0.5474      0.5812      0.0834      0.0000      0.1133      0.0000      0.9611      0.5035
 44      0.0000      0.9234      0.2609      0.4113      0.2948      0.2527      0.1715      0.0000      0.0000
 45      0.0000      1.2143      0.0881      0.3188      0.3846      0.9641      0.0000      0.0324      0.3612
 46      0.0000      1.0627      0.0000      0.9275      0.1347      0.7117      0.5643      0.2370      0.0056
