###################################################################
## OUTPUT of StarlightChains_v04.for    [Cid@UFSC - 01/Apr/2007] ##
###################################################################

## Some input info
KUG0210-078._27_31.txt                   [arq_obs]
Base.CB07.vall.4m                        [arq_base]
Masks.EmLines.NEW.gm                     [arq_masks]
StCv04.C11.config                        [arq_config]
   66                                    [N_base]
    0                                    [N_YAV_components = # of components with extra extinction!]
    0                                    [i_FitPowerLaw (1/0 = Yes/No)]
-9.99                                    [alpha_PowerLaw]
CCM                                      [red_law_option]
 1.458241                                [q_norm = A(l_norm)/A(V)]

## (Re)Sampling Parameters
 3741.00                                 [l_ini (A)]
 7218.00                                 [l_fin (A)]
    1.00                                 [dl    (A)]     (OBS: dl_cushion =    50.00 A)

## Normalization info
 4020.00                                 [l_norm (A) - for base]
 4010.00                                 [llow_norm (A) - window for f_obs]
 4060.00                                 [lupp_norm (A) - window for f_obs]
4.021340E-17                             [fobs_norm (in input units)]

## S/N
 3691.00                                 [llow_SN (A) - window for S/N]
 7268.00                                 [lupp_SN (A) - window for S/N]
   8.262                                 [S/N in S/N window]
  10.479                                 [S/N in norm. window]
   0.044                                 [S/N_err in S/N window]
   0.056                                 [S/N_err in norm. window]
  1.0000                                 [fscale_chi2]

## etc...
    -2007351                             [idum_orig]
  2432                                   [NOl_eff]
  2420                                   [Nl_eff]
    12    NSIGMA                         [Ntot_cliped & clip_method]
  5922980                                [Nglobal_steps]
   7                                     [N_chains]
  44                                     [NEX0s_base = N_base in EX0s-fits]
 0   0   1       12   2.0   5.744E+03    [Clip-Bug, RC-Crash & Burn-In warning-flags, n_censored_weights, wei_nsig_threshold & wei_limit]
    58     58.679     58.276      0.403  [idt_all, wdt_TotTime, wdt_UsrTime & wdt_SysTime (sec)]

## Synthesis Results - Best model ##

 1.41517E-04                             [chi2/Nl_eff]
     8.49116                             [adev (%)]

    95.50355                             [sum-of-x (%)]
 3.14902E-17                             [Flux_tot (units of input spectrum!)]
 1.21289E-12                             [Mini_tot (???)]
 6.09797E-13                             [Mcor_tot (???)]

 -78.43                                  [v0_min  (km/s)]
 312.35                                  [vd_min  (km/s)]
-0.1478                                  [AV_min  (mag)]
 0.0000                                  [YAV_min (mag)]

# j     x_j(%)      Mini_j(%)     Mcor_j(%)     age_j(yr)     Z_j      (L/M)_j    YAV?  Mstars   component_j        a/Fe...       SSP_chi2r SSP_adev(%)   SSP_AV   SSP_x(%)
  1      0.0000     0.0000E+00    0.0000E+00    1.000000E+06  0.00400  1.094E-02    0   1.0000   age020_m42            0.0000     1.6958E-04    11.9829   2.6607    83.6947
  2      0.0000     0.0000E+00    0.0000E+00    3.160000E+06  0.00400  4.007E-02    0   0.9999   age045_m42            0.0000     1.7056E-04    12.3950   1.8344    92.4280
  3      0.0000     0.0000E+00    0.0000E+00    5.010000E+06  0.00400  2.539E-02    0   0.9488   age055_m42            0.0000     1.6728E-04    12.0198   2.2039    88.7499
  4      0.0000     0.0000E+00    0.0000E+00    6.610000E+06  0.00400  2.620E-02    0   0.9220   age061_m42            0.0000     1.7186E-04    12.1778   1.7649    92.5480
  5      0.0000     0.0000E+00    0.0000E+00    1.000000E+07  0.00400  1.322E-02    0   0.8862   age070_m42            0.0000     1.6196E-04    10.2732   1.5662    92.2620
  6      8.4082     2.8996E-02    4.9432E-02    1.445000E+07  0.00400  7.883E-03    0   0.8571   age078_m42            0.0000     1.6139E-04    10.4005   1.9098    89.4141
  7      0.0000     0.0000E+00    0.0000E+00    2.512000E+07  0.00400  5.251E-03    0   0.8174   age090_m42            0.0000     1.6133E-04     9.9744   1.4443    92.6187
  8      0.0000     0.0000E+00    0.0000E+00    4.000000E+07  0.00400  3.649E-03    0   0.7851   age104_m42            0.0000     1.6277E-04    10.2179   1.1930    94.1259
  9      2.0544     1.8028E-02    2.7355E-02    5.500000E+07  0.00400  3.098E-03    0   0.7629   age110_m42            0.0000     1.7450E-04    11.3022   1.2898    95.7441
 10      0.0000     0.0000E+00    0.0000E+00    1.015200E+08  0.00400  2.228E-03    0   0.7207   age116_m42            0.0000     1.8666E-04    12.0422   1.2698    97.0567
 11      0.0000     0.0000E+00    0.0000E+00    2.861200E+08  0.00400  1.093E-03    0   0.6648   age125_m42            0.0000     1.8990E-04    11.5417   0.7043    99.8539
 12      0.0000     0.0000E+00    0.0000E+00    5.088000E+08  0.00400  6.597E-04    0   0.6365   age130_m42            0.0000     2.0864E-04    12.7813   0.6312   102.5677
 13      0.0000     0.0000E+00    0.0000E+00    1.434000E+09  0.00400  2.132E-04    0   0.5798   age139_m42            0.0000     1.9745E-04    13.0548  -0.3832   105.9474
 14      1.4395     6.6385E-01    7.0998E-01    4.250000E+09  0.00400  5.895E-05    0   0.5377   age158_m42            0.0000     1.7524E-04    13.8281  -0.8347   101.9555
 15      0.0000     0.0000E+00    0.0000E+00    7.500000E+09  0.00400  3.510E-05    0   0.5212   age171_m42            0.0000     1.8039E-04    14.0265  -1.0000   101.2161
 16      0.0000     0.0000E+00    0.0000E+00    1.300000E+10  0.00400  2.005E-05    0   0.5034   age193_m42            0.0000     1.9313E-04    13.3522  -1.0000    98.2075
 17      5.5524     9.8981E+00    9.7787E+00    1.800000E+10  0.00400  1.525E-05    0   0.4967   age213_m42            0.0000     1.9080E-04    13.1339  -1.0000    97.2779
 18      9.2683     2.0352E-02    4.0481E-02    1.000000E+06  0.00800  1.238E-02    0   1.0000   age020_m52            0.0000     1.6978E-04    11.9987   2.6556    83.8895
 19      0.0000     0.0000E+00    0.0000E+00    3.160000E+06  0.00800  3.074E-02    0   0.9966   age045_m52            0.0000     1.6920E-04    12.0490   2.5698    84.9068
 20      0.0000     0.0000E+00    0.0000E+00    5.010000E+06  0.00800  2.668E-02    0   0.9443   age055_m52            0.0000     1.6629E-04    11.8629   2.3022    87.5265
 21      0.0000     0.0000E+00    0.0000E+00    6.610000E+06  0.00800  2.136E-02    0   0.9177   age061_m52            0.0000     1.5122E-04    10.0847   1.0784    92.9633
 22      0.0000     0.0000E+00    0.0000E+00    1.000000E+07  0.00800  1.215E-02    0   0.8827   age070_m52            0.0000     1.5887E-04     9.6414   1.7813    91.0435
 23      2.9625     9.2389E-03    1.5715E-02    1.445000E+07  0.00800  8.717E-03    0   0.8552   age078_m52            0.0000     1.6123E-04    10.3005   1.8691    90.8552
 24      0.9569     4.6518E-03    7.5518E-03    2.512000E+07  0.00800  5.592E-03    0   0.8162   age090_m52            0.0000     1.6174E-04     9.8166   1.5055    93.8158
 25      0.0000     0.0000E+00    0.0000E+00    4.000000E+07  0.00800  3.896E-03    0   0.7841   age104_m52            0.0000     1.6650E-04    10.3387   1.3807    95.6262
 26      0.0000     0.0000E+00    0.0000E+00    1.015200E+08  0.00800  2.148E-03    0   0.7226   age116_m52            0.0000     1.7754E-04    11.3775   1.2630    97.1023
 27      0.0000     0.0000E+00    0.0000E+00    2.861200E+08  0.00800  9.925E-04    0   0.6683   age125_m52            0.0000     2.0987E-04    12.6760   0.6933   103.6214
 28      0.0000     0.0000E+00    0.0000E+00    9.047900E+08  0.00800  3.141E-04    0   0.6138   age135_m52            0.0000     2.1736E-04    14.3439  -0.2094   111.2054
 29      0.0000     0.0000E+00    0.0000E+00    1.434000E+09  0.00800  1.719E-04    0   0.5853   age139_m52            0.0000     1.9046E-04    13.8327  -0.7604   107.8779
 30      0.0000     0.0000E+00    0.0000E+00    2.500000E+09  0.00800  7.872E-05    0   0.5600   age150_m52            0.0000     1.9367E-04    14.3990  -1.0000   105.1338
 31      0.9369     5.8742E-01    6.3396E-01    4.250000E+09  0.00800  4.336E-05    0   0.5426   age158_m52            0.0000     1.9186E-04    14.3724  -1.0000   103.7901
 32      0.0000     0.0000E+00    0.0000E+00    6.250000E+09  0.00800  3.159E-05    0   0.5319   age166_m52            0.0000     2.2080E-04    13.9512  -1.0000   100.8455
 33     13.9427     2.7850E+01    2.8101E+01    1.300000E+10  0.00800  1.361E-05    0   0.5073   age193_m52            0.0000     3.2993E-04    17.5407  -1.0000    90.7780
 34      0.5019     1.3803E+00    1.3699E+00    1.800000E+10  0.00800  9.886E-06    0   0.4990   age213_m52            0.0000     3.9122E-04    19.6848  -1.0000    87.9107
 35      0.0000     0.0000E+00    0.0000E+00    1.000000E+06  0.02000  1.544E-02    0   1.0000   age020_m62            0.0000     1.7004E-04    11.9949   2.6548    84.0168
 36      0.4621     3.3394E-04    6.5478E-04    3.160000E+06  0.02000  3.762E-02    0   0.9858   age045_m62            0.0000     1.7027E-04    12.0477   2.5890    84.8848
 37      0.0000     0.0000E+00    0.0000E+00    5.010000E+06  0.02000  3.296E-02    0   0.9342   age055_m62            0.0000     1.6995E-04    12.3138   2.1331    90.7422
 38      5.5021     1.2962E-02    2.2844E-02    8.710000E+06  0.02000  1.154E-02    0   0.8861   age067_m62            0.0000     1.5381E-04     7.0555   1.3954    88.8953
 39      3.5277     1.2515E-02    2.1088E-02    1.445000E+07  0.02000  7.663E-03    0   0.8472   age078_m62            0.0000     1.5268E-04     8.4396   1.4730    91.8386
 40      0.0000     0.0000E+00    0.0000E+00    2.512000E+07  0.02000  4.532E-03    0   0.8099   age090_m62            0.0000     1.5390E-04     8.2863   1.4634    91.6449
 41      0.0000     0.0000E+00    0.0000E+00    5.500000E+07  0.02000  2.733E-03    0   0.7595   age110_m62            0.0000     1.6452E-04    10.1769   1.3748    94.5979
 42      0.0000     0.0000E+00    0.0000E+00    1.609000E+08  0.02000  1.369E-03    0   0.6985   age120_m62            0.0000     1.9664E-04    11.8928   1.1086   100.3629
 43      0.0000     0.0000E+00    0.0000E+00    2.861200E+08  0.02000  9.013E-04    0   0.6714   age125_m62            0.0000     2.2733E-04    12.9914   0.7924   105.3472
 44      0.0000     0.0000E+00    0.0000E+00    5.088000E+08  0.02000  5.028E-04    0   0.6449   age130_m62            0.0000     2.4768E-04    14.9185   0.3091   111.4193
 45      0.0000     0.0000E+00    0.0000E+00    9.047900E+08  0.02000  2.428E-04    0   0.6179   age135_m62            0.0000     2.1444E-04    15.1039  -0.2971   111.2650
 46      0.0000     0.0000E+00    0.0000E+00    1.434000E+09  0.02000  1.263E-04    0   0.5908   age139_m62            0.0000     1.9958E-04    15.1471  -0.7350   109.3074
 47      2.4889     1.1305E+00    1.2757E+00    2.500000E+09  0.02000  5.985E-05    0   0.5673   age150_m62            0.0000     2.0908E-04    14.9546  -1.0000   106.6768
 48      0.0000     0.0000E+00    0.0000E+00    4.250000E+09  0.02000  3.271E-05    0   0.5468   age158_m62            0.0000     2.6468E-04    15.1155  -1.0000   100.7107
 49      0.0000     0.0000E+00    0.0000E+00    1.000000E+10  0.02000  1.360E-05    0   0.5167   age181_m62            0.0000     3.9018E-04    18.3671  -1.0000    92.8294
 50      0.0000     0.0000E+00    0.0000E+00    1.800000E+10  0.02000  7.124E-06    0   0.5013   age213_m62            0.0000     5.0145E-04    21.7997  -1.0000    86.8470
 51      0.0000     0.0000E+00    0.0000E+00    1.000000E+06  0.05000  2.592E-02    0   0.9998   age020_m72            0.0000     1.7124E-04    11.9488   2.6556    83.7798
 52      9.5550     5.3614E-03    1.0213E-02    3.160000E+06  0.05000  4.845E-02    0   0.9577   age045_m72            0.0000     1.6900E-04    12.2530   2.4355    87.0313
 53      0.0000     0.0000E+00    0.0000E+00    5.010000E+06  0.05000  3.072E-02    0   0.9147   age055_m72            0.0000     1.5868E-04     9.7036   2.0326    88.8410
 54     12.8866     2.4077E-02    4.2512E-02    6.610000E+06  0.05000  1.455E-02    0   0.8877   age061_m72            0.0000     1.6186E-04     8.6901   1.4826    88.0368
 55      0.0000     0.0000E+00    0.0000E+00    1.000000E+07  0.05000  9.074E-03    0   0.8524   age070_m72            0.0000     1.6132E-04    10.2400   2.2048    88.6356
 56      0.0000     0.0000E+00    0.0000E+00    2.512000E+07  0.05000  4.250E-03    0   0.7902   age090_m72            0.0000     1.6215E-04     9.9114   1.8722    91.5457
 57      0.0000     0.0000E+00    0.0000E+00    4.000000E+07  0.05000  3.087E-03    0   0.7618   age104_m72            0.0000     1.6490E-04     9.7555   1.6362    93.3952
 58      0.0000     0.0000E+00    0.0000E+00    1.015200E+08  0.05000  1.700E-03    0   0.7096   age116_m72            0.0000     1.9019E-04    11.2365   1.2839    98.9915
 59      0.0000     0.0000E+00    0.0000E+00    2.861200E+08  0.05000  7.384E-04    0   0.6633   age125_m72            0.0000     2.4233E-04    14.0326   0.6033   108.5593
 60      0.0000     0.0000E+00    0.0000E+00    5.088000E+08  0.05000  3.819E-04    0   0.6372   age130_m72            0.0000     2.3174E-04    15.6128  -0.0000   113.2010
 61      0.0000     0.0000E+00    0.0000E+00    9.047900E+08  0.05000  1.676E-04    0   0.6110   age135_m72            0.0000     2.1626E-04    16.5076  -0.7163   112.1249
 62      0.0000     0.0000E+00    0.0000E+00    1.434000E+09  0.05000  8.837E-05    0   0.5874   age139_m72            0.0000     2.1974E-04    15.1402  -1.0000   108.6257
 63      5.9797     3.8403E+00    4.2760E+00    2.500000E+09  0.05000  4.233E-05    0   0.5598   age150_m72            0.0000     2.7863E-04    15.5389  -1.0000   101.8404
 64      0.0000     0.0000E+00    0.0000E+00    6.250000E+09  0.05000  1.435E-05    0   0.5249   age166_m72            0.0000     4.2786E-04    19.8303  -1.0000    90.1317
 65      0.0000     0.0000E+00    0.0000E+00    1.300000E+10  0.05000  6.513E-06    0   0.5036   age193_m72            0.0000     5.8151E-04    24.5546  -1.0000    83.5048
 66      9.0777     5.4513E+01    5.3617E+01    1.800000E+10  0.05000  4.527E-06    0   0.4945   age213_m72            0.0000     6.7986E-04    26.9808  -1.0000    78.7762


## Synthesis Results - Average & Chains ##

# j      x_j: min, <> & last-chain-values for 1 ...  7 chains
  1      0.0000      0.3676      1.4383      0.3217      0.0049      0.4662      0.6548      0.8792      0.0000
  2      0.0000      0.4202      0.8257      1.4910      0.5153      1.4593      0.0000      0.0000      0.5489
  3      0.0000      0.5344      1.9806      1.1401      2.5409      0.7044      0.6798      0.4465      1.0074
  4      0.0000      0.4733      1.4016      2.3687      0.2898      0.8162      0.7899      0.0000      2.4707
  5      0.0000      0.4274      0.0000      2.7374      0.4671      0.0281      3.1872      2.5283      1.0212
  6      8.4082      0.3785      0.2550      1.0262      0.7186      0.6361      0.0000      1.1267      1.3220
  7      0.0000      0.3612      1.2698      0.4656      0.0000      0.1711      2.1176      2.6167      1.0924
  8      0.0000      0.4132      0.7401      0.0000      0.7089      0.0000      0.0000      0.0000      0.0000
  9      2.0544      0.3992      0.4517      0.0000      0.4034      1.5303      0.0000      0.6141      0.8652
 10      0.0000      0.3300      2.2432      0.3335      1.9193      0.0000      0.0000      0.6190      0.4380
 11      0.0000      0.4032      0.0000      0.0000      0.7100      0.6699      0.9835      0.1439      0.0000
 12      0.0000      0.3302      0.0000      0.1313      0.0000      0.0076      0.0000      0.6706      0.0000
 13      0.0000      0.4604      2.4996      0.0000      1.8563      0.0000      0.3261      0.1254      1.2370
 14      1.4395      0.3493      0.0000      0.8111      0.0000      0.0000      0.0000      1.3572      1.8626
 15      0.0000      0.3651      0.8527      1.2010      0.7694      0.6356      0.0000      0.9549      0.0000
 16      0.0000      0.5846      0.9577      0.6182      0.0000      0.1192      2.0601      1.8878      2.0359
 17      5.5524      0.2484      0.0000      0.1243      0.5026      0.0000      0.0000      0.7455      0.6913
 18      9.2683      0.5195      1.6324      1.0340      1.9438      0.0000      3.6559      0.4600      0.4930
 19      0.0000      0.4209      1.8202      1.2201      2.3367      0.3367      0.0000      1.2816      0.7025
 20      0.0000      0.4587      0.6476      0.8297      1.3090      0.8802      0.1235      0.0000      0.0000
 21      0.0000      0.4655      0.0000      1.4996      0.8438      0.1561      1.7972      0.0000      2.9952
 22      0.0000      0.3064      0.7039      0.8305      0.0000      0.0000      1.3691      0.0000      0.9268
 23      2.9625      0.4738      0.4982      0.5737      0.2338      0.2511      0.5476      0.2358      2.9032
 24      0.9569      0.4129      0.1256      0.0000      0.7678      1.7414      0.6465      1.0987      2.0543
 25      0.0000      0.2783      0.0000      1.4285      1.1820      0.9504      0.0000      0.7483      0.5616
 26      0.0000      0.4076      0.2841      0.0499      0.8396      1.4580      0.0000      0.0000      0.0000
 27      0.0000      0.4637      0.2500      0.6851      0.6411      0.7322      0.7461      4.4599      0.0000
 28      0.0000      0.2798      0.4691      0.0000      0.3790      0.0000      0.1274      0.7677      0.8757
 29      0.0000      0.4246      0.7836      0.0000      0.0156      0.2921      4.7192      0.0000      1.4906
 30      0.0000      0.3257      0.0000      0.0000      0.3049      0.0788      0.6110      0.2874      0.2906
 31      0.9369      0.3860      0.8837      0.2570      1.0990      1.1109      0.5725      0.0000      0.7705
 32      0.0000      0.3630      3.3956      0.4222      0.2851      0.6260      0.0000      0.0000      1.5815
 33     13.9427      1.1255      0.7936      2.7511      0.7004      0.6695      0.0000      0.6006      0.9913
 34      0.5019      2.1410      2.1844      2.1319      1.2240      2.2507      1.7124      1.4759      2.3707
 35      0.0000      0.3648      1.4057      1.3547      1.6568      2.0999      1.7502      0.0287      0.4827
 36      0.4621      0.3751      3.3854      0.5587      0.0000      0.5548      0.8711      0.4384      2.0764
 37      0.0000      0.3489      0.8542      0.0000      0.5301      0.0000      2.5461      1.1205      0.8203
 38      5.5021      0.3583      1.3445      0.0000      0.0868      0.9887      0.0450      1.0044      0.7089
 39      3.5277      0.3859      1.4170      0.7584      0.6999      0.0000      0.3090      2.0473      0.7119
 40      0.0000      0.3392      1.1616      1.0870      0.0000      1.2470      2.2302      0.8530      0.2692
 41      0.0000      0.4172      0.8603      0.4772      0.0979      2.2966      2.0111      0.0000      0.2023
 42      0.0000      0.4145      0.0000      0.8362      0.9138      0.8679      1.2093      2.7520      0.7174
 43      0.0000      0.4153      0.2791      0.7322      1.2254      0.1166      0.2641      0.0000      0.1001
 44      0.0000      0.3052      0.5798      0.0000      0.7713      0.0015      0.1697      1.5958      0.2656
 45      0.0000      0.3050      0.0000      0.0198      0.2672      0.3327      0.6049      2.1155      1.0705
 46      0.0000      0.3792      0.1653      1.4305      0.0700      0.5541      0.2360      0.0535      0.0000
