###################################################################
## OUTPUT of StarlightChains_v04.for    [Cid@UFSC - 01/Apr/2007] ##
###################################################################

## Some input info
KUG0210-078._25_42.txt                   [arq_obs]
Base.CB07.vall.4m                        [arq_base]
Masks.EmLines.NEW.gm                     [arq_masks]
StCv04.C11.config                        [arq_config]
   66                                    [N_base]
    0                                    [N_YAV_components = # of components with extra extinction!]
    0                                    [i_FitPowerLaw (1/0 = Yes/No)]
-9.99                                    [alpha_PowerLaw]
CCM                                      [red_law_option]
 1.458241                                [q_norm = A(l_norm)/A(V)]

## (Re)Sampling Parameters
 3741.00                                 [l_ini (A)]
 7218.00                                 [l_fin (A)]
    1.00                                 [dl    (A)]     (OBS: dl_cushion =    50.00 A)

## Normalization info
 4020.00                                 [l_norm (A) - for base]
 4010.00                                 [llow_norm (A) - window for f_obs]
 4060.00                                 [lupp_norm (A) - window for f_obs]
8.529632E-18                             [fobs_norm (in input units)]

## S/N
 3691.00                                 [llow_SN (A) - window for S/N]
 7268.00                                 [lupp_SN (A) - window for S/N]
   4.640                                 [S/N in S/N window]
   5.020                                 [S/N in norm. window]
   0.010                                 [S/N_err in S/N window]
   0.011                                 [S/N_err in norm. window]
  1.0000                                 [fscale_chi2]

## etc...
    -2007315                             [idum_orig]
  2419                                   [NOl_eff]
  2225                                   [Nl_eff]
   194    NSIGMA                         [Ntot_cliped & clip_method]
 10653090                                [Nglobal_steps]
   7                                     [N_chains]
  36                                     [NEX0s_base = N_base in EX0s-fits]
 0   0   1      194   2.0   5.235E+03    [Clip-Bug, RC-Crash & Burn-In warning-flags, n_censored_weights, wei_nsig_threshold & wei_limit]
    68     68.156     67.687      0.469  [idt_all, wdt_TotTime, wdt_UsrTime & wdt_SysTime (sec)]

## Synthesis Results - Best model ##

 5.22599E-06                             [chi2/Nl_eff]
    17.26551                             [adev (%)]

    94.38867                             [sum-of-x (%)]
 8.52865E-18                             [Flux_tot (units of input spectrum!)]
 1.70419E-13                             [Mini_tot (???)]
 9.06276E-14                             [Mcor_tot (???)]

-206.57                                  [v0_min  (km/s)]
 350.64                                  [vd_min  (km/s)]
 0.0429                                  [AV_min  (mag)]
 0.0000                                  [YAV_min (mag)]

# j     x_j(%)      Mini_j(%)     Mcor_j(%)     age_j(yr)     Z_j      (L/M)_j    YAV?  Mstars   component_j        a/Fe...       SSP_chi2r SSP_adev(%)   SSP_AV   SSP_x(%)
  1      0.0000     0.0000E+00    0.0000E+00    1.000000E+06  0.00400  1.094E-02    0   1.0000   age020_m42            0.0000     5.8922E-06    18.4785   3.1953    80.6850
  2      0.0000     0.0000E+00    0.0000E+00    3.160000E+06  0.00400  4.007E-02    0   0.9999   age045_m42            0.0000     5.5452E-06    17.9122   2.4479    86.9283
  3      0.0000     0.0000E+00    0.0000E+00    5.010000E+06  0.00400  2.539E-02    0   0.9488   age055_m42            0.0000     5.6864E-06    18.1691   2.7767    84.5561
  4      3.9261     7.9452E-03    1.3775E-02    6.610000E+06  0.00400  2.620E-02    0   0.9220   age061_m42            0.0000     5.5441E-06    17.8983   2.3702    87.3004
  5      0.0000     0.0000E+00    0.0000E+00    1.000000E+07  0.00400  1.322E-02    0   0.8862   age070_m42            0.0000     5.6186E-06    18.4343   2.0975    89.1447
  6      1.6374     1.1013E-02    1.7750E-02    1.445000E+07  0.00400  7.883E-03    0   0.8571   age078_m42            0.0000     5.7027E-06    18.5384   2.4323    86.5859
  7      0.0000     0.0000E+00    0.0000E+00    2.512000E+07  0.00400  5.251E-03    0   0.8174   age090_m42            0.0000     5.6145E-06    18.5045   1.9682    89.6894
  8      0.0000     0.0000E+00    0.0000E+00    4.000000E+07  0.00400  3.649E-03    0   0.7851   age104_m42            0.0000     5.5400E-06    18.3229   1.7370    90.5385
  9      0.0000     0.0000E+00    0.0000E+00    5.500000E+07  0.00400  3.098E-03    0   0.7629   age110_m42            0.0000     5.4799E-06    17.9326   1.8810    90.7484
 10      3.6876     8.7756E-02    1.1893E-01    1.015200E+08  0.00400  2.228E-03    0   0.7207   age116_m42            0.0000     5.4595E-06    17.6839   1.8928    91.1305
 11      0.0001     5.9373E-06    7.4223E-06    2.861200E+08  0.00400  1.093E-03    0   0.6648   age125_m42            0.0000     5.4749E-06    17.9863   1.3186    93.9837
 12      0.0000     0.0000E+00    0.0000E+00    5.088000E+08  0.00400  6.597E-04    0   0.6365   age130_m42            0.0000     5.4317E-06    17.5273   1.3017    94.8756
 13      0.0000     0.0000E+00    0.0000E+00    1.434000E+09  0.00400  2.132E-04    0   0.5798   age139_m42            0.0000     5.2485E-06    17.1504   0.3461    96.0475
 14     22.3101     2.0066E+01    2.0289E+01    4.250000E+09  0.00400  5.895E-05    0   0.5377   age158_m42            0.0000     5.1926E-06    17.1672  -0.0735    91.2849
 15     13.9287     2.1040E+01    2.0621E+01    7.500000E+09  0.00400  3.510E-05    0   0.5212   age171_m42            0.0000     5.1946E-06    17.1197  -0.2605    90.4975
 16      0.0000     0.0000E+00    0.0000E+00    1.300000E+10  0.00400  2.005E-05    0   0.5034   age193_m42            0.0000     5.2181E-06    17.1224  -0.4256    89.8871
 17      0.0000     0.0000E+00    0.0000E+00    1.800000E+10  0.00400  1.525E-05    0   0.4967   age213_m42            0.0000     5.2292E-06    17.1781  -0.4451    89.3892
 18      0.0000     0.0000E+00    0.0000E+00    1.000000E+06  0.00800  1.238E-02    0   1.0000   age020_m52            0.0000     5.8971E-06    18.4696   3.1924    80.8176
 19      0.0000     0.0000E+00    0.0000E+00    3.160000E+06  0.00800  3.074E-02    0   0.9966   age045_m52            0.0000     5.8641E-06    18.3849   3.1149    81.5701
 20      0.0000     0.0000E+00    0.0000E+00    5.010000E+06  0.00800  2.668E-02    0   0.9443   age055_m52            0.0000     5.7327E-06    18.2195   2.8626    83.7035
 21      0.0000     0.0000E+00    0.0000E+00    6.610000E+06  0.00800  2.136E-02    0   0.9177   age061_m52            0.0000     5.5646E-06    18.3525   1.6133    89.5432
 22      0.9770     4.2636E-03    7.0770E-03    1.000000E+07  0.00800  1.215E-02    0   0.8827   age070_m52            0.0000     5.7325E-06    18.7892   2.2861    88.6617
 23      1.2527     7.6194E-03    1.2253E-02    1.445000E+07  0.00800  8.717E-03    0   0.8552   age078_m52            0.0000     5.6778E-06    18.4850   2.3962    87.8572
 24      0.0000     0.0000E+00    0.0000E+00    2.512000E+07  0.00800  5.592E-03    0   0.8162   age090_m52            0.0000     5.6308E-06    18.5521   2.0326    90.7197
 25      0.0000     0.0000E+00    0.0000E+00    4.000000E+07  0.00800  3.896E-03    0   0.7841   age104_m52            0.0000     5.5614E-06    18.3259   1.9386    91.5559
 26      0.0000     0.0000E+00    0.0000E+00    1.015200E+08  0.00800  2.148E-03    0   0.7226   age116_m52            0.0000     5.4778E-06    17.8665   1.8677    91.6132
 27      0.0000     0.0000E+00    0.0000E+00    2.861200E+08  0.00800  9.925E-04    0   0.6683   age125_m52            0.0000     5.4438E-06    17.4652   1.3638    95.8989
 28      0.0000     0.0000E+00    0.0000E+00    9.047900E+08  0.00800  3.141E-04    0   0.6138   age135_m52            0.0000     5.3821E-06    17.0839   0.5869    98.6011
 29     11.4956     3.5457E+00    3.9024E+00    1.434000E+09  0.00800  1.719E-04    0   0.5853   age139_m52            0.0000     5.2697E-06    17.2578   0.0098    96.3822
 30      0.0000     0.0000E+00    0.0000E+00    2.500000E+09  0.00800  7.872E-05    0   0.5600   age150_m52            0.0000     5.2585E-06    16.9891  -0.2526    93.3891
 31      0.0000     0.0000E+00    0.0000E+00    4.250000E+09  0.00800  4.336E-05    0   0.5426   age158_m52            0.0000     5.2592E-06    17.0328  -0.2596    92.2057
 32      0.0000     0.0000E+00    0.0000E+00    6.250000E+09  0.00800  3.159E-05    0   0.5319   age166_m52            0.0000     5.3050E-06    16.9423  -0.4678    92.2627
 33      0.0000     0.0000E+00    0.0000E+00    1.300000E+10  0.00800  1.361E-05    0   0.5073   age193_m52            0.0000     5.4658E-06    16.8910  -0.9435    91.7375
 34      0.0000     0.0000E+00    0.0000E+00    1.800000E+10  0.00800  9.886E-06    0   0.4990   age213_m52            0.0000     5.6395E-06    16.7066  -1.0000    89.7192
 35      0.0015     5.2789E-06    9.9266E-06    1.000000E+06  0.02000  1.544E-02    0   1.0000   age020_m62            0.0000     5.9118E-06    18.4811   3.1888    80.9883
 36      0.0000     0.0000E+00    0.0000E+00    3.160000E+06  0.02000  3.762E-02    0   0.9858   age045_m62            0.0000     5.9095E-06    18.4494   3.1285    81.6838
 37      0.0000     0.0000E+00    0.0000E+00    5.010000E+06  0.02000  3.296E-02    0   0.9342   age055_m62            0.0000     5.6351E-06    17.9893   2.7265    85.9167
 38      0.0000     0.0000E+00    0.0000E+00    8.710000E+06  0.02000  1.154E-02    0   0.8861   age067_m62            0.0000     6.4501E-06    21.0913   1.7644    90.5979
 39      5.1266     3.5471E-02    5.6509E-02    1.445000E+07  0.02000  7.663E-03    0   0.8472   age078_m62            0.0000     5.8691E-06    19.4559   1.9386    90.5209
 40      0.0000     0.0000E+00    0.0000E+00    2.512000E+07  0.02000  4.532E-03    0   0.8099   age090_m62            0.0000     5.8867E-06    19.5568   1.9239    90.5387
 41      0.0000     0.0000E+00    0.0000E+00    5.500000E+07  0.02000  2.733E-03    0   0.7595   age110_m62            0.0000     5.5787E-06    18.3589   1.9216    90.9041
 42      0.0000     0.0000E+00    0.0000E+00    1.609000E+08  0.02000  1.369E-03    0   0.6985   age120_m62            0.0000     5.4894E-06    17.6634   1.7334    94.2457
 43      0.0872     5.1270E-03    6.4730E-03    2.861200E+08  0.02000  9.013E-04    0   0.6714   age125_m62            0.0000     5.4965E-06    17.2562   1.4708    97.3273
 44      0.0000     0.0000E+00    0.0000E+00    5.088000E+08  0.02000  5.028E-04    0   0.6449   age130_m62            0.0000     5.5091E-06    16.8682   1.0998    99.2650
 45      0.0000     0.0000E+00    0.0000E+00    9.047900E+08  0.02000  2.428E-04    0   0.6179   age135_m62            0.0000     5.3443E-06    16.8578   0.5389    97.4371
 46      0.0000     0.0000E+00    0.0000E+00    1.434000E+09  0.02000  1.263E-04    0   0.5908   age139_m62            0.0000     5.2820E-06    16.9031   0.1022    95.6138
 47      0.0000     0.0000E+00    0.0000E+00    2.500000E+09  0.02000  5.985E-05    0   0.5673   age150_m62            0.0000     5.3614E-06    16.8986  -0.2662    94.1866
 48      9.7314     1.5774E+01    1.6219E+01    4.250000E+09  0.02000  3.271E-05    0   0.5468   age158_m62            0.0000     5.5137E-06    16.8689  -0.5778    93.4122
 49      0.0000     0.0000E+00    0.0000E+00    1.000000E+10  0.02000  1.360E-05    0   0.5167   age181_m62            0.0000     5.8622E-06    16.9181  -0.9338    93.0314
 50      0.1759     1.3092E+00    1.2341E+00    1.800000E+10  0.02000  7.124E-06    0   0.5013   age213_m62            0.0000     6.3126E-06    16.4836  -1.0000    88.0101
 51      0.0016     3.2597E-06    6.1285E-06    1.000000E+06  0.05000  2.592E-02    0   0.9998   age020_m72            0.0000     5.9586E-06    18.5287   3.1858    80.8457
 52      0.0000     0.0000E+00    0.0000E+00    3.160000E+06  0.05000  4.845E-02    0   0.9577   age045_m72            0.0000     5.7986E-06    18.2490   2.9992    83.1415
 53      0.0000     0.0000E+00    0.0000E+00    5.010000E+06  0.05000  3.072E-02    0   0.9147   age055_m72            0.0000     5.9208E-06    19.2705   2.5232    86.8091
 54      0.0312     1.1375E-04    1.8988E-04    6.610000E+06  0.05000  1.455E-02    0   0.8877   age061_m72            0.0000     7.2582E-06    23.2892   1.7974    91.4502
 55      0.0000     0.0000E+00    0.0000E+00    1.000000E+07  0.05000  9.074E-03    0   0.8524   age070_m72            0.0000     6.0877E-06    19.9254   2.6881    86.8423
 56      0.0000     0.0000E+00    0.0000E+00    2.512000E+07  0.05000  4.250E-03    0   0.7902   age090_m72            0.0000     5.8405E-06    19.2878   2.3835    88.9319
 57      0.0000     0.0000E+00    0.0000E+00    4.000000E+07  0.05000  3.087E-03    0   0.7618   age104_m72            0.0000     5.8279E-06    19.3098   2.1509    90.6613
 58      0.6377     1.9889E-02    2.6538E-02    1.015200E+08  0.05000  1.700E-03    0   0.7096   age116_m72            0.0000     5.5466E-06    18.0042   1.8782    93.8211
 59      0.0000     0.0000E+00    0.0000E+00    2.861200E+08  0.05000  7.384E-04    0   0.6633   age125_m72            0.0000     5.5341E-06    17.0360   1.3420    98.3279
 60     11.0109     1.5287E+00    1.8317E+00    5.088000E+08  0.05000  3.819E-04    0   0.6372   age130_m72            0.0000     5.4504E-06    16.7638   0.8697    98.8295
 61      0.0000     0.0000E+00    0.0000E+00    9.047900E+08  0.05000  1.676E-04    0   0.6110   age135_m72            0.0000     5.4228E-06    16.7686   0.1921    96.0392
 62      0.0000     0.0000E+00    0.0000E+00    1.434000E+09  0.05000  8.837E-05    0   0.5874   age139_m72            0.0000     5.4045E-06    16.8290  -0.2628    95.3575
 63      0.2768     3.4674E-01    3.6500E-01    2.500000E+09  0.05000  4.233E-05    0   0.5598   age150_m72            0.0000     5.6308E-06    16.8955  -0.5805    94.2272
 64      6.6728     2.4655E+01    2.4335E+01    6.250000E+09  0.05000  1.435E-05    0   0.5249   age166_m72            0.0000     6.0001E-06    16.8542  -1.0000    91.7087
 65      1.4195     1.1556E+01    1.0943E+01    1.300000E+10  0.05000  6.513E-06    0   0.5036   age193_m72            0.0000     6.8728E-06    16.5701  -1.0000    84.2408
 66      0.0000     0.0000E+00    0.0000E+00    1.800000E+10  0.05000  4.527E-06    0   0.4945   age213_m72            0.0000     7.6371E-06    17.0061  -1.0000    79.2867


## Synthesis Results - Average & Chains ##

# j      x_j: min, <> & last-chain-values for 1 ...  7 chains
  1      0.0000      0.2726      0.3880      0.1556      0.0000      0.0000      0.4435      2.0567      0.0361
  2      0.0000      0.3000      0.1896      1.0483      0.2396      0.0000      0.0000      0.2762      1.4230
  3      0.0000      0.2051      0.0111      0.2440      0.0000      0.1672      1.1838      0.0707      0.6141
  4      3.9261      0.1762      0.1119      0.0120      0.5168      0.0239      0.7709      0.3088      0.4247
  5      0.0000      0.2210      0.0000      0.4612      1.0701      0.0000      1.6769      0.9977      0.3142
  6      1.6374      0.1730      0.4115      0.6798      0.8901      0.0456      0.4062      0.0000      0.4742
  7      0.0000      0.5401      0.5185      0.0264      0.1497      0.3162      0.4655      0.9765      0.3845
  8      0.0000      0.3866      1.0164      0.5731      0.1362      0.1959      0.2429      1.1349      0.0000
  9      0.0000      0.2850      0.5150      0.0000      1.0136      0.0835      0.7376      1.8757      0.5259
 10      3.6876      0.2230      0.2041      0.2365      0.1169      0.1935      0.4957      0.7693      0.6558
 11      0.0001      0.2027      0.2099      0.0000      0.1349      0.0000      0.5894      0.0000      0.4396
 12      0.0000      0.3278      0.8168      0.8918      0.0000      0.2873      1.7275      0.8995      0.4785
 13      0.0000      0.2810      0.3544      0.1310      0.4616      0.0257      0.0000      0.0997      0.1885
 14     22.3101      0.2392      0.3648      0.0000      0.2449      0.1442      0.0000      0.0000      1.0219
 15     13.9287      0.2576      0.1768      0.0000      0.0000      0.0132      0.4744      0.1662      1.2585
 16      0.0000      0.2021      0.0337      0.2637      0.0000      0.1492      0.6273      0.0680      0.0000
 17      0.0000      0.2134      0.5527      0.0000      0.4019      0.2015      0.0000      0.0000      0.0000
 18      0.0000      0.2196      0.1525      0.1385      0.2787      0.0980      1.6361      1.3142      0.0000
 19      0.0000      0.2372      0.0000      0.0000      0.0000      0.1005      0.5515      0.1482      1.1504
 20      0.0000      0.2226      0.0000      0.0000      0.0000      0.0772      1.0823      0.0000      1.8465
 21      0.0000      0.2057      0.2374      0.0000      0.2083      0.0905      0.0000      0.7703      0.3965
 22      0.9770      0.2126      0.0471      0.5327      0.6765      0.1577      0.0000      0.0000      0.4134
 23      1.2527      0.2158      0.0000      0.0000      0.0278      0.1771      0.0000      0.0000      0.4528
 24      0.0000      0.2367      0.3864      0.7597      0.0288      0.1867      1.0908      1.7343      0.7632
 25      0.0000      0.2214      0.2544      0.0531      0.0000      0.0842      0.0000      0.9339      0.0000
 26      0.0000      0.2496      0.3180      0.3096      1.1359      0.0696      0.2365      0.7606      0.0000
 27      0.0000      0.2138      1.0265      0.0000      1.7949      0.2942      0.1414      0.5123      0.0000
 28      0.0000      0.2205      0.4219      0.0303      0.4347      0.2697      0.9152      2.1352      0.0000
 29     11.4956      0.3478      0.0000      0.2181      1.5518      0.0623      0.3547      0.9603      1.5475
 30      0.0000      0.2865      0.2302      0.0000      0.0000      0.0967      0.0442      0.8253      0.0000
 31      0.0000      0.2909      0.3120      0.0762      1.3716      0.1527      0.4115      0.5767      0.0000
 32      0.0000      0.1855      0.1405      0.0000      0.4552      0.0108      0.0000      0.9472      0.0000
 33      0.0000      0.2377      0.3871      0.1512      0.8662      0.0346      0.0000      0.9138      0.0000
 34      0.0000      0.4885      0.8452      0.5507      0.1021      0.5986      0.7878      0.7764      0.0000
 35      0.0015      0.2281      0.3236      0.0000      0.2196      0.0882      0.5911      0.0000      0.4109
 36      0.0000      0.2927      0.7475      0.5102      3.1209      0.0485      0.0755      0.9238      0.2038
 37      0.0000      0.1838      0.3427      0.0000      0.4631      0.1409      0.8931      0.0000      0.1131
 38      0.0000      0.2813      0.7523      0.0000      0.5106      0.3169      2.3494      1.5773      0.1175
 39      5.1266      0.2927      0.3098      0.4090      0.1216      0.1926      1.0685      0.2698      0.7547
 40      0.0000     44.7334     42.4441     43.9644     34.4476     57.3136     33.4021     28.8738     29.9852
 41      0.0000      0.2199      0.1265      0.3521      0.0000      0.2802      0.4346      0.3584      0.0000
 42      0.0000      0.2275      0.0000      0.7221      0.3110      0.1272      0.6585      0.0000      0.0000
 43      0.0872      0.2448      0.8643      1.4070      0.0000      0.0202      0.0000      0.9976      2.5811
 44      0.0000      0.2046      1.3759      0.8207      0.5196      0.1141      0.1694      0.0000      1.0206
 45      0.0000      0.2646      0.0517      0.4870      0.5098      0.1649      1.2092      0.0000      0.2156
 46      0.0000      0.3263      0.1836      0.8458      0.0668      0.0349      0.0000      0.5049      1.8604
