###################################################################
## OUTPUT of StarlightChains_v04.for    [Cid@UFSC - 01/Apr/2007] ##
###################################################################

## Some input info
KUG0210-078._29_32.txt                   [arq_obs]
Base.CB07.vall.4m                        [arq_base]
Masks.EmLines.NEW.gm                     [arq_masks]
StCv04.C11.config                        [arq_config]
   66                                    [N_base]
    0                                    [N_YAV_components = # of components with extra extinction!]
    0                                    [i_FitPowerLaw (1/0 = Yes/No)]
-9.99                                    [alpha_PowerLaw]
CCM                                      [red_law_option]
 1.458241                                [q_norm = A(l_norm)/A(V)]

## (Re)Sampling Parameters
 3741.00                                 [l_ini (A)]
 7218.00                                 [l_fin (A)]
    1.00                                 [dl    (A)]     (OBS: dl_cushion =    50.00 A)

## Normalization info
 4020.00                                 [l_norm (A) - for base]
 4010.00                                 [llow_norm (A) - window for f_obs]
 4060.00                                 [lupp_norm (A) - window for f_obs]
8.748713E-17                             [fobs_norm (in input units)]

## S/N
 3691.00                                 [llow_SN (A) - window for S/N]
 7268.00                                 [lupp_SN (A) - window for S/N]
   9.608                                 [S/N in S/N window]
  11.732                                 [S/N in norm. window]
   0.103                                 [S/N_err in S/N window]
   0.126                                 [S/N_err in norm. window]
  1.0000                                 [fscale_chi2]

## etc...
    -2007408                             [idum_orig]
  2432                                   [NOl_eff]
  2422                                   [Nl_eff]
    10    NSIGMA                         [Ntot_cliped & clip_method]
  3344950                                [Nglobal_steps]
   7                                     [N_chains]
  46                                     [NEX0s_base = N_base in EX0s-fits]
 0   0   1       10   2.0   1.138E+04    [Clip-Bug, RC-Crash & Burn-In warning-flags, n_censored_weights, wei_nsig_threshold & wei_limit]
    43     43.250     42.854      0.397  [idt_all, wdt_TotTime, wdt_UsrTime & wdt_SysTime (sec)]

## Synthesis Results - Best model ##

 6.00781E-05                             [chi2/Nl_eff]
     4.80762                             [adev (%)]

   101.69868                             [sum-of-x (%)]
 5.42018E-17                             [Flux_tot (units of input spectrum!)]
 2.80183E-12                             [Mini_tot (???)]
 1.40792E-12                             [Mcor_tot (???)]

 -13.97                                  [v0_min  (km/s)]
 312.12                                  [vd_min  (km/s)]
-0.3690                                  [AV_min  (mag)]
 0.0000                                  [YAV_min (mag)]

# j     x_j(%)      Mini_j(%)     Mcor_j(%)     age_j(yr)     Z_j      (L/M)_j    YAV?  Mstars   component_j        a/Fe...       SSP_chi2r SSP_adev(%)   SSP_AV   SSP_x(%)
  1      5.7685     1.0030E-02    1.9960E-02    1.000000E+06  0.00400  1.094E-02    0   1.0000   age020_m42            0.0000     1.8964E-04     8.4833   2.7141    86.0030
  2      0.0000     0.0000E+00    0.0000E+00    3.160000E+06  0.00400  4.007E-02    0   0.9999   age045_m42            0.0000     1.4327E-04     7.6627   1.9586    92.6946
  3      3.8169     2.8596E-03    5.3994E-03    5.010000E+06  0.00400  2.539E-02    0   0.9488   age055_m42            0.0000     1.5827E-04     7.8468   2.2948    90.0118
  4      0.0000     0.0000E+00    0.0000E+00    6.610000E+06  0.00400  2.620E-02    0   0.9220   age061_m42            0.0000     1.4497E-04     7.4849   1.8906    92.7430
  5      8.7422     1.2579E-02    2.2184E-02    1.000000E+07  0.00400  1.322E-02    0   0.8862   age070_m42            0.0000     1.3122E-04     6.2013   1.6585    93.2475
  6      2.2253     5.3697E-03    9.1590E-03    1.445000E+07  0.00400  7.883E-03    0   0.8571   age078_m42            0.0000     1.4323E-04     6.5449   1.9851    90.9046
  7      0.0000     0.0000E+00    0.0000E+00    2.512000E+07  0.00400  5.251E-03    0   0.8174   age090_m42            0.0000     1.2900E-04     5.9890   1.5352    93.5812
  8      0.0000     0.0000E+00    0.0000E+00    4.000000E+07  0.00400  3.649E-03    0   0.7851   age104_m42            0.0000     1.2226E-04     5.9714   1.2977    94.6809
  9      0.0000     0.0000E+00    0.0000E+00    5.500000E+07  0.00400  3.098E-03    0   0.7629   age110_m42            0.0000     1.3584E-04     6.5458   1.4251    95.4352
 10      0.0000     0.0000E+00    0.0000E+00    1.015200E+08  0.00400  2.228E-03    0   0.7207   age116_m42            0.0000     1.5265E-04     6.9508   1.4279    96.1033
 11      0.0000     0.0000E+00    0.0000E+00    2.861200E+08  0.00400  1.093E-03    0   0.6648   age125_m42            0.0000     1.4544E-04     5.9735   0.8655    98.6293
 12      0.0000     0.0000E+00    0.0000E+00    5.088000E+08  0.00400  6.597E-04    0   0.6365   age130_m42            0.0000     1.6949E-04     6.6487   0.8271   100.3490
 13      0.0000     0.0000E+00    0.0000E+00    1.434000E+09  0.00400  2.132E-04    0   0.5798   age139_m42            0.0000     1.3097E-04     6.1585  -0.1665   103.1707
 14      0.0000     0.0000E+00    0.0000E+00    4.250000E+09  0.00400  5.895E-05    0   0.5377   age158_m42            0.0000     1.0826E-04     6.8184  -0.6424   100.4027
 15      0.0918     4.9773E-02    5.1625E-02    7.500000E+09  0.00400  3.510E-05    0   0.5212   age171_m42            0.0000     1.2258E-04     7.2757  -0.8483   100.2746
 16      0.0000     0.0000E+00    0.0000E+00    1.300000E+10  0.00400  2.005E-05    0   0.5034   age193_m42            0.0000     1.4094E-04     7.6291  -1.0000    99.5776
 17      0.0000     0.0000E+00    0.0000E+00    1.800000E+10  0.00400  1.525E-05    0   0.4967   age213_m42            0.0000     1.3681E-04     7.4317  -1.0000    98.6306
 18      0.0000     0.0000E+00    0.0000E+00    1.000000E+06  0.00800  1.238E-02    0   1.0000   age020_m52            0.0000     1.9045E-04     8.4960   2.7096    86.1891
 19      5.2493     3.2483E-03    6.4422E-03    3.160000E+06  0.00800  3.074E-02    0   0.9966   age045_m52            0.0000     1.8638E-04     8.4568   2.6297    87.0614
 20      0.0000     0.0000E+00    0.0000E+00    5.010000E+06  0.00800  2.668E-02    0   0.9443   age055_m52            0.0000     1.6389E-04     7.8945   2.3829    89.0705
 21      0.0000     0.0000E+00    0.0000E+00    6.610000E+06  0.00800  2.136E-02    0   0.9177   age061_m52            0.0000     1.0344E-04     6.0355   1.1551    94.5239
 22      0.1297     2.0299E-04    3.5658E-04    1.000000E+07  0.00800  1.215E-02    0   0.8827   age070_m52            0.0000     1.3487E-04     5.8789   1.8522    92.5834
 23      0.0000     0.0000E+00    0.0000E+00    1.445000E+07  0.00800  8.717E-03    0   0.8552   age078_m52            0.0000     1.3793E-04     6.3706   1.9504    92.1783
 24      4.1698     1.4184E-02    2.3039E-02    2.512000E+07  0.00800  5.592E-03    0   0.8162   age090_m52            0.0000     1.2677E-04     5.7428   1.5987    94.6725
 25      5.0873     2.4838E-02    3.8758E-02    4.000000E+07  0.00800  3.896E-03    0   0.7841   age104_m52            0.0000     1.2444E-04     5.8011   1.4945    95.8766
 26      0.0000     0.0000E+00    0.0000E+00    1.015200E+08  0.00800  2.148E-03    0   0.7226   age116_m52            0.0000     1.3436E-04     6.4050   1.4059    96.5492
 27      0.0000     0.0000E+00    0.0000E+00    2.861200E+08  0.00800  9.925E-04    0   0.6683   age125_m52            0.0000     1.6999E-04     6.5940   0.8926   101.2674
 28      2.6063     1.5784E-01    1.9280E-01    9.047900E+08  0.00800  3.141E-04    0   0.6138   age135_m52            0.0000     1.6900E-04     6.8879   0.0394   107.2620
 29      5.2787     5.8413E-01    6.8037E-01    1.434000E+09  0.00800  1.719E-04    0   0.5853   age139_m52            0.0000     1.1586E-04     6.3686  -0.5434   105.2297
 30      0.0000     0.0000E+00    0.0000E+00    2.500000E+09  0.00800  7.872E-05    0   0.5600   age150_m52            0.0000     1.3681E-04     7.5932  -0.8495   103.7342
 31      6.1958     2.7181E+00    2.9350E+00    4.250000E+09  0.00800  4.336E-05    0   0.5426   age158_m52            0.0000     1.3995E-04     7.6790  -0.8661   102.8176
 32      0.0000     0.0000E+00    0.0000E+00    6.250000E+09  0.00800  3.159E-05    0   0.5319   age166_m52            0.0000     1.8128E-04     8.2132  -1.0000   101.6268
 33      0.0000     0.0000E+00    0.0000E+00    1.300000E+10  0.00800  1.361E-05    0   0.5073   age193_m52            0.0000     4.5933E-04    12.5838  -1.0000    90.0311
 34      0.0000     0.0000E+00    0.0000E+00    1.800000E+10  0.00800  9.886E-06    0   0.4990   age213_m52            0.0000     6.2284E-04    14.9443  -1.0000    86.8631
 35      0.0000     0.0000E+00    0.0000E+00    1.000000E+06  0.02000  1.544E-02    0   1.0000   age020_m62            0.0000     1.9286E-04     8.5288   2.7073    86.3543
 36      0.0000     0.0000E+00    0.0000E+00    3.160000E+06  0.02000  3.762E-02    0   0.9858   age045_m62            0.0000     1.9292E-04     8.5362   2.6438    87.1861
 37      0.0000     0.0000E+00    0.0000E+00    5.010000E+06  0.02000  3.296E-02    0   0.9342   age055_m62            0.0000     1.5651E-04     7.8852   2.2432    91.4575
 38      9.8413     1.6222E-02    2.8605E-02    8.710000E+06  0.02000  1.154E-02    0   0.8861   age067_m62            0.0000     1.7820E-04     6.3563   1.3909    92.3972
 39      0.0000     0.0000E+00    0.0000E+00    1.445000E+07  0.02000  7.663E-03    0   0.8472   age078_m62            0.0000     1.2785E-04     5.3008   1.5210    93.9415
 40      0.0000     0.0000E+00    0.0000E+00    2.512000E+07  0.02000  4.532E-03    0   0.8099   age090_m62            0.0000     1.3168E-04     5.2216   1.5151    93.5863
 41      0.0000     0.0000E+00    0.0000E+00    5.500000E+07  0.02000  2.733E-03    0   0.7595   age110_m62            0.0000     1.2452E-04     5.7739   1.4798    95.1248
 42      1.3923     1.9346E-02    2.6892E-02    1.609000E+08  0.02000  1.369E-03    0   0.6985   age120_m62            0.0000     1.6148E-04     6.5442   1.2788    98.9300
 43      2.6389     5.5695E-02    7.4414E-02    2.861200E+08  0.02000  9.013E-04    0   0.6714   age125_m62            0.0000     2.0246E-04     6.9866   1.0049   102.5087
 44      0.0000     0.0000E+00    0.0000E+00    5.088000E+08  0.02000  5.028E-04    0   0.6449   age130_m62            0.0000     2.2714E-04     7.7153   0.5787   106.8073
 45      0.0000     0.0000E+00    0.0000E+00    9.047900E+08  0.02000  2.428E-04    0   0.6179   age135_m62            0.0000     1.6663E-04     7.5324  -0.0402   107.3245
 46      0.0000     0.0000E+00    0.0000E+00    1.434000E+09  0.02000  1.263E-04    0   0.5908   age139_m62            0.0000     1.4697E-04     7.5722  -0.4956   106.1988
 47      0.8950     2.8447E-01    3.2115E-01    2.500000E+09  0.02000  5.985E-05    0   0.5673   age150_m62            0.0000     1.7376E-04     8.5427  -0.8974   105.9370
 48      2.7824     1.6181E+00    1.7607E+00    4.250000E+09  0.02000  3.271E-05    0   0.5468   age158_m62            0.0000     2.6826E-04     9.6257  -1.0000   100.8549
 49      0.0000     0.0000E+00    0.0000E+00    1.000000E+10  0.02000  1.360E-05    0   0.5167   age181_m62            0.0000     5.8218E-04    13.3212  -1.0000    91.9281
 50     24.4025     6.5158E+01    6.5002E+01    1.800000E+10  0.02000  7.124E-06    0   0.5013   age213_m62            0.0000     8.8706E-04    17.1905  -1.0000    85.6150
 51      0.0000     0.0000E+00    0.0000E+00    1.000000E+06  0.05000  2.592E-02    0   0.9998   age020_m72            0.0000     2.0038E-04     8.5977   2.7028    86.2757
 52      0.0000     0.0000E+00    0.0000E+00    3.160000E+06  0.05000  4.845E-02    0   0.9577   age045_m72            0.0000     1.7775E-04     8.3255   2.5136    88.7074
 53      3.4204     2.1180E-03    3.8553E-03    5.010000E+06  0.05000  3.072E-02    0   0.9147   age055_m72            0.0000     1.4876E-04     6.0712   2.0792    91.0760
 54      0.0000     0.0000E+00    0.0000E+00    6.610000E+06  0.05000  1.455E-02    0   0.8877   age061_m72            0.0000     2.4560E-04     7.9016   1.4425    92.2666
 55      0.0000     0.0000E+00    0.0000E+00    1.000000E+07  0.05000  9.074E-03    0   0.8524   age070_m72            0.0000     1.6201E-04     6.7933   2.2455    90.9013
 56      0.0000     0.0000E+00    0.0000E+00    2.512000E+07  0.05000  4.250E-03    0   0.7902   age090_m72            0.0000     1.4087E-04     5.9159   1.9476    92.8148
 57      0.0000     0.0000E+00    0.0000E+00    4.000000E+07  0.05000  3.087E-03    0   0.7618   age104_m72            0.0000     1.3968E-04     5.7458   1.7229    94.2699
 58      0.0000     0.0000E+00    0.0000E+00    1.015200E+08  0.05000  1.700E-03    0   0.7096   age116_m72            0.0000     1.5673E-04     6.0971   1.4361    98.0120
 59      0.0000     0.0000E+00    0.0000E+00    2.861200E+08  0.05000  7.384E-04    0   0.6633   age125_m72            0.0000     2.1930E-04     7.2887   0.8469   104.7781
 60      0.0000     0.0000E+00    0.0000E+00    5.088000E+08  0.05000  3.819E-04    0   0.6372   age130_m72            0.0000     1.9420E-04     7.7633   0.3068   108.1423
 61      0.0000     0.0000E+00    0.0000E+00    9.047900E+08  0.05000  1.676E-04    0   0.6110   age135_m72            0.0000     1.8559E-04     8.7956  -0.4435   108.1328
 62      0.0000     0.0000E+00    0.0000E+00    1.434000E+09  0.05000  8.837E-05    0   0.5874   age139_m72            0.0000     1.9344E-04     8.8273  -0.9117   107.9382
 63      0.0000     0.0000E+00    0.0000E+00    2.500000E+09  0.05000  4.233E-05    0   0.5598   age150_m72            0.0000     2.9826E-04    10.0579  -1.0000   101.8674
 64      0.0000     0.0000E+00    0.0000E+00    6.250000E+09  0.05000  1.435E-05    0   0.5249   age166_m72            0.0000     6.9023E-04    14.9834  -1.0000    89.0436
 65      0.0000     0.0000E+00    0.0000E+00    1.300000E+10  0.05000  6.513E-06    0   0.5036   age193_m72            0.0000     1.1330E-03    20.1770  -1.0000    82.1044
 66      6.9642     2.9263E+01    2.8797E+01    1.800000E+10  0.05000  4.527E-06    0   0.4945   age213_m72            0.0000     1.4327E-03    22.8997  -1.0000    77.3382


## Synthesis Results - Average & Chains ##

# j      x_j: min, <> & last-chain-values for 1 ...  7 chains
  1      5.7685      2.7911      2.3190      3.2609      4.4436      7.2314      5.3349      6.3490      3.2871
  2      0.0000      0.6973      1.4133      0.0000      0.0000      0.3371      0.0000      0.0000      0.0000
  3      3.8169      1.1231      0.0000      0.3680      1.2255      0.0984      3.0389      0.0000      2.7592
  4      0.0000      0.8589      0.2183      0.0000      2.9123      1.1761      1.1052      4.9551      0.0000
  5      8.7422      0.8172      0.8946      1.7125      2.4884      0.0000      0.0000      0.0000      0.0000
  6      2.2253      0.7721      0.4407      0.4812      3.5827      0.0000      1.1291      0.0000      0.7806
  7      0.0000      1.0931      1.1718     11.8569      0.0000      0.2287      0.0984      3.9568      3.2872
  8      0.0000      0.8318      0.4927      1.3456      0.6543      0.0000      0.0000      0.5364      3.2168
  9      0.0000      0.7233      0.0000      3.2317      0.0000      0.0000      4.2368      0.3341      0.8922
 10      0.0000      0.5830      1.9996      0.0000      0.0000      0.1558      0.0000      0.0430      0.2066
 11      0.0000      0.7791      2.0793      1.3407      1.1734      4.0191      0.5827      0.0000      0.0000
 12      0.0000      1.0240      1.6813      2.3660      0.4895      0.0000      4.6441      0.0000      0.4548
 13      0.0000      0.6639      0.0000      0.0000      0.0000      0.1561      0.6883      4.7673      0.0000
 14      0.0000      1.0181      1.3491      2.4240      3.4754      2.4684      0.0000      4.7282      0.8712
 15      0.0918      0.5062      1.3125      0.0000      1.0046      1.4290      1.1964      0.4636      0.0000
 16      0.0000      0.6952      1.3611      2.7999      0.1648      1.2903      0.0000      0.8131      0.0505
 17      0.0000      0.9505      0.3494      1.2326      0.0000      2.3078      2.8818      0.1660      3.6996
 18      0.0000      1.0868      2.3679      0.0000      2.2668      1.1739      3.1358      0.0000      0.0000
 19      5.2493      1.1025      3.7258      1.2695      1.1284      1.2199      2.0513      6.8066      0.0146
 20      0.0000      0.9934      0.0000      0.0000      2.2573      2.0400      0.0162      2.2914      3.0779
 21      0.0000      0.8776      0.0000      0.0000      0.0000      1.1999      2.8569      1.1981      3.0974
 22      0.1297      0.6669      0.0000      0.0000      2.0373      0.9764      0.0000      0.1767      4.4871
 23      0.0000      2.9115      3.7185      1.0722      5.8857      0.0000      0.2573      0.0000      3.8627
 24      4.1698      0.8938      0.9887      3.7719      0.9847      3.7614      0.5153      0.0000      1.0365
 25      5.0873      0.9280      0.0000      0.0000      1.7493      0.0000      0.0000      3.5406      0.0000
 26      0.0000      0.7831      0.6959      3.4491      0.0000      3.8225      1.0806      0.0000      0.0000
 27      0.0000      0.9748      0.0000      0.4980      0.2393      0.0000      2.3901      0.0000      0.3895
 28      2.6063      0.9305      2.1054      1.4164      2.4317      1.4909      0.2071      0.0000      5.3202
 29      5.2787      0.6823      0.2006      0.0000      2.3643      0.1438      0.0000      1.5264      0.0000
 30      0.0000      1.0572      1.1902      0.0000      3.6502      1.5233      1.4150      2.2693      1.1838
 31      6.1958      0.8500      0.2642      3.0610      3.2909      0.0000      0.0000      0.1996      0.8719
 32      0.0000      1.1756      1.1050      4.0203      3.1409      3.4147      0.6754      1.2669      4.3167
 33      0.0000      0.9457      0.0000      3.9221      0.0000      2.2491      0.6833      3.3052      0.0000
 34      0.0000      0.6569      0.3611      0.0000      0.3324      2.1559      2.9853      0.0000      1.3053
 35      0.0000      0.9289      2.3551      3.3747      0.5010      3.6763      1.2383      1.2549      0.0000
 36      0.0000      0.7698      0.9572      0.0000      0.0468      0.0000      3.8873      0.0000      2.7890
 37      0.0000      0.9516      0.8025      0.3919      0.0000      0.0000      1.7352      0.0000      1.1886
 38      9.8413      4.4938      3.5719      0.9452      1.5168      1.5358      3.7269      1.9288      2.0808
 39      0.0000      3.4789      7.0985      3.0532      0.7275      2.2892      0.3264      0.6102      1.8670
 40      0.0000      0.8093      0.4523      0.4214      0.4030      1.2101      0.0000      1.9762      2.1107
 41      0.0000      0.9829      0.0000      5.1692      2.0948      1.1857      1.9544      0.0000      0.0000
 42      1.3923      0.9849      0.6358      0.9196      3.0095      4.2174      0.0000      0.0000      2.0044
 43      2.6389      0.8830      1.7145      0.0000      0.8094      1.2509      1.9480      0.5490      0.5726
 44      0.0000      0.8926      0.0000      0.6429      0.0000      1.7633      0.0000      2.4803      1.7388
 45      0.0000      0.8569      1.3834      0.0000      1.2419      3.0384      0.0000      1.1633      0.0000
 46      0.0000      0.8170      0.5684      0.9291      0.5931      2.1717      1.9499      0.6357      0.2638
