###################################################################
## OUTPUT of StarlightChains_v04.for    [Cid@UFSC - 01/Apr/2007] ##
###################################################################

## Some input info
KUG0210-078._58_49.txt                   [arq_obs]
Base.CB07.vall.4m                        [arq_base]
Masks.EmLines.NEW.gm                     [arq_masks]
StCv04.C11.config                        [arq_config]
   66                                    [N_base]
    0                                    [N_YAV_components = # of components with extra extinction!]
    0                                    [i_FitPowerLaw (1/0 = Yes/No)]
-9.99                                    [alpha_PowerLaw]
CCM                                      [red_law_option]
 1.458241                                [q_norm = A(l_norm)/A(V)]

## (Re)Sampling Parameters
 3741.00                                 [l_ini (A)]
 7218.00                                 [l_fin (A)]
    1.00                                 [dl    (A)]     (OBS: dl_cushion =    50.00 A)

## Normalization info
 4020.00                                 [l_norm (A) - for base]
 4010.00                                 [llow_norm (A) - window for f_obs]
 4060.00                                 [lupp_norm (A) - window for f_obs]
2.862185E-19                             [fobs_norm (in input units)]

## S/N
 3691.00                                 [llow_SN (A) - window for S/N]
 7268.00                                 [lupp_SN (A) - window for S/N]
   1.699                                 [S/N in S/N window]
   0.113                                 [S/N in norm. window]
   0.005                                 [S/N_err in S/N window]
   0.000                                 [S/N_err in norm. window]
  1.0000                                 [fscale_chi2]

## etc...
    -2008028                             [idum_orig]
  2318                                   [NOl_eff]
  2087                                   [Nl_eff]
   231    NSIGMA                         [Ntot_cliped & clip_method]
   985110                                [Nglobal_steps]
   7                                     [N_chains]
  42                                     [NEX0s_base = N_base in EX0s-fits]
 0   0   1      231   2.0   1.969E+02    [Clip-Bug, RC-Crash & Burn-In warning-flags, n_censored_weights, wei_nsig_threshold & wei_limit]
    26     25.601     24.908      0.693  [idt_all, wdt_TotTime, wdt_UsrTime & wdt_SysTime (sec)]

## Synthesis Results - Best model ##

 7.27819E-05                             [chi2/Nl_eff]
    74.25289                             [adev (%)]

   129.98448                             [sum-of-x (%)]
 5.58173E-17                             [Flux_tot (units of input spectrum!)]
 2.54248E-12                             [Mini_tot (???)]
 1.30198E-12                             [Mcor_tot (???)]

 174.29                                  [v0_min  (km/s)]
  65.56                                  [vd_min  (km/s)]
 3.7308                                  [AV_min  (mag)]
 0.0000                                  [YAV_min (mag)]

# j     x_j(%)      Mini_j(%)     Mcor_j(%)     age_j(yr)     Z_j      (L/M)_j    YAV?  Mstars   component_j        a/Fe...       SSP_chi2r SSP_adev(%)   SSP_AV   SSP_x(%)
  1      0.0000     0.0000E+00    0.0000E+00    1.000000E+06  0.00400  1.094E-02    0   1.0000   age020_m42            0.0000     1.7126E-05    39.8002   1.4863  2504.1638
  2      0.0000     0.0000E+00    0.0000E+00    3.160000E+06  0.00400  4.007E-02    0   0.9999   age045_m42            0.0000     1.7313E-05    40.4297   0.8522  2574.2891
  3      0.0000     0.0000E+00    0.0000E+00    5.010000E+06  0.00400  2.539E-02    0   0.9488   age055_m42            0.0000     1.7296E-05    40.0977   1.1323  2551.2954
  4      0.4472     2.8828E-04    5.1903E-04    6.610000E+06  0.00400  2.620E-02    0   0.9220   age061_m42            0.0000     1.7270E-05    40.5280   0.7797  2580.2153
  5      2.1257     2.7157E-03    4.6997E-03    1.000000E+07  0.00400  1.322E-02    0   0.8862   age070_m42            0.0000     1.7276E-05    41.6830   0.5228  2634.1392
  6      0.0853     1.8279E-04    3.0594E-04    1.445000E+07  0.00400  7.883E-03    0   0.8571   age078_m42            0.0000     1.7214E-05    41.3530   0.8203  2595.0601
  7      0.0000     0.0000E+00    0.0000E+00    2.512000E+07  0.00400  5.251E-03    0   0.8174   age090_m42            0.0000     1.7349E-05    42.0480   0.4110  2634.3828
  8      0.0000     0.0000E+00    0.0000E+00    4.000000E+07  0.00400  3.649E-03    0   0.7851   age104_m42            0.0000     1.7326E-05    41.9969   0.1922  2644.7319
  9      0.0000     0.0000E+00    0.0000E+00    5.500000E+07  0.00400  3.098E-03    0   0.7629   age110_m42            0.0000     1.7325E-05    41.4772   0.3424  2634.9326
 10      0.0000     0.0000E+00    0.0000E+00    1.015200E+08  0.00400  2.228E-03    0   0.7207   age116_m42            0.0000     1.7316E-05    41.2624   0.3659  2630.8315
 11      0.0000     0.0000E+00    0.0000E+00    2.861200E+08  0.00400  1.093E-03    0   0.6648   age125_m42            0.0000     1.7423E-05    42.1788  -0.1644  2672.0532
 12      0.1820     4.6604E-03    5.7926E-03    5.088000E+08  0.00400  6.597E-04    0   0.6365   age130_m42            0.0000     1.7441E-05    41.6433  -0.1715  2679.0708
 13      0.0829     6.5709E-03    7.4397E-03    1.434000E+09  0.00400  2.132E-04    0   0.5798   age139_m42            0.0000     1.7049E-05    44.2280  -1.0000  2675.1099
 14     14.1057     4.0414E+00    4.2435E+00    4.250000E+09  0.00400  5.895E-05    0   0.5377   age158_m42            0.0000     1.7644E-05    55.8771  -1.0000  2385.1733
 15      0.0000     0.0000E+00    0.0000E+00    7.500000E+09  0.00400  3.510E-05    0   0.5212   age171_m42            0.0000     1.8179E-05    61.8462  -1.0000  2278.4568
 16      0.0000     0.0000E+00    0.0000E+00    1.300000E+10  0.00400  2.005E-05    0   0.5034   age193_m42            0.0000     1.8770E-05    67.6390  -1.0000  2189.1633
 17     24.1583     2.6756E+01    2.5952E+01    1.800000E+10  0.00400  1.525E-05    0   0.4967   age213_m42            0.0000     1.8871E-05    68.5890  -1.0000  2168.5232
 18      0.1903     2.5963E-04    5.0699E-04    1.000000E+06  0.00800  1.238E-02    0   1.0000   age020_m52            0.0000     1.7080E-05    39.7873   1.4790  2513.0225
 19      0.4642     2.5507E-04    4.9640E-04    3.160000E+06  0.00800  3.074E-02    0   0.9966   age045_m52            0.0000     1.7037E-05    39.7168   1.4013  2534.6304
 20      0.0000     0.0000E+00    0.0000E+00    5.010000E+06  0.00800  2.668E-02    0   0.9443   age055_m52            0.0000     1.7057E-05    40.0723   1.1916  2558.2957
 21      0.0000     0.0000E+00    0.0000E+00    6.610000E+06  0.00800  2.136E-02    0   0.9177   age061_m52            0.0000     1.7090E-05    41.1409  -0.0019  2686.4011
 22      0.0000     0.0000E+00    0.0000E+00    1.000000E+07  0.00800  1.215E-02    0   0.8827   age070_m52            0.0000     1.7111E-05    41.9432   0.6834  2654.4380
 23      0.0000     0.0000E+00    0.0000E+00    1.445000E+07  0.00800  8.717E-03    0   0.8552   age078_m52            0.0000     1.7107E-05    41.4230   0.7861  2633.4668
 24      1.0223     3.0875E-03    4.9211E-03    2.512000E+07  0.00800  5.592E-03    0   0.8162   age090_m52            0.0000     1.7247E-05    42.1017   0.4700  2669.7200
 25      0.3158     1.3689E-03    2.0961E-03    4.000000E+07  0.00800  3.896E-03    0   0.7841   age104_m52            0.0000     1.7328E-05    42.0184   0.4014  2663.3945
 26      0.0460     3.6198E-04    5.1078E-04    1.015200E+08  0.00800  2.148E-03    0   0.7226   age116_m52            0.0000     1.7369E-05    41.6180   0.3497  2639.3816
 27      2.2113     3.7630E-02    4.9108E-02    2.861200E+08  0.00800  9.925E-04    0   0.6683   age125_m52            0.0000     1.7350E-05    41.5681  -0.1133  2713.8066
 28      0.0000     0.0000E+00    0.0000E+00    9.047900E+08  0.00800  3.141E-04    0   0.6138   age135_m52            0.0000     1.7334E-05    41.1350  -0.8727  2768.5327
 29      0.0000     0.0000E+00    0.0000E+00    1.434000E+09  0.00800  1.719E-04    0   0.5853   age139_m52            0.0000     1.7614E-05    52.6694  -1.0000  2531.5679
 30      0.0000     0.0000E+00    0.0000E+00    2.500000E+09  0.00800  7.872E-05    0   0.5600   age150_m52            0.0000     1.8253E-05    60.3864  -1.0000  2339.9714
 31     19.9228     7.7603E+00    8.2227E+00    4.250000E+09  0.00800  4.336E-05    0   0.5426   age158_m52            0.0000     1.8297E-05    60.8909  -1.0000  2311.1956
 32      0.0000     0.0000E+00    0.0000E+00    6.250000E+09  0.00800  3.159E-05    0   0.5319   age166_m52            0.0000     1.9002E-05    67.5338  -1.0000  2210.4741
 33      9.2532     1.1483E+01    1.1376E+01    1.300000E+10  0.00800  1.361E-05    0   0.5073   age193_m52            0.0000     2.1665E-05    83.1736  -1.0000  1946.2151
 34     12.3063     2.1025E+01    2.0487E+01    1.800000E+10  0.00800  9.886E-06    0   0.4990   age213_m52            0.0000     2.2481E-05    86.1397  -1.0000  1875.5436
 35      0.0000     0.0000E+00    0.0000E+00    1.000000E+06  0.02000  1.544E-02    0   1.0000   age020_m62            0.0000     1.7021E-05    39.7570   1.4671  2527.1792
 36      5.0845     2.2827E-03    4.3943E-03    3.160000E+06  0.02000  3.762E-02    0   0.9858   age045_m62            0.0000     1.6838E-05    39.7142   1.3881  2569.3352
 37      0.9408     4.8210E-04    8.7949E-04    5.010000E+06  0.02000  3.296E-02    0   0.9342   age055_m62            0.0000     1.7037E-05    40.0460   1.0806  2596.1018
 38      0.0000     0.0000E+00    0.0000E+00    8.710000E+06  0.02000  1.154E-02    0   0.8861   age067_m62            0.0000     1.6982E-05    44.5107   0.1284  2784.4514
 39      0.0000     0.0000E+00    0.0000E+00    1.445000E+07  0.02000  7.663E-03    0   0.8472   age078_m62            0.0000     1.7155E-05    42.8275   0.3416  2712.0579
 40      0.0772     2.8784E-04    4.5523E-04    2.512000E+07  0.02000  4.532E-03    0   0.8099   age090_m62            0.0000     1.7259E-05    43.0970   0.3486  2688.6602
 41      1.3990     8.6455E-03    1.2822E-02    5.500000E+07  0.02000  2.733E-03    0   0.7595   age110_m62            0.0000     1.7316E-05    41.9506   0.3755  2655.9653
 42      0.0000     0.0000E+00    0.0000E+00    1.609000E+08  0.02000  1.369E-03    0   0.6985   age120_m62            0.0000     1.7369E-05    41.5168   0.2315  2694.9023
 43      0.0000     0.0000E+00    0.0000E+00    2.861200E+08  0.02000  9.013E-04    0   0.6714   age125_m62            0.0000     1.7412E-05    41.3766  -0.0019  2746.9458
 44      0.5409     1.8170E-02    2.2882E-02    5.088000E+08  0.02000  5.028E-04    0   0.6449   age130_m62            0.0000     1.7541E-05    40.8178  -0.3563  2774.9751
 45      0.1359     9.4524E-03    1.1405E-02    9.047900E+08  0.02000  2.428E-04    0   0.6179   age135_m62            0.0000     1.7470E-05    40.1804  -0.9381  2743.1758
 46      0.6764     9.0456E-02    1.0436E-01    1.434000E+09  0.02000  1.263E-04    0   0.5908   age139_m62            0.0000     1.7578E-05    48.8693  -1.0000  2551.3281
 47      0.0000     0.0000E+00    0.0000E+00    2.500000E+09  0.02000  5.985E-05    0   0.5673   age150_m62            0.0000     1.8494E-05    59.6469  -1.0000  2346.4385
 48      0.0000     0.0000E+00    0.0000E+00    4.250000E+09  0.02000  3.271E-05    0   0.5468   age158_m62            0.0000     1.9637E-05    69.9308  -1.0000  2178.2151
 49      0.0000     0.0000E+00    0.0000E+00    1.000000E+10  0.02000  1.360E-05    0   0.5167   age181_m62            0.0000     2.1758E-05    80.9244  -1.0000  1977.9547
 50      0.0000     0.0000E+00    0.0000E+00    1.800000E+10  0.02000  7.124E-06    0   0.5013   age213_m62            0.0000     2.3497E-05    86.9370  -1.0000  1842.7435
 51      0.0000     0.0000E+00    0.0000E+00    1.000000E+06  0.05000  2.592E-02    0   0.9998   age020_m72            0.0000     1.7020E-05    39.7213   1.4538  2532.8423
 52      8.0430     2.8038E-03    5.2436E-03    3.160000E+06  0.05000  4.845E-02    0   0.9577   age045_m72            0.0000     1.6941E-05    39.7754   1.2986  2571.3223
 53      0.0365     2.0051E-05    3.5814E-05    5.010000E+06  0.05000  3.072E-02    0   0.9147   age055_m72            0.0000     1.6996E-05    41.7363   0.8686  2651.1084
 54      0.0000     0.0000E+00    0.0000E+00    6.610000E+06  0.05000  1.455E-02    0   0.8877   age061_m72            0.0000     1.7180E-05    46.2496   0.1627  2816.8945
 55      0.0000     0.0000E+00    0.0000E+00    1.000000E+07  0.05000  9.074E-03    0   0.8524   age070_m72            0.0000     1.6968E-05    42.2232   1.0295  2653.6196
 56      0.0000     0.0000E+00    0.0000E+00    2.512000E+07  0.05000  4.250E-03    0   0.7902   age090_m72            0.0000     1.7325E-05    42.3864   0.8079  2626.8745
 57      0.0000     0.0000E+00    0.0000E+00    4.000000E+07  0.05000  3.087E-03    0   0.7618   age104_m72            0.0000     1.7428E-05    42.7835   0.6052  2646.3438
 58      0.0000     0.0000E+00    0.0000E+00    1.015200E+08  0.05000  1.700E-03    0   0.7096   age116_m72            0.0000     1.7403E-05    41.9233   0.3749  2685.3328
 59      0.0722     1.6510E-03    2.1385E-03    2.861200E+08  0.05000  7.384E-04    0   0.6633   age125_m72            0.0000     1.7509E-05    40.9260  -0.1239  2759.2517
 60      1.7015     7.5247E-02    9.3631E-02    5.088000E+08  0.05000  3.819E-04    0   0.6372   age130_m72            0.0000     1.7580E-05    40.1130  -0.6010  2772.4082
 61      0.0000     0.0000E+00    0.0000E+00    9.047900E+08  0.05000  1.676E-04    0   0.6110   age135_m72            0.0000     1.7785E-05    45.2921  -1.0000  2592.5769
 62      0.0000     0.0000E+00    0.0000E+00    1.434000E+09  0.05000  8.837E-05    0   0.5874   age139_m72            0.0000     1.8600E-05    59.3317  -1.0000  2372.0244
 63      0.0000     0.0000E+00    0.0000E+00    2.500000E+09  0.05000  4.233E-05    0   0.5598   age150_m72            0.0000     1.9750E-05    69.4313  -1.0000  2194.0732
 64     24.3574     2.8668E+01    2.9385E+01    6.250000E+09  0.05000  1.435E-05    0   0.5249   age166_m72            0.0000     2.2550E-05    83.8683  -1.0000  1915.8672
 65      0.0000     0.0000E+00    0.0000E+00    1.300000E+10  0.05000  6.513E-06    0   0.5036   age193_m72            0.0000     2.5127E-05    91.8110  -1.0000  1773.2935
 66      0.0000     0.0000E+00    0.0000E+00    1.800000E+10  0.05000  4.527E-06    0   0.4945   age213_m72            0.0000     2.6833E-05    95.7798  -1.0000  1674.4507


## Synthesis Results - Average & Chains ##

# j      x_j: min, <> & last-chain-values for 1 ...  7 chains
  1      0.0000     35.3032     26.7204      3.5546      0.4032     10.0026     14.2905      7.7451      6.1038
  2      0.0000      1.2729      0.0000      0.0000      0.5584      0.0000      3.6973      0.0000      2.6026
  3      0.0000      1.2428      0.0000      0.7186      0.0511      2.3976      2.0745      2.5874      0.6861
  4      0.4472      1.3452      0.8076      2.2350      0.0000      0.0000      0.8448      1.1023      1.5463
  5      2.1257      1.3253      0.9563      4.2893      0.2479      0.0000      1.1854      3.4171      0.8316
  6      0.0853      1.5251      1.1418      4.7566      0.6840      3.0535      1.9874      1.1563      0.0000
  7      0.0000      1.5029      0.9344      1.2036     14.3587      9.5669      1.6699      0.5034      0.0000
  8      0.0000      1.2095      1.7465      0.1293      6.5984      0.5201      0.6833      5.4745      1.4838
  9      0.0000      1.0060      0.0000      0.0000      3.5716      0.3428      1.7995      1.0053      0.2019
 10      0.0000      1.9593      1.5041      3.6391      4.4193      0.0000      1.6279      2.6797      0.9114
 11      0.0000      1.2464      0.0000      0.0000      0.9104      0.0000      4.0606      1.2414      0.0000
 12      0.1820      1.4179      0.7305      2.6590      0.4265      3.6310      0.0000      0.0000      0.5940
 13      0.0829      1.5655      0.0000      6.4140      0.0000      5.4576      6.2103      1.9931      3.7061
 14     14.1057      1.1589      1.6815      0.8370      1.9752      4.3301      0.6564      0.6262      0.0000
 15      0.0000      1.2112      0.9563      4.2311      0.5607      0.6840      3.3075      0.4618      0.1511
 16      0.0000      1.3178      3.0713      0.4867      3.2706      1.3809      2.6513      5.1101      0.0000
 17     24.1583      4.7257      8.4995      0.7734      5.3597      0.3186      3.0012      7.0779      4.1705
 18      0.1903      1.9283      2.4936      0.5835      4.6444      2.5904      0.2951      4.6825      0.0000
 19      0.4642      1.3935      0.0000      2.4251      0.0000      0.3640      3.5304      2.7118      0.5980
 20      0.0000      1.3617      1.2101      0.4871      3.8786      1.6385      0.2022      0.7100      0.3136
 21      0.0000      2.0436      0.5842      0.0000      0.0000      0.4456      2.3618      0.1353      4.8146
 22      0.0000      1.3716      2.2611      0.0000      0.0000      1.1321      0.0000      0.0000      0.7307
 23      0.0000      1.2801      0.2477      1.4530      0.0000      0.0000      1.4080      1.5983      0.0000
 24      1.0223      1.0286      0.0000      3.3148      0.0000      0.0000      1.4434      0.9718      0.0000
 25      0.3158      2.1172      0.6374      2.7398      0.0000      7.0354      6.5743      0.0000      0.0000
 26      0.0460      1.4117      0.1675      2.0486      7.3132      0.0000      0.9679      0.0000      2.5944
 27      2.2113      1.3244      3.0458      2.1866      1.4233      0.0000      3.0203      0.0000      3.5288
 28      0.0000      1.1090      1.1764      0.0000      0.0000      0.0000      2.7293      4.1841      1.2463
 29      0.0000      1.6714      0.0000      0.0000      0.0000      0.0000      1.2213      3.2015      1.7449
 30      0.0000      1.3267      0.1341      1.1002      5.6865      2.1570      4.8099      0.0000      1.3731
 31     19.9228      1.5362      4.2747      1.0401      2.7000      0.0000      0.4607      0.8794      3.5528
 32      0.0000      1.0561      1.4160      0.1752      4.1530      5.0167      1.4544      0.0000      2.9087
 33      9.2532      1.4416      1.3353      6.9268      3.4883      0.3963      1.3098      3.7515      0.5635
 34     12.3063      1.2694      2.7705      4.2471      2.2854      5.1133      5.6888      0.0000      5.1913
 35      0.0000      1.2086      1.4219      0.0000      2.8778      0.3849      5.2738      0.5308      0.1913
 36      5.0845      1.1020      0.0000      3.0960      0.3876      4.2452      0.0000      2.7763      0.8752
 37      0.9408      0.8855      1.2673      0.9559      0.3907      1.4101      0.0000      0.5204      0.2597
 38      0.0000      1.5613      2.1477      2.2649      1.9233      0.0000      0.7687      2.4346      4.9793
 39      0.0000      1.4143      0.0000      2.3325      0.8294      2.3867      0.1647      3.1523      0.0000
 40      0.0772      1.2150      0.0000      2.1346      1.3946      0.0000      2.1358      0.7168      5.0109
 41      1.3990      1.5372      0.0000      3.6981      7.6770      0.0000      0.0000      3.0018      2.0757
 42      0.0000      1.3471      1.4769      0.1912      0.0000      4.6021      0.0000      0.3246      0.0000
 43      0.0000      1.6310      0.0000      0.0418      0.0000      0.0000      0.7113      9.9618      0.0000
 44      0.5409      1.3318      2.8245      3.1176      0.0000      3.0416      0.0000      0.9059      0.3170
 45      0.1359      1.5350      0.0000      4.9475      0.0000      0.0000      2.0716      0.0000      4.7566
 46      0.6764      1.2373      0.1190      2.2203      0.0000      2.6416      0.0000      2.1744      3.7612
