###################################################################
## OUTPUT of StarlightChains_v04.for    [Cid@UFSC - 01/Apr/2007] ##
###################################################################

## Some input info
KUG0210-078._34_45.txt                   [arq_obs]
Base.CB07.vall.4m                        [arq_base]
Masks.EmLines.NEW.gm                     [arq_masks]
StCv04.C11.config                        [arq_config]
   66                                    [N_base]
    0                                    [N_YAV_components = # of components with extra extinction!]
    0                                    [i_FitPowerLaw (1/0 = Yes/No)]
-9.99                                    [alpha_PowerLaw]
CCM                                      [red_law_option]
 1.458241                                [q_norm = A(l_norm)/A(V)]

## (Re)Sampling Parameters
 3741.00                                 [l_ini (A)]
 7218.00                                 [l_fin (A)]
    1.00                                 [dl    (A)]     (OBS: dl_cushion =    50.00 A)

## Normalization info
 4020.00                                 [l_norm (A) - for base]
 4010.00                                 [llow_norm (A) - window for f_obs]
 4060.00                                 [lupp_norm (A) - window for f_obs]
5.803008E-18                             [fobs_norm (in input units)]

## S/N
 3691.00                                 [llow_SN (A) - window for S/N]
 7268.00                                 [lupp_SN (A) - window for S/N]
   3.748                                 [S/N in S/N window]
   2.444                                 [S/N in norm. window]
   0.010                                 [S/N_err in S/N window]
   0.007                                 [S/N_err in norm. window]
  1.0000                                 [fscale_chi2]

## etc...
    -2007550                             [idum_orig]
  2384                                   [NOl_eff]
  2372                                   [Nl_eff]
    12    NSIGMA                         [Ntot_cliped & clip_method]
   858060                                [Nglobal_steps]
   7                                     [N_chains]
  36                                     [NEX0s_base = N_base in EX0s-fits]
 0   0   1       12   2.0   8.374E+02    [Clip-Bug, RC-Crash & Burn-In warning-flags, n_censored_weights, wei_nsig_threshold & wei_limit]
    23     23.221     22.815      0.406  [idt_all, wdt_TotTime, wdt_UsrTime & wdt_SysTime (sec)]

## Synthesis Results - Best model ##

 1.41901E-05                             [chi2/Nl_eff]
    38.43078                             [adev (%)]

   129.99998                             [sum-of-x (%)]
 1.43663E-17                             [Flux_tot (units of input spectrum!)]
 5.29640E-13                             [Mini_tot (???)]
 2.71525E-13                             [Mcor_tot (???)]

-149.75                                  [v0_min  (km/s)]
 247.16                                  [vd_min  (km/s)]
 0.4796                                  [AV_min  (mag)]
 0.0000                                  [YAV_min (mag)]

# j     x_j(%)      Mini_j(%)     Mcor_j(%)     age_j(yr)     Z_j      (L/M)_j    YAV?  Mstars   component_j        a/Fe...       SSP_chi2r SSP_adev(%)   SSP_AV   SSP_x(%)
  1      0.0000     0.0000E+00    0.0000E+00    1.000000E+06  0.00400  1.094E-02    0   1.0000   age020_m42            0.0000     1.5501E-05    41.7828   3.6825   115.2736
  2      0.0000     0.0000E+00    0.0000E+00    3.160000E+06  0.00400  4.007E-02    0   0.9999   age045_m42            0.0000     1.5327E-05    41.3132   2.9617   122.5830
  3      0.0000     0.0000E+00    0.0000E+00    5.010000E+06  0.00400  2.539E-02    0   0.9488   age055_m42            0.0000     1.5383E-05    41.5661   3.2824   119.7432
  4      0.0000     0.0000E+00    0.0000E+00    6.610000E+06  0.00400  2.620E-02    0   0.9220   age061_m42            0.0000     1.5354E-05    41.3685   2.8905   122.7089
  5      0.0000     0.0000E+00    0.0000E+00    1.000000E+07  0.00400  1.322E-02    0   0.8862   age070_m42            0.0000     1.6013E-05    43.0609   2.6319   124.1898
  6      0.0000     0.0000E+00    0.0000E+00    1.445000E+07  0.00400  7.883E-03    0   0.8571   age078_m42            0.0000     1.5960E-05    42.9614   2.9535   121.4063
  7      0.0000     0.0000E+00    0.0000E+00    2.512000E+07  0.00400  5.251E-03    0   0.8174   age090_m42            0.0000     1.6176E-05    43.3709   2.5063   124.6394
  8      0.0000     0.0000E+00    0.0000E+00    4.000000E+07  0.00400  3.649E-03    0   0.7851   age104_m42            0.0000     1.6059E-05    43.1147   2.2779   125.6858
  9      0.0000     0.0000E+00    0.0000E+00    5.500000E+07  0.00400  3.098E-03    0   0.7629   age110_m42            0.0000     1.5798E-05    42.2341   2.4227   126.0869
 10      0.0000     0.0000E+00    0.0000E+00    1.015200E+08  0.00400  2.228E-03    0   0.7207   age116_m42            0.0000     1.5661E-05    41.6023   2.4369   126.5523
 11      0.3009     5.7448E-03    7.4497E-03    2.861200E+08  0.00400  1.093E-03    0   0.6648   age125_m42            0.0000     1.5894E-05    41.9903   1.8736   129.6639
 12      0.0000     0.0000E+00    0.0000E+00    5.088000E+08  0.00400  6.597E-04    0   0.6365   age130_m42            0.0000     1.5672E-05    41.0648   1.8581   131.0416
 13      0.0000     0.0000E+00    0.0000E+00    1.434000E+09  0.00400  2.132E-04    0   0.5798   age139_m42            0.0000     1.5193E-05    40.5135   0.8912   133.4005
 14      7.9595     2.8172E+00    2.9548E+00    4.250000E+09  0.00400  5.895E-05    0   0.5377   age158_m42            0.0000     1.4298E-05    39.3124   0.4313   129.2866
 15      6.2137     3.6937E+00    3.7552E+00    7.500000E+09  0.00400  3.510E-05    0   0.5212   age171_m42            0.0000     1.4148E-05    38.8113   0.2388   128.6131
 16      0.0000     0.0000E+00    0.0000E+00    1.300000E+10  0.00400  2.005E-05    0   0.5034   age193_m42            0.0000     1.4043E-05    38.3046   0.0675   128.1446
 17      3.8207     5.2275E+00    5.0648E+00    1.800000E+10  0.00400  1.525E-05    0   0.4967   age213_m42            0.0000     1.4054E-05    38.4497   0.0452   127.5553
 18      7.2865     1.2281E-02    2.3955E-02    1.000000E+06  0.00800  1.238E-02    0   1.0000   age020_m52            0.0000     1.5468E-05    41.7918   3.6795   115.4982
 19      0.0000     0.0000E+00    0.0000E+00    3.160000E+06  0.00800  3.074E-02    0   0.9966   age045_m52            0.0000     1.5403E-05    41.6704   3.5994   116.6437
 20      0.0000     0.0000E+00    0.0000E+00    5.010000E+06  0.00800  2.668E-02    0   0.9443   age055_m52            0.0000     1.5363E-05    41.6551   3.3600   118.9125
 21      2.5475     2.4884E-03    4.4545E-03    6.610000E+06  0.00800  2.136E-02    0   0.9177   age061_m52            0.0000     1.5632E-05    42.9462   2.1308   125.7560
 22      0.0000     0.0000E+00    0.0000E+00    1.000000E+07  0.00800  1.215E-02    0   0.8827   age070_m52            0.0000     1.6202E-05    43.6201   2.8123   123.8563
 23      0.0000     0.0000E+00    0.0000E+00    1.445000E+07  0.00800  8.717E-03    0   0.8552   age078_m52            0.0000     1.5929E-05    43.0138   2.9202   123.0290
 24      1.9504     7.2772E-03    1.1586E-02    2.512000E+07  0.00800  5.592E-03    0   0.8162   age090_m52            0.0000     1.6177E-05    43.4966   2.5707   126.0684
 25      0.0000     0.0000E+00    0.0000E+00    4.000000E+07  0.00800  3.896E-03    0   0.7841   age104_m52            0.0000     1.5996E-05    43.0246   2.4789   127.1503
 26      0.0000     0.0000E+00    0.0000E+00    1.015200E+08  0.00800  2.148E-03    0   0.7226   age116_m52            0.0000     1.5654E-05    42.0033   2.4086   127.3232
 27      0.0000     0.0000E+00    0.0000E+00    2.861200E+08  0.00800  9.925E-04    0   0.6683   age125_m52            0.0000     1.5605E-05    41.1235   1.9225   132.3136
 28     13.6543     9.0703E-01    1.0860E+00    9.047900E+08  0.00800  3.141E-04    0   0.6138   age135_m52            0.0000     1.4968E-05    39.8322   1.1112   138.2618
 29      2.8171     3.4194E-01    3.9039E-01    1.434000E+09  0.00800  1.719E-04    0   0.5853   age139_m52            0.0000     1.4507E-05    39.6647   0.5279   135.5735
 30      0.5141     1.3627E-01    1.4886E-01    2.500000E+09  0.00800  7.872E-05    0   0.5600   age150_m52            0.0000     1.3975E-05    38.3100   0.2467   132.7374
 31      0.0000     0.0000E+00    0.0000E+00    4.250000E+09  0.00800  4.336E-05    0   0.5426   age158_m52            0.0000     1.3932E-05    38.2467   0.2319   131.5020
 32      0.0000     0.0000E+00    0.0000E+00    6.250000E+09  0.00800  3.159E-05    0   0.5319   age166_m52            0.0000     1.3831E-05    37.4682   0.0200   131.8772
 33      3.5255     5.4048E+00    5.3483E+00    1.300000E+10  0.00800  1.361E-05    0   0.5073   age193_m52            0.0000     1.3771E-05    36.5567  -0.4571   131.3772
 34      4.9323     1.0410E+01    1.0133E+01    1.800000E+10  0.00800  9.886E-06    0   0.4990   age213_m52            0.0000     1.3753E-05    35.7312  -0.5786   131.3013
 35      0.0000     0.0000E+00    0.0000E+00    1.000000E+06  0.02000  1.544E-02    0   1.0000   age020_m62            0.0000     1.5462E-05    41.7927   3.6730   115.8708
 36      0.0000     0.0000E+00    0.0000E+00    3.160000E+06  0.02000  3.762E-02    0   0.9858   age045_m62            0.0000     1.5428E-05    41.6974   3.6090   117.0204
 37      0.0000     0.0000E+00    0.0000E+00    5.010000E+06  0.02000  3.296E-02    0   0.9342   age055_m62            0.0000     1.5210E-05    41.2404   3.2366   121.4451
 38      0.0000     0.0000E+00    0.0000E+00    8.710000E+06  0.02000  1.154E-02    0   0.8861   age067_m62            0.0000     1.8168E-05    47.3351   2.2957   125.5562
 39      0.0000     0.0000E+00    0.0000E+00    1.445000E+07  0.02000  7.663E-03    0   0.8472   age078_m62            0.0000     1.6679E-05    44.7188   2.4679   126.0672
 40      0.0000     0.0000E+00    0.0000E+00    2.512000E+07  0.02000  4.532E-03    0   0.8099   age090_m62            0.0000     1.6810E-05    44.8467   2.4620   125.5429
 41      0.0000     0.0000E+00    0.0000E+00    5.500000E+07  0.02000  2.733E-03    0   0.7595   age110_m62            0.0000     1.5922E-05    42.9604   2.4606   126.3148
 42      0.0000     0.0000E+00    0.0000E+00    1.609000E+08  0.02000  1.369E-03    0   0.6985   age120_m62            0.0000     1.5659E-05    41.5785   2.2912   130.0781
 43      0.0000     0.0000E+00    0.0000E+00    2.861200E+08  0.02000  9.013E-04    0   0.6714   age125_m62            0.0000     1.5673E-05    40.8844   2.0363   133.9295
 44      0.0000     0.0000E+00    0.0000E+00    5.088000E+08  0.02000  5.028E-04    0   0.6449   age130_m62            0.0000     1.5301E-05    39.5911   1.6430   138.1458
 45      0.0000     0.0000E+00    0.0000E+00    9.047900E+08  0.02000  2.428E-04    0   0.6179   age135_m62            0.0000     1.4444E-05    38.8857   1.0473   137.7872
 46     21.7333     3.5904E+00    4.1377E+00    1.434000E+09  0.02000  1.263E-04    0   0.5908   age139_m62            0.0000     1.4042E-05    38.4705   0.5987   136.0046
 47      0.0000     0.0000E+00    0.0000E+00    2.500000E+09  0.02000  5.985E-05    0   0.5673   age150_m62            0.0000     1.3683E-05    37.4160   0.2171   134.9107
 48      0.0000     0.0000E+00    0.0000E+00    4.250000E+09  0.02000  3.271E-05    0   0.5468   age158_m62            0.0000     1.3578E-05    36.2789  -0.1011   134.3283
 49      0.0000     0.0000E+00    0.0000E+00    1.000000E+10  0.02000  1.360E-05    0   0.5167   age181_m62            0.0000     1.3599E-05    34.9053  -0.4659   134.4612
 50      0.0000     0.0000E+00    0.0000E+00    1.800000E+10  0.02000  7.124E-06    0   0.5013   age213_m62            0.0000     1.3645E-05    33.8181  -0.6943   134.2019
 51      0.0000     0.0000E+00    0.0000E+00    1.000000E+06  0.05000  2.592E-02    0   0.9998   age020_m72            0.0000     1.5486E-05    41.9028   3.6642   115.9544
 52      0.0000     0.0000E+00    0.0000E+00    3.160000E+06  0.05000  4.845E-02    0   0.9577   age045_m72            0.0000     1.5258E-05    41.3805   3.4907   118.5461
 53      0.0000     0.0000E+00    0.0000E+00    5.010000E+06  0.05000  3.072E-02    0   0.9147   age055_m72            0.0000     1.6106E-05    43.5017   3.0325   122.3226
 54      0.0000     0.0000E+00    0.0000E+00    6.610000E+06  0.05000  1.455E-02    0   0.8877   age061_m72            0.0000     1.9531E-05    48.9406   2.3318   126.2070
 55      0.0000     0.0000E+00    0.0000E+00    1.000000E+07  0.05000  9.074E-03    0   0.8524   age070_m72            0.0000     1.6332E-05    43.4879   3.1982   122.2230
 56      1.8634     9.1481E-03    1.4101E-02    2.512000E+07  0.05000  4.250E-03    0   0.7902   age090_m72            0.0000     1.6236E-05    43.4042   2.9142   123.9862
 57      1.3866     9.3723E-03    1.3927E-02    4.000000E+07  0.05000  3.087E-03    0   0.7618   age104_m72            0.0000     1.6393E-05    43.6135   2.6904   125.7700
 58      1.4291     1.7541E-02    2.4279E-02    1.015200E+08  0.05000  1.700E-03    0   0.7096   age116_m72            0.0000     1.5928E-05    42.2107   2.4346   129.3788
 59      1.7875     5.0510E-02    6.5352E-02    2.861200E+08  0.05000  7.384E-04    0   0.6633   age125_m72            0.0000     1.5403E-05    40.1861   1.8951   136.1754
 60      2.8691     1.5675E-01    1.9483E-01    5.088000E+08  0.05000  3.819E-04    0   0.6372   age130_m72            0.0000     1.4646E-05    39.0134   1.3867   139.2455
 61     23.3390     2.9055E+00    3.4629E+00    9.047900E+08  0.05000  1.676E-04    0   0.6110   age135_m72            0.0000     1.3688E-05    37.4617   0.6699   137.8912
 62      0.0000     0.0000E+00    0.0000E+00    1.434000E+09  0.05000  8.837E-05    0   0.5874   age139_m72            0.0000     1.3665E-05    37.2652   0.2099   137.1751
 63      0.0000     0.0000E+00    0.0000E+00    2.500000E+09  0.05000  4.233E-05    0   0.5598   age150_m72            0.0000     1.3487E-05    35.8903  -0.1115   135.9923
 64      0.0000     0.0000E+00    0.0000E+00    6.250000E+09  0.05000  1.435E-05    0   0.5249   age166_m72            0.0000     1.3571E-05    34.6514  -0.5728   134.3750
 65     20.0695     6.4295E+01    6.3159E+01    1.300000E+10  0.05000  6.513E-06    0   0.5036   age193_m72            0.0000     1.3636E-05    33.3172  -0.8742   136.5977
 66      0.0000     0.0000E+00    0.0000E+00    1.800000E+10  0.05000  4.527E-06    0   0.4945   age213_m72            0.0000     1.3748E-05    32.6558  -1.0000   135.1506


## Synthesis Results - Average & Chains ##

# j      x_j: min, <> & last-chain-values for 1 ...  7 chains
  1      0.0000      1.3619      0.4244      1.9744      0.0000      3.5202      0.0000      0.0000      0.0000
  2      0.0000      1.9134      3.6589      0.0000      0.0000      2.9130      2.9557      0.6491      5.7116
  3      0.0000      1.5648      8.8454      1.9014      0.0000      1.4071      0.0000      0.2698      3.6666
  4      0.0000      1.4953      2.1294      0.0550      0.0000      0.6367      3.5748      0.0000      2.7312
  5      0.0000      1.5280      0.0000      1.2733      3.4810      3.9999      0.5165      1.9753      1.9017
  6      0.0000      1.5089      0.0000      0.0000      1.5170      0.5029     10.8385      0.0000      7.1599
  7      0.0000      1.8784      5.7210      0.4395      9.8316      5.2150      5.3691      0.0000      8.9132
  8      0.0000      1.6386      1.9760      0.0000      0.4133      3.4165      0.0000      0.0000      0.4463
  9      0.0000      1.2760      0.7798      0.3820      1.1272      0.2290      0.5853      0.0000      3.8422
 10      0.0000      1.6545      0.0000      1.4932      4.7917      0.0000      1.1419      2.2237      0.0000
 11      0.3009      1.9782      7.6866      9.7588      2.3214      0.0000      1.2173      2.0769      0.0000
 12      0.0000      1.8897      4.4806      7.1252      2.6107      1.2896      5.4241      1.4075      3.8655
 13      0.0000      1.9405      0.0000      2.1399      1.5421      1.2379      3.6140      0.0000      2.9506
 14      7.9595      1.1301      0.0000      2.2473      3.7082      0.1181      0.0000      0.4619      0.9512
 15      6.2137      1.2911      0.0000      1.6251      0.0000      0.1009      1.0106      0.0000      0.0000
 16      0.0000     13.2760      4.5074      0.3018      0.9942      0.0000      2.2500      1.8449      3.8831
 17      3.8207     14.7862      2.0122      3.7021      0.0000      3.2046      8.1042      6.0749      0.6947
 18      7.2865      1.7635      0.0216      1.6947      0.0000      1.6089      7.6314      7.3360      9.1823
 19      0.0000      1.4990      0.0000      6.0708      2.2888      4.2619      3.9312      0.5311      0.5517
 20      0.0000      1.3671      0.0000      0.6405      2.5317      0.6617      2.7022      1.7521      4.2457
 21      2.5475      1.8136      1.8897      1.6290      1.2731      4.2151      1.4824      0.1804      0.3521
 22      0.0000      1.6122      0.0000      0.0000      0.7356      0.0000      8.3373      0.0000      0.0000
 23      0.0000      1.7912      7.5591      0.0000      1.3931      3.5348      1.1343      0.0000      5.3346
 24      1.9504      1.8192      0.0000      2.3185      0.0000      5.9472      0.0000      1.0834      0.0000
 25      0.0000      1.0760      0.0000      0.0000      0.0000      2.8644      1.8860      0.7458      0.0000
 26      0.0000      1.1507      2.6026      0.0000      0.0000      0.1805      0.0000      0.1854      0.0000
 27      0.0000      1.4506      0.9735      2.7607      2.6917      0.0000      0.0000      2.3483      4.7314
 28     13.6543      1.4003      0.5560      1.7263      0.0000      2.0654      1.0810      1.6387      2.6184
 29      2.8171      1.6228      0.9215      5.1430      0.0000      1.3777      1.3021      0.0000      0.6512
 30      0.5141      1.7086      0.0000      0.9486      4.5638      0.3591      1.9125      2.2804      0.4250
 31      0.0000      1.2051      3.3895      0.0000      0.0000      1.2567      3.9506      0.0000      0.0000
 32      0.0000      1.6996      3.1749      0.4213      1.3788      2.6021      0.0000      1.0456      1.5848
 33      3.5255      1.4581      0.2463      0.8876      0.0085      0.6908      0.5149      5.4055      4.7005
 34      4.9323      1.7863      0.0000      4.8490      0.0000      0.0000      0.1481      2.7513      0.0000
 35      0.0000      1.4330      0.0000      0.0000      4.7701      0.0000      1.4110      0.0000      1.2365
 36      0.0000      1.6665      0.0000      0.0000      0.0000      0.0000      2.2335      0.0000      3.7525
 37      0.0000      1.5455      1.1540      0.9610      2.1907      2.7895      4.8265      9.1023      1.9831
 38      0.0000      1.3174      2.4484      0.0000      0.0478      0.0000      0.0000      0.0000      0.0000
 39      0.0000      1.2633      5.6870      0.0000      2.9849      8.4044      0.0000      2.0486      1.5228
 40      0.0000      1.8378      6.8609      3.0448      9.7934      3.1238      0.0000      0.6209      4.8013
 41      0.0000      1.2792      1.2595      0.0000      0.0000      4.6520      0.0000      0.0000      2.7438
 42      0.0000      1.9586      0.3744      2.8553      0.0000      2.2987      0.8038      5.1602      1.4000
 43      0.0000      1.5580      0.0000      1.2032      1.7922      0.0960      0.0000      0.0000      1.6507
 44      0.0000      1.7644      3.8883      9.0801      4.6770      5.5885      1.7532      0.1705      1.8358
 45      0.0000      1.6214      0.3284      0.2163      2.3202      0.4440      1.9028      2.7629      2.3677
 46     21.7333      1.4398      2.1355      0.8566      0.3450      3.5237      0.0000      4.3919      0.0000
