###################################################################
## OUTPUT of StarlightChains_v04.for    [Cid@UFSC - 01/Apr/2007] ##
###################################################################

## Some input info
KUG0210-078._31_28.txt                   [arq_obs]
Base.CB07.vall.4m                        [arq_base]
Masks.EmLines.NEW.gm                     [arq_masks]
StCv04.C11.config                        [arq_config]
   66                                    [N_base]
    0                                    [N_YAV_components = # of components with extra extinction!]
    0                                    [i_FitPowerLaw (1/0 = Yes/No)]
-9.99                                    [alpha_PowerLaw]
CCM                                      [red_law_option]
 1.458241                                [q_norm = A(l_norm)/A(V)]

## (Re)Sampling Parameters
 3741.00                                 [l_ini (A)]
 7218.00                                 [l_fin (A)]
    1.00                                 [dl    (A)]     (OBS: dl_cushion =    50.00 A)

## Normalization info
 4020.00                                 [l_norm (A) - for base]
 4010.00                                 [llow_norm (A) - window for f_obs]
 4060.00                                 [lupp_norm (A) - window for f_obs]
2.400161E-17                             [fobs_norm (in input units)]

## S/N
 3691.00                                 [llow_SN (A) - window for S/N]
 7268.00                                 [lupp_SN (A) - window for S/N]
   4.175                                 [S/N in S/N window]
   3.280                                 [S/N in norm. window]
   0.053                                 [S/N_err in S/N window]
   0.042                                 [S/N_err in norm. window]
  1.0000                                 [fscale_chi2]

## etc...
    -2007453                             [idum_orig]
  2431                                   [NOl_eff]
  1992                                   [Nl_eff]
   439    NSIGMA                         [Ntot_cliped & clip_method]
 10216080                                [Nglobal_steps]
   7                                     [N_chains]
   7                                     [NEX0s_base = N_base in EX0s-fits]
 0   0   1      439   2.0   2.245E+04    [Clip-Bug, RC-Crash & Burn-In warning-flags, n_censored_weights, wei_nsig_threshold & wei_limit]
   134    132.550    131.306      1.244  [idt_all, wdt_TotTime, wdt_UsrTime & wdt_SysTime (sec)]

## Synthesis Results - Best model ##

 6.30494E-05                             [chi2/Nl_eff]
    10.04592                             [adev (%)]

   130.00000                             [sum-of-x (%)]
 8.14493E-18                             [Flux_tot (units of input spectrum!)]
 8.36015E-13                             [Mini_tot (???)]
 4.26244E-13                             [Mcor_tot (???)]

 -47.88                                  [v0_min  (km/s)]
 158.00                                  [vd_min  (km/s)]
-1.0000                                  [AV_min  (mag)]
 0.0000                                  [YAV_min (mag)]

# j     x_j(%)      Mini_j(%)     Mcor_j(%)     age_j(yr)     Z_j      (L/M)_j    YAV?  Mstars   component_j        a/Fe...       SSP_chi2r SSP_adev(%)   SSP_AV   SSP_x(%)
  1      0.0000     0.0000E+00    0.0000E+00    1.000000E+06  0.00400  1.094E-02    0   1.0000   age020_m42            0.0000     1.0321E-04    12.9054   2.8366   136.3248
  2      0.0000     0.0000E+00    0.0000E+00    3.160000E+06  0.00400  4.007E-02    0   0.9999   age045_m42            0.0000     7.5613E-05    11.8075   2.0340   150.5101
  3      0.0000     0.0000E+00    0.0000E+00    5.010000E+06  0.00400  2.539E-02    0   0.9488   age055_m42            0.0000     8.6740E-05    12.2291   2.3807   145.1960
  4      0.0000     0.0000E+00    0.0000E+00    6.610000E+06  0.00400  2.620E-02    0   0.9220   age061_m42            0.0000     7.3705E-05    11.6877   1.9468   151.7492
  5      0.0000     0.0000E+00    0.0000E+00    1.000000E+07  0.00400  1.322E-02    0   0.8862   age070_m42            0.0000     8.1836E-05    12.4037   1.6800   154.4478
  6      0.0000     0.0000E+00    0.0000E+00    1.445000E+07  0.00400  7.883E-03    0   0.8571   age078_m42            0.0000     8.8630E-05    12.6858   2.0289   149.0532
  7      0.0000     0.0000E+00    0.0000E+00    2.512000E+07  0.00400  5.251E-03    0   0.8174   age090_m42            0.0000     8.1576E-05    12.5052   1.5484   155.5268
  8      0.0000     0.0000E+00    0.0000E+00    4.000000E+07  0.00400  3.649E-03    0   0.7851   age104_m42            0.0000     7.6170E-05    12.1869   1.3090   157.5759
  9      0.0000     0.0000E+00    0.0000E+00    5.500000E+07  0.00400  3.098E-03    0   0.7629   age110_m42            0.0000     6.7235E-05    11.5737   1.4383   158.9630
 10      0.0000     0.0000E+00    0.0000E+00    1.015200E+08  0.00400  2.228E-03    0   0.7207   age116_m42            0.0000     6.0975E-05    11.1210   1.4355   160.6603
 11      0.0000     0.0000E+00    0.0000E+00    2.861200E+08  0.00400  1.093E-03    0   0.6648   age125_m42            0.0000     5.8184E-05    11.2287   0.8491   166.8073
 12      0.0000     0.0000E+00    0.0000E+00    5.088000E+08  0.00400  6.597E-04    0   0.6365   age130_m42            0.0000     5.0307E-05    10.5443   0.8203   169.3049
 13      0.0000     0.0000E+00    0.0000E+00    1.434000E+09  0.00400  2.132E-04    0   0.5798   age139_m42            0.0000     4.3990E-05     9.6902  -0.1215   170.5336
 14      0.0000     0.0000E+00    0.0000E+00    4.250000E+09  0.00400  5.895E-05    0   0.5377   age158_m42            0.0000     5.0522E-05     9.7319  -0.4970   159.1537
 15      0.0000     0.0000E+00    0.0000E+00    7.500000E+09  0.00400  3.510E-05    0   0.5212   age171_m42            0.0000     5.0001E-05     9.5602  -0.6749   157.2394
 16      0.0000     0.0000E+00    0.0000E+00    1.300000E+10  0.00400  2.005E-05    0   0.5034   age193_m42            0.0000     5.0741E-05     9.5053  -0.8324   155.7079
 17      0.0000     0.0000E+00    0.0000E+00    1.800000E+10  0.00400  1.525E-05    0   0.4967   age213_m42            0.0000     5.1758E-05     9.5803  -0.8517   154.8406
 18      0.0000     0.0000E+00    0.0000E+00    1.000000E+06  0.00800  1.238E-02    0   1.0000   age020_m52            0.0000     1.0297E-04    12.8948   2.8338   136.5612
 19      0.0000     0.0000E+00    0.0000E+00    3.160000E+06  0.00800  3.074E-02    0   0.9966   age045_m52            0.0000     9.9853E-05    12.7337   2.7480   138.3348
 20      0.0000     0.0000E+00    0.0000E+00    5.010000E+06  0.00800  2.668E-02    0   0.9443   age055_m52            0.0000     8.9966E-05    12.3517   2.4752   143.2279
 21      0.0000     0.0000E+00    0.0000E+00    6.610000E+06  0.00800  2.136E-02    0   0.9177   age061_m52            0.0000     8.4940E-05    12.3444   1.2173   153.7635
 22      0.0000     0.0000E+00    0.0000E+00    1.000000E+07  0.00800  1.215E-02    0   0.8827   age070_m52            0.0000     8.8759E-05    12.8941   1.8759   153.0898
 23      0.0000     0.0000E+00    0.0000E+00    1.445000E+07  0.00800  8.717E-03    0   0.8552   age078_m52            0.0000     8.5888E-05    12.5461   1.9874   151.6211
 24      0.0000     0.0000E+00    0.0000E+00    2.512000E+07  0.00800  5.592E-03    0   0.8162   age090_m52            0.0000     7.9937E-05    12.4609   1.6097   157.5706
 25      0.0000     0.0000E+00    0.0000E+00    4.000000E+07  0.00800  3.896E-03    0   0.7841   age104_m52            0.0000     7.2655E-05    12.0332   1.5055   159.7493
 26      0.0000     0.0000E+00    0.0000E+00    1.015200E+08  0.00800  2.148E-03    0   0.7226   age116_m52            0.0000     6.3753E-05    11.3460   1.4169   161.1249
 27      0.0000     0.0000E+00    0.0000E+00    2.861200E+08  0.00800  9.925E-04    0   0.6683   age125_m52            0.0000     4.9042E-05    10.3916   0.8847   170.9020
 28      0.0000     0.0000E+00    0.0000E+00    9.047900E+08  0.00800  3.141E-04    0   0.6138   age135_m52            0.0000     3.9400E-05     9.5764   0.1228   174.7693
 29      0.0000     0.0000E+00    0.0000E+00    1.434000E+09  0.00800  1.719E-04    0   0.5853   age139_m52            0.0000     4.3595E-05     9.6000  -0.4269   169.0612
 30      0.0000     0.0000E+00    0.0000E+00    2.500000E+09  0.00800  7.872E-05    0   0.5600   age150_m52            0.0000     4.3027E-05     9.1397  -0.6695   162.3607
 31      0.0000     0.0000E+00    0.0000E+00    4.250000E+09  0.00800  4.336E-05    0   0.5426   age158_m52            0.0000     4.4985E-05     9.2495  -0.6718   159.9538
 32      0.0000     0.0000E+00    0.0000E+00    6.250000E+09  0.00800  3.159E-05    0   0.5319   age166_m52            0.0000     4.2624E-05     8.9860  -0.8757   159.8340
 33      0.0000     0.0000E+00    0.0000E+00    1.300000E+10  0.00800  1.361E-05    0   0.5073   age193_m52            0.0000     5.2800E-05    11.5928  -1.0000   141.4800
 34      0.0000     0.0000E+00    0.0000E+00    1.800000E+10  0.00800  9.886E-06    0   0.4990   age213_m52            0.0000     5.9595E-05    12.6285  -1.0000   135.3636
 35      0.0000     0.0000E+00    0.0000E+00    1.000000E+06  0.02000  1.544E-02    0   1.0000   age020_m62            0.0000     1.0357E-04    12.9154   2.8307   136.8422
 36      0.0000     0.0000E+00    0.0000E+00    3.160000E+06  0.02000  3.762E-02    0   0.9858   age045_m62            0.0000     1.0211E-04    12.8413   2.7635   138.4098
 37      0.0000     0.0000E+00    0.0000E+00    5.010000E+06  0.02000  3.296E-02    0   0.9342   age055_m62            0.0000     7.9920E-05    11.8501   2.3172   148.4283
 38      0.0000     0.0000E+00    0.0000E+00    8.710000E+06  0.02000  1.154E-02    0   0.8861   age067_m62            0.0000     1.2711E-04    15.9088   1.3867   154.1592
 39      0.0000     0.0000E+00    0.0000E+00    1.445000E+07  0.02000  7.663E-03    0   0.8472   age078_m62            0.0000     9.7169E-05    13.7175   1.5439   155.4093
 40      0.0000     0.0000E+00    0.0000E+00    2.512000E+07  0.02000  4.532E-03    0   0.8099   age090_m62            0.0000     9.5765E-05    13.7326   1.5224   155.9303
 41      0.0000     0.0000E+00    0.0000E+00    5.500000E+07  0.02000  2.733E-03    0   0.7595   age110_m62            0.0000     7.4957E-05    12.0383   1.4922   158.3865
 42      0.0000     0.0000E+00    0.0000E+00    1.609000E+08  0.02000  1.369E-03    0   0.6985   age120_m62            0.0000     5.6455E-05    10.8105   1.2652   166.9958
 43      0.0000     0.0000E+00    0.0000E+00    2.861200E+08  0.02000  9.013E-04    0   0.6714   age125_m62            0.0000     4.6476E-05    10.1263   0.9821   173.9806
 44      0.0000     0.0000E+00    0.0000E+00    5.088000E+08  0.02000  5.028E-04    0   0.6449   age130_m62            0.0000     3.8627E-05     9.5479   0.6148   177.2477
 45      0.0000     0.0000E+00    0.0000E+00    9.047900E+08  0.02000  2.428E-04    0   0.6179   age135_m62            0.0000     3.8059E-05     9.1714   0.0872   171.6725
 46      0.0000     0.0000E+00    0.0000E+00    1.434000E+09  0.02000  1.263E-04    0   0.5908   age139_m62            0.0000     4.0211E-05     9.0064  -0.3276   166.9804
 47      0.0000     0.0000E+00    0.0000E+00    2.500000E+09  0.02000  5.985E-05    0   0.5673   age150_m62            0.0000     4.0732E-05     8.8410  -0.6721   162.8953
 48      0.0000     0.0000E+00    0.0000E+00    4.250000E+09  0.02000  3.271E-05    0   0.5468   age158_m62            0.0000     3.9798E-05     8.6158  -0.9737   160.9734
 49      0.0000     0.0000E+00    0.0000E+00    1.000000E+10  0.02000  1.360E-05    0   0.5167   age181_m62            0.0000     4.8013E-05    10.6745  -1.0000   143.8171
 50     60.6115     6.3762E+01    6.2692E+01    1.800000E+10  0.02000  7.124E-06    0   0.5013   age213_m62            0.0000     6.4020E-05    12.7952  -1.0000   132.1808
 51      0.0000     0.0000E+00    0.0000E+00    1.000000E+06  0.05000  2.592E-02    0   0.9998   age020_m72            0.0000     1.0609E-04    12.9964   2.8279   136.5650
 52      0.0000     0.0000E+00    0.0000E+00    3.160000E+06  0.05000  4.845E-02    0   0.9577   age045_m72            0.0000     9.2785E-05    12.3961   2.6164   142.0066
 53      0.0000     0.0000E+00    0.0000E+00    5.010000E+06  0.05000  3.072E-02    0   0.9147   age055_m72            0.0000     9.8981E-05    13.4824   2.1441   148.2368
 54      0.0000     0.0000E+00    0.0000E+00    6.610000E+06  0.05000  1.455E-02    0   0.8877   age061_m72            0.0000     1.5094E-04    18.5233   1.4485   154.6755
 55      0.0000     0.0000E+00    0.0000E+00    1.000000E+07  0.05000  9.074E-03    0   0.8524   age070_m72            0.0000     1.0111E-04    14.0193   2.3282   147.8156
 56      0.0000     0.0000E+00    0.0000E+00    2.512000E+07  0.05000  4.250E-03    0   0.7902   age090_m72            0.0000     8.7208E-05    13.2009   1.9815   153.5918
 57      0.0000     0.0000E+00    0.0000E+00    4.000000E+07  0.05000  3.087E-03    0   0.7618   age104_m72            0.0000     8.2750E-05    13.1135   1.7325   157.6820
 58      0.0000     0.0000E+00    0.0000E+00    1.015200E+08  0.05000  1.700E-03    0   0.7096   age116_m72            0.0000     6.1132E-05    11.2830   1.4123   166.1496
 59      0.0000     0.0000E+00    0.0000E+00    2.861200E+08  0.05000  7.384E-04    0   0.6633   age125_m72            0.0000     4.1630E-05     9.6842   0.8545   175.6260
 60      0.0000     0.0000E+00    0.0000E+00    5.088000E+08  0.05000  3.819E-04    0   0.6372   age130_m72            0.0000     3.6969E-05     9.0879   0.4037   174.9520
 61      0.0000     0.0000E+00    0.0000E+00    9.047900E+08  0.05000  1.676E-04    0   0.6110   age135_m72            0.0000     3.7741E-05     8.6772  -0.2349   167.3185
 62      0.0000     0.0000E+00    0.0000E+00    1.434000E+09  0.05000  8.837E-05    0   0.5874   age139_m72            0.0000     3.9493E-05     8.6762  -0.6733   165.2363
 63      0.0000     0.0000E+00    0.0000E+00    2.500000E+09  0.05000  4.233E-05    0   0.5598   age150_m72            0.0000     3.8709E-05     8.5598  -0.9682   161.7528
 64     69.3885     3.6238E+01    3.7308E+01    6.250000E+09  0.05000  1.435E-05    0   0.5249   age166_m72            0.0000     5.4389E-05    11.6304  -1.0000   138.3469
 65      0.0000     0.0000E+00    0.0000E+00    1.300000E+10  0.05000  6.513E-06    0   0.5036   age193_m72            0.0000     8.2004E-05    14.6714  -1.0000   125.7332
 66      0.0000     0.0000E+00    0.0000E+00    1.800000E+10  0.05000  4.527E-06    0   0.4945   age213_m72            0.0000     1.0362E-04    16.3725  -1.0000   117.7575


## Synthesis Results - Average & Chains ##

# j      x_j: min, <> & last-chain-values for 1 ...  7 chains
  1      0.0000      0.3232      0.0091      0.0122      0.0000      0.0525      0.1227      0.0429      0.0000
  2      0.0000      0.3364      0.0229      0.0426      0.0321      0.0218      0.0402      0.0375      0.0091
  3      0.0000      0.3451      0.0000      0.1171      0.0320      0.0194      0.0525      0.0000      0.0079
  4      0.0000      0.2704      0.1002      0.0109      0.0000      0.0610      0.0317      0.0000      0.0000
  5      0.0000      0.2842      0.0000      0.0883      0.0059      0.0486      0.1111      0.0125      0.0000
  6      0.0000      0.2786      0.0785      0.1301      0.0814      0.0648      0.0000      0.0182      0.0000
  7      0.0000      0.4198      0.0550      0.0161      0.0068      0.0952      0.0638      0.0000      0.0000
  8      0.0000      0.4329      0.0000      0.0273      0.0936      0.0522      0.0091      0.0537      0.0000
  9      0.0000      0.3066      0.0276      0.0000      0.0108      0.0057      0.0101      0.0102      0.0053
 10      0.0000      0.2928      0.0327      0.0669      0.0000      0.0370      0.0439      0.2033      0.0132
 11      0.0000      0.3713      0.0378      0.0609      0.0000      0.0140      0.0284      0.0222      0.0000
 12      0.0000      0.3587      0.0701      0.0000      0.0218      0.0465      0.0243      0.0688      0.0096
 13      0.0000      0.2826      0.0177      0.0662      0.0306      0.0077      0.0678      0.0622      0.0130
 14      0.0000      0.3123      0.0000      0.0335      0.0000      0.0110      0.0000      0.0692      0.0065
 15      0.0000      0.3435      0.0396      0.0502      0.0409      0.0264      0.1168      0.0000      0.0103
 16      0.0000      0.2926      0.0519      0.0394      0.0135      0.0785      0.0281      0.0441      0.0443
 17      0.0000      0.2959      0.0304      0.0890      0.0522      0.0326      0.0053      0.0138      0.0000
 18      0.0000      0.2589      0.0023      0.0349      0.0096      0.0000      0.0508      0.0155      0.0315
 19      0.0000      0.3203      0.0051      0.1202      0.0122      0.0632      0.0390      0.0491      0.0180
 20      0.0000      0.4563      0.0536      0.0543      0.0000      0.1017      0.0243      0.0615      0.0016
 21      0.0000      0.3407      0.0000      0.0351      0.0000      0.0540      0.0961      0.0021      0.0000
 22      0.0000      0.3113      0.0294      0.0783      0.0000      0.0291      0.0915      0.0190      0.0347
 23      0.0000      0.3706      0.0505      0.0217      0.0616      0.0484      0.0479      0.0101      0.0002
 24      0.0000      0.4633      0.1137      0.0616      0.1411      0.0347      0.1035      0.0000      0.0110
 25      0.0000      0.2704      0.0421      0.0346      0.0000      0.0469      0.0177      0.0000      0.0000
 26      0.0000      0.3815      0.0521      0.0723      0.0121      0.0253      0.0979      0.0000      0.0000
 27      0.0000      0.3457      0.0276      0.1311      0.0448      0.1239      0.0012      0.0027      0.0011
 28      0.0000      0.2934      0.0256      0.0000      0.0000      0.0370      0.0816      0.0000      0.0000
 29      0.0000      0.2943      0.0721      0.1166      0.0093      0.0092      0.0324      0.0421      0.0487
 30      0.0000      0.3204      0.0782      0.0855      0.0397      0.0313      0.0217      0.0209      0.0000
 31      0.0000      0.2606      0.0000      0.0451      0.0104      0.0284      0.0530      0.0685      0.0000
 32      0.0000      0.3737      0.0508      0.0000      0.0073      0.0572      0.0186      0.0070      0.0029
 33      0.0000      0.3205      0.0715      0.0170      0.0000      0.0553      0.0892      0.0138      0.0052
 34      0.0000      0.3822      0.0114      0.0675      0.0103      0.0502      0.0357      0.0229      0.0072
 35      0.0000      0.3330      0.1087      0.0163      0.0294      0.0470      0.0648      0.0082      0.0062
 36      0.0000      0.3939      0.0000      0.0000      0.0000      0.0731      0.0000      0.0753      0.0117
 37      0.0000      0.3526      0.0456      0.0426      0.0000      0.0131      0.0000      0.0366      0.0065
 38      0.0000      0.4516      0.0504      0.0396      0.0406      0.0753      0.0000      0.0199      0.0049
 39      0.0000      0.2835      0.0000      0.0539      0.0434      0.0093      0.0144      0.0026      0.0000
 40      0.0000      0.3616      0.0289      0.0315      0.0094      0.0288      0.0166      0.0064      0.0000
 41      0.0000      0.3598      0.0544      0.0000      0.0242      0.0403      0.0287      0.0553      0.0035
 42      0.0000      0.2918      0.1114      0.0130      0.1572      0.0093      0.0551      0.0000      0.0043
 43      0.0000      0.4061      0.0855      0.0039      0.0683      0.0045      0.0564      0.0296      0.0033
 44      0.0000      4.3354      4.0977      3.4734      4.8869      4.0070      3.8102      2.6092      8.2532
 45      0.0000      0.3379      0.0471      0.0000      0.0056      0.0784      0.0319      0.0924      0.0172
 46      0.0000      0.3358      0.0425      0.0000      0.0234      0.0214      0.0974      0.0471      0.0000
