###################################################################
## OUTPUT of StarlightChains_v04.for    [Cid@UFSC - 01/Apr/2007] ##
###################################################################

## Some input info
KUG0210-078._32_33.txt                   [arq_obs]
Base.CB07.vall.4m                        [arq_base]
Masks.EmLines.NEW.gm                     [arq_masks]
StCv04.C11.config                        [arq_config]
   66                                    [N_base]
    0                                    [N_YAV_components = # of components with extra extinction!]
    0                                    [i_FitPowerLaw (1/0 = Yes/No)]
-9.99                                    [alpha_PowerLaw]
CCM                                      [red_law_option]
 1.458241                                [q_norm = A(l_norm)/A(V)]

## (Re)Sampling Parameters
 3741.00                                 [l_ini (A)]
 7218.00                                 [l_fin (A)]
    1.00                                 [dl    (A)]     (OBS: dl_cushion =    50.00 A)

## Normalization info
 4020.00                                 [l_norm (A) - for base]
 4010.00                                 [llow_norm (A) - window for f_obs]
 4060.00                                 [lupp_norm (A) - window for f_obs]
9.405637E-17                             [fobs_norm (in input units)]

## S/N
 3691.00                                 [llow_SN (A) - window for S/N]
 7268.00                                 [lupp_SN (A) - window for S/N]
   4.185                                 [S/N in S/N window]
   2.781                                 [S/N in norm. window]
   0.321                                 [S/N_err in S/N window]
   0.213                                 [S/N_err in norm. window]
  1.0000                                 [fscale_chi2]

## etc...
    -2007481                             [idum_orig]
  2432                                   [NOl_eff]
  2234                                   [Nl_eff]
   198    NSIGMA                         [Ntot_cliped & clip_method]
 15853110                                [Nglobal_steps]
   7                                     [N_chains]
  24                                     [NEX0s_base = N_base in EX0s-fits]
 0   0   1      198   2.0   5.818E+04    [Clip-Bug, RC-Crash & Burn-In warning-flags, n_censored_weights, wei_nsig_threshold & wei_limit]
   105    103.896    102.858      1.038  [idt_all, wdt_TotTime, wdt_UsrTime & wdt_SysTime (sec)]

## Synthesis Results - Best model ##

 4.62751E-04                             [chi2/Nl_eff]
     5.71522                             [adev (%)]

   117.26299                             [sum-of-x (%)]
 1.56312E-16                             [Flux_tot (units of input spectrum!)]
 6.05281E-12                             [Mini_tot (???)]
 3.20027E-12                             [Mcor_tot (???)]

-120.04                                  [v0_min  (km/s)]
 227.46                                  [vd_min  (km/s)]
 0.2596                                  [AV_min  (mag)]
 0.0000                                  [YAV_min (mag)]

# j     x_j(%)      Mini_j(%)     Mcor_j(%)     age_j(yr)     Z_j      (L/M)_j    YAV?  Mstars   component_j        a/Fe...       SSP_chi2r SSP_adev(%)   SSP_AV   SSP_x(%)
  1      0.0000     0.0000E+00    0.0000E+00    1.000000E+06  0.00400  1.094E-02    0   1.0000   age020_m42            0.0000     1.6372E-03    12.2528   3.9054   103.1496
  2      0.0000     0.0000E+00    0.0000E+00    3.160000E+06  0.00400  4.007E-02    0   0.9999   age045_m42            0.0000     1.2496E-03    10.5091   3.1964   109.2044
  3      0.0000     0.0000E+00    0.0000E+00    5.010000E+06  0.00400  2.539E-02    0   0.9488   age055_m42            0.0000     1.4138E-03    11.3070   3.5026   107.2816
  4      0.0000     0.0000E+00    0.0000E+00    6.610000E+06  0.00400  2.620E-02    0   0.9220   age061_m42            0.0000     1.2376E-03    10.3539   3.1190   109.5805
  5      0.0000     0.0000E+00    0.0000E+00    1.000000E+07  0.00400  1.322E-02    0   0.8862   age070_m42            0.0000     1.3581E-03    10.7234   2.8315   111.7113
  6      0.0000     0.0000E+00    0.0000E+00    1.445000E+07  0.00400  7.883E-03    0   0.8571   age078_m42            0.0000     1.4376E-03    11.1523   3.1438   109.7530
  7      0.0000     0.0000E+00    0.0000E+00    2.512000E+07  0.00400  5.251E-03    0   0.8174   age090_m42            0.0000     1.3650E-03    10.7581   2.6986   112.4543
  8      0.0000     0.0000E+00    0.0000E+00    4.000000E+07  0.00400  3.649E-03    0   0.7851   age104_m42            0.0000     1.2770E-03    10.3421   2.4744   113.2579
  9      0.0000     0.0000E+00    0.0000E+00    5.500000E+07  0.00400  3.098E-03    0   0.7629   age110_m42            0.0000     1.1698E-03     9.7516   2.6333   113.1111
 10      0.0000     0.0000E+00    0.0000E+00    1.015200E+08  0.00400  2.228E-03    0   0.7207   age116_m42            0.0000     1.1095E-03     9.3596   2.6621   112.9608
 11      0.0000     0.0000E+00    0.0000E+00    2.861200E+08  0.00400  1.093E-03    0   0.6648   age125_m42            0.0000     1.1233E-03     9.1657   2.0998   115.4428
 12      0.0000     0.0000E+00    0.0000E+00    5.088000E+08  0.00400  6.597E-04    0   0.6365   age130_m42            0.0000     9.8477E-04     8.3866   2.0984   116.2338
 13      0.0000     0.0000E+00    0.0000E+00    1.434000E+09  0.00400  2.132E-04    0   0.5798   age139_m42            0.0000     7.0517E-04     6.9573   1.1410   118.1885
 14      0.0000     0.0000E+00    0.0000E+00    4.250000E+09  0.00400  5.895E-05    0   0.5377   age158_m42            0.0000     6.1222E-04     7.0505   0.6879   114.7786
 15      0.0037     2.3526E-03    2.3192E-03    7.500000E+09  0.00400  3.510E-05    0   0.5212   age171_m42            0.0000     5.7672E-04     6.8013   0.4979   114.1865
 16      0.7069     7.7648E-01    7.3929E-01    1.300000E+10  0.00400  2.005E-05    0   0.5034   age193_m42            0.0000     5.6986E-04     6.6457   0.3348   113.4771
 17      0.0000     0.0000E+00    0.0000E+00    1.800000E+10  0.00400  1.525E-05    0   0.4967   age213_m42            0.0000     5.8004E-04     6.7445   0.3107   113.0567
 18      0.0000     0.0000E+00    0.0000E+00    1.000000E+06  0.00800  1.238E-02    0   1.0000   age020_m52            0.0000     1.6352E-03    12.2436   3.9032   103.2856
 19      0.0000     0.0000E+00    0.0000E+00    3.160000E+06  0.00800  3.074E-02    0   0.9966   age045_m52            0.0000     1.6041E-03    12.1458   3.8255   104.2968
 20      0.0000     0.0000E+00    0.0000E+00    5.010000E+06  0.00800  2.668E-02    0   0.9443   age055_m52            0.0000     1.4626E-03    11.4951   3.5816   106.5367
 21      0.0000     0.0000E+00    0.0000E+00    6.610000E+06  0.00800  2.136E-02    0   0.9177   age061_m52            0.0000     1.2696E-03    10.4607   2.3437   112.5388
 22      0.0000     0.0000E+00    0.0000E+00    1.000000E+07  0.00800  1.215E-02    0   0.8827   age070_m52            0.0000     1.4626E-03    11.1583   3.0013   111.8047
 23      0.0000     0.0000E+00    0.0000E+00    1.445000E+07  0.00800  8.717E-03    0   0.8552   age078_m52            0.0000     1.3977E-03    10.9232   3.1149   110.9712
 24      0.0000     0.0000E+00    0.0000E+00    2.512000E+07  0.00800  5.592E-03    0   0.8162   age090_m52            0.0000     1.3480E-03    10.6013   2.7612   113.7647
 25      0.0000     0.0000E+00    0.0000E+00    4.000000E+07  0.00800  3.896E-03    0   0.7841   age104_m52            0.0000     1.2436E-03    10.1049   2.6740   114.6445
 26      0.0000     0.0000E+00    0.0000E+00    1.015200E+08  0.00800  2.148E-03    0   0.7226   age116_m52            0.0000     1.1187E-03     9.4395   2.6223   114.1376
 27      0.0000     0.0000E+00    0.0000E+00    2.861200E+08  0.00800  9.925E-04    0   0.6683   age125_m52            0.0000     9.7553E-04     8.2571   2.1664   117.1005
 28      0.0000     0.0000E+00    0.0000E+00    9.047900E+08  0.00800  3.141E-04    0   0.6138   age135_m52            0.0000     6.4385E-04     6.4058   1.3830   121.4471
 29      0.0000     0.0000E+00    0.0000E+00    1.434000E+09  0.00800  1.719E-04    0   0.5853   age139_m52            0.0000     5.9525E-04     6.4349   0.7961   119.4889
 30      0.0000     0.0000E+00    0.0000E+00    2.500000E+09  0.00800  7.872E-05    0   0.5600   age150_m52            0.0000     5.1182E-04     6.1877   0.5309   116.6100
 31      0.0000     0.0000E+00    0.0000E+00    4.250000E+09  0.00800  4.336E-05    0   0.5426   age158_m52            0.0000     5.1380E-04     6.2810   0.5087   115.9469
 32      4.7093     3.2831E+00    3.3028E+00    6.250000E+09  0.00800  3.159E-05    0   0.5319   age166_m52            0.0000     4.8663E-04     5.9956   0.3084   115.9939
 33      0.0000     0.0000E+00    0.0000E+00    1.300000E+10  0.00800  1.361E-05    0   0.5073   age193_m52            0.0000     4.8675E-04     5.7291  -0.1461   114.7031
 34      0.0000     0.0000E+00    0.0000E+00    1.800000E+10  0.00800  9.886E-06    0   0.4990   age213_m52            0.0000     5.1484E-04     5.7520  -0.2514   114.1446
 35      0.0000     0.0000E+00    0.0000E+00    1.000000E+06  0.02000  1.544E-02    0   1.0000   age020_m62            0.0000     1.6457E-03    12.2759   3.9009   103.4482
 36      0.0000     0.0000E+00    0.0000E+00    3.160000E+06  0.02000  3.762E-02    0   0.9858   age045_m62            0.0000     1.6420E-03    12.2692   3.8374   104.5035
 37      1.1940     7.9781E-04    1.4096E-03    5.010000E+06  0.02000  3.296E-02    0   0.9342   age055_m62            0.0000     1.3367E-03    10.9033   3.4701   108.2561
 38      0.0000     0.0000E+00    0.0000E+00    8.710000E+06  0.02000  1.154E-02    0   0.8861   age067_m62            0.0000     2.1869E-03    14.4340   2.4405   114.5462
 39      0.0000     0.0000E+00    0.0000E+00    1.445000E+07  0.02000  7.663E-03    0   0.8472   age078_m62            0.0000     1.5970E-03    11.7801   2.6424   114.2392
 40      0.0000     0.0000E+00    0.0000E+00    2.512000E+07  0.02000  4.532E-03    0   0.8099   age090_m62            0.0000     1.6263E-03    11.9088   2.6283   114.1703
 41      0.0000     0.0000E+00    0.0000E+00    5.500000E+07  0.02000  2.733E-03    0   0.7595   age110_m62            0.0000     1.2631E-03    10.1542   2.6607   113.6374
 42      0.0000     0.0000E+00    0.0000E+00    1.609000E+08  0.02000  1.369E-03    0   0.6985   age120_m62            0.0000     1.0787E-03     8.9404   2.5232   115.5523
 43      0.0000     0.0000E+00    0.0000E+00    2.861200E+08  0.02000  9.013E-04    0   0.6714   age125_m62            0.0000     9.6347E-04     8.1255   2.2861   118.2253
 44      0.0000     0.0000E+00    0.0000E+00    5.088000E+08  0.02000  5.028E-04    0   0.6449   age130_m62            0.0000     7.4613E-04     6.9762   1.9202   121.0146
 45      0.0000     0.0000E+00    0.0000E+00    9.047900E+08  0.02000  2.428E-04    0   0.6179   age135_m62            0.0000     5.4121E-04     6.1056   1.3296   120.8109
 46      0.0000     0.0000E+00    0.0000E+00    1.434000E+09  0.02000  1.263E-04    0   0.5908   age139_m62            0.0000     4.8831E-04     5.9673   0.8824   119.3979
 47     60.8685     2.2398E+01    2.4032E+01    2.500000E+09  0.02000  5.985E-05    0   0.5673   age150_m62            0.0000     4.7669E-04     5.9621   0.5253   117.5502
 48      0.0000     0.0000E+00    0.0000E+00    4.250000E+09  0.02000  3.271E-05    0   0.5468   age158_m62            0.0000     4.8273E-04     5.8224   0.2248   116.5917
 49     23.4700     3.8006E+01    3.7141E+01    1.000000E+10  0.02000  1.360E-05    0   0.5167   age181_m62            0.0000     5.2426E-04     5.7612  -0.1162   115.9242
 50      5.0953     1.5751E+01    1.4934E+01    1.800000E+10  0.02000  7.124E-06    0   0.5013   age213_m62            0.0000     6.1144E-04     6.3162  -0.3160   114.6056
 51      0.0000     0.0000E+00    0.0000E+00    1.000000E+06  0.05000  2.592E-02    0   0.9998   age020_m72            0.0000     1.6822E-03    12.3932   3.8936   103.4241
 52      0.0000     0.0000E+00    0.0000E+00    3.160000E+06  0.05000  4.845E-02    0   0.9577   age045_m72            0.0000     1.5270E-03    11.8222   3.7191   105.9710
 53      0.0000     0.0000E+00    0.0000E+00    5.010000E+06  0.05000  3.072E-02    0   0.9147   age055_m72            0.0000     1.6062E-03    11.7922   3.2203   110.5538
 54      0.0000     0.0000E+00    0.0000E+00    6.610000E+06  0.05000  1.455E-02    0   0.8877   age061_m72            0.0000     3.0692E-03    17.6432   2.4538   115.9862
 55      0.0000     0.0000E+00    0.0000E+00    1.000000E+07  0.05000  9.074E-03    0   0.8524   age070_m72            0.0000     1.8295E-03    12.8193   3.3829   110.7758
 56      0.0000     0.0000E+00    0.0000E+00    2.512000E+07  0.05000  4.250E-03    0   0.7902   age090_m72            0.0000     1.5536E-03    11.5814   3.0941   112.4894
 57      0.0000     0.0000E+00    0.0000E+00    4.000000E+07  0.05000  3.087E-03    0   0.7618   age104_m72            0.0000     1.5343E-03    11.4212   2.8750   113.7799
 58      0.0000     0.0000E+00    0.0000E+00    1.015200E+08  0.05000  1.700E-03    0   0.7096   age116_m72            0.0000     1.1824E-03     9.4154   2.6548   115.4431
 59      0.0000     0.0000E+00    0.0000E+00    2.861200E+08  0.05000  7.384E-04    0   0.6633   age125_m72            0.0000     8.3069E-04     7.4172   2.1619   119.5416
 60      0.0000     0.0000E+00    0.0000E+00    5.088000E+08  0.05000  3.819E-04    0   0.6372   age130_m72            0.0000     5.9760E-04     6.4102   1.6808   121.3109
 61      0.0000     0.0000E+00    0.0000E+00    9.047900E+08  0.05000  1.676E-04    0   0.6110   age135_m72            0.0000     4.6974E-04     6.0051   0.9829   119.8541
 62      0.0000     0.0000E+00    0.0000E+00    1.434000E+09  0.05000  8.837E-05    0   0.5874   age139_m72            0.0000     4.4683E-04     5.7283   0.5194   119.6055
 63     18.1587     9.4474E+00    1.0003E+01    2.500000E+09  0.05000  4.233E-05    0   0.5598   age150_m72            0.0000     4.8113E-04     5.7625   0.2257   117.5738
 64      0.0000     0.0000E+00    0.0000E+00    6.250000E+09  0.05000  1.435E-05    0   0.5249   age166_m72            0.0000     5.5727E-04     5.8787  -0.2081   115.2636
 65      3.0565     1.0335E+01    9.8439E+00    1.300000E+10  0.05000  6.513E-06    0   0.5036   age193_m72            0.0000     6.9544E-04     6.7999  -0.4721   115.6330
 66      0.0000     0.0000E+00    0.0000E+00    1.800000E+10  0.05000  4.527E-06    0   0.4945   age213_m72            0.0000     8.0391E-04     7.5130  -0.6254   115.0539


## Synthesis Results - Average & Chains ##

# j      x_j: min, <> & last-chain-values for 1 ...  7 chains
  1      0.0000      2.9089      2.7655      3.1918      0.0000      2.6778      1.9549      2.9250      3.0531
  2      0.0000      0.3121      0.0000      0.0620      1.2627      0.0105      0.9432      0.0000      0.0000
  3      0.0000      0.7552      1.4136      0.5511      0.0000      0.3413      0.0000      0.0000      0.5347
  4      0.0000      0.3773      0.0000      0.1047      0.0000      0.0183      0.7732      0.0438      0.0645
  5      0.0000      0.3613      0.3099      0.0345      1.8803      0.0260      0.0000      0.0000      0.1371
  6      0.0000      0.3640      0.0069      0.0743      0.6655      0.0294      0.5214      0.0480      0.0453
  7      0.0000      0.4255      0.0000      0.2206      0.0000      0.0214      0.7741      0.0000      0.0000
  8      0.0000      0.5089      0.0000      0.2146      0.1906      0.0398      0.3912      0.4837      0.0884
  9      0.0000      0.3784      0.0028      0.2641      1.1994      0.0125      0.2709      0.0711      0.1229
 10      0.0000      0.3309      0.0022      0.1454      0.0000      0.0000      0.0000      0.0920      0.0000
 11      0.0000      0.3788      0.0067      0.0000      0.6693      0.0000      0.1323      0.0908      0.0391
 12      0.0000      0.3666      0.0024      0.0000      0.3095      0.0618      0.0000      0.2239      0.0191
 13      0.0000      0.4251      0.0132      0.2997      5.4442      0.0446      0.1409      0.0000      0.0662
 14      0.0000      0.3498      0.0049      0.2966      1.7371      0.0652      0.0739      0.0910      0.2564
 15      0.0037      3.7913      0.5045      4.1255      2.3894      0.1834      4.7499     11.1953      3.9625
 16      0.7069      2.4296      5.7135      2.8514      0.7370      0.2481      2.8725      1.7436      2.0494
 17      0.0000      5.5302      6.8996      5.5792      6.1452     18.0170      5.7432      5.6161      5.7114
 18      0.0000      5.5389      5.7299      6.5967      0.5680      5.6901      6.8270      5.1315      6.7599
 19      0.0000      2.4305      3.8024      2.8473      3.2304      2.3877      1.5555      2.0129      2.8083
 20      0.0000      0.7973      1.0011      0.6878      1.4830      0.5892      0.2878      0.5444      0.6888
 21      0.0000      1.5972      0.0489      1.3622      0.0000      0.0000      2.4735      0.8824      1.6461
 22      0.0000      0.3497      0.0189      0.1310      0.0000      0.0665      0.0000      0.1014      0.0000
 23      0.0000      0.3489      0.0063      0.0000      0.9368      0.0000      0.0000      0.0672      0.0000
 24      0.0000      0.3291      0.0042      0.0998      0.0000      0.0554      0.3631      0.2679      0.0000
 25      0.0000      0.4112      0.0148      0.1700      2.8624      0.1726      0.6014      0.3025      0.0864
 26      0.0000      0.2980      0.0095      0.1558      0.9108      0.0175      0.0000      0.2655      0.1031
 27      0.0000      0.3538      0.0000      0.0000      1.9168      0.0286      0.7989      0.0000      0.1668
 28      0.0000      0.3677      0.0000      0.0793      1.3374      0.0741      1.3424      0.3735      0.0715
 29      0.0000      0.4602      0.0102      0.1619      0.1085      0.0283      1.0620      0.0000      0.1783
 30      0.0000      0.3561      0.0059      0.3354      2.2232      0.0000      0.3592      0.0520      0.0115
 31      0.0000      0.4058      0.0315      0.0223      1.2346      0.0464      0.1981      0.0208      0.0000
 32      4.7093      1.3182      0.1840      1.7042      1.0343      0.2191      2.1812      1.2027      2.0434
 33      0.0000      0.9367      2.6212      0.9899      2.2699      0.1081      0.9240      0.6825      0.5740
 34      0.0000      1.7596      6.0228      1.7657      0.0000      0.0782      1.6848      1.8740      1.6705
 35      0.0000      3.3005      6.6235      3.3500      0.6453      2.9908      3.3632      2.8211      3.4563
 36      0.0000      4.1650      3.5667      4.9991      2.7620      4.6555      4.2674      4.4067      5.2348
 37      1.1940      0.4970      0.1134      0.0000      0.0000      0.5928      0.0000      0.0000      0.2763
 38      0.0000      0.9172      1.4971      0.5254      0.0351      0.5891      0.0000      0.9634      0.6705
 39      0.0000      0.3139      0.0000      0.0000      0.0000      0.1011      0.6781      0.3927      0.0000
 40      0.0000      0.4093      0.0000      0.0000      1.9147      0.0188      0.0494      0.0152      0.2068
 41      0.0000      1.3242      0.0000      1.0926      2.4654      0.1261      0.5861      4.2235      1.2950
 42      0.0000      0.3165      0.0000      0.0760      0.8032      0.0149      0.3710      0.0685      0.0580
 43      0.0000      0.3714      0.0000      0.0003      4.5647      0.0000      0.1633      0.0000      0.1074
 44      0.0000      0.3954      0.0216      0.0000      0.5752      0.0000      0.2666      0.0120      0.0991
 45      0.0000      0.3221      0.0000      0.1137      0.2012      0.0000      0.3999      0.2287      0.0333
 46      0.0000      0.4286      0.0079      0.1507      2.1367      0.1019      0.5643      0.0292      0.0161
