###################################################################
## OUTPUT of StarlightChains_v04.for    [Cid@UFSC - 01/Apr/2007] ##
###################################################################

## Some input info
KUG0210-078._35_37.txt                   [arq_obs]
Base.CB07.vall.4m                        [arq_base]
Masks.EmLines.NEW.gm                     [arq_masks]
StCv04.C11.config                        [arq_config]
   66                                    [N_base]
    0                                    [N_YAV_components = # of components with extra extinction!]
    0                                    [i_FitPowerLaw (1/0 = Yes/No)]
-9.99                                    [alpha_PowerLaw]
CCM                                      [red_law_option]
 1.458241                                [q_norm = A(l_norm)/A(V)]

## (Re)Sampling Parameters
 3741.00                                 [l_ini (A)]
 7218.00                                 [l_fin (A)]
    1.00                                 [dl    (A)]     (OBS: dl_cushion =    50.00 A)

## Normalization info
 4020.00                                 [l_norm (A) - for base]
 4010.00                                 [llow_norm (A) - window for f_obs]
 4060.00                                 [lupp_norm (A) - window for f_obs]
2.187522E-17                             [fobs_norm (in input units)]

## S/N
 3691.00                                 [llow_SN (A) - window for S/N]
 7268.00                                 [lupp_SN (A) - window for S/N]
   4.501                                 [S/N in S/N window]
   3.307                                 [S/N in norm. window]
   0.035                                 [S/N_err in S/N window]
   0.026                                 [S/N_err in norm. window]
  1.0000                                 [fscale_chi2]

## etc...
    -2007572                             [idum_orig]
  2432                                   [NOl_eff]
  2399                                   [Nl_eff]
    33    NSIGMA                         [Ntot_cliped & clip_method]
  6080620                                [Nglobal_steps]
   7                                     [N_chains]
  13                                     [NEX0s_base = N_base in EX0s-fits]
 0   0   1       33   2.0   5.275E+03    [Clip-Bug, RC-Crash & Burn-In warning-flags, n_censored_weights, wei_nsig_threshold & wei_limit]
    65     65.448     65.029      0.419  [idt_all, wdt_TotTime, wdt_UsrTime & wdt_SysTime (sec)]

## Synthesis Results - Best model ##

 1.05618E-05                             [chi2/Nl_eff]
     6.41097                             [adev (%)]

   111.61563                             [sum-of-x (%)]
 6.27153E-17                             [Flux_tot (units of input spectrum!)]
 8.15510E-13                             [Mini_tot (???)]
 4.44339E-13                             [Mcor_tot (???)]

 -83.22                                  [v0_min  (km/s)]
 160.97                                  [vd_min  (km/s)]
 0.7024                                  [AV_min  (mag)]
 0.0000                                  [YAV_min (mag)]

# j     x_j(%)      Mini_j(%)     Mcor_j(%)     age_j(yr)     Z_j      (L/M)_j    YAV?  Mstars   component_j        a/Fe...       SSP_chi2r SSP_adev(%)   SSP_AV   SSP_x(%)
  1      0.0000     0.0000E+00    0.0000E+00    1.000000E+06  0.00400  1.094E-02    0   1.0000   age020_m42            0.0000     3.3524E-05    11.9335   3.8566    92.3162
  2      0.0000     0.0000E+00    0.0000E+00    3.160000E+06  0.00400  4.007E-02    0   0.9999   age045_m42            0.0000     2.7028E-05    10.6862   3.1178    98.8011
  3      0.0000     0.0000E+00    0.0000E+00    5.010000E+06  0.00400  2.539E-02    0   0.9488   age055_m42            0.0000     2.9924E-05    11.2214   3.4450    96.2492
  4      0.0000     0.0000E+00    0.0000E+00    6.610000E+06  0.00400  2.620E-02    0   0.9220   age061_m42            0.0000     2.7114E-05    10.6597   3.0451    98.9358
  5      0.0000     0.0000E+00    0.0000E+00    1.000000E+07  0.00400  1.322E-02    0   0.8862   age070_m42            0.0000     3.1738E-05    11.8678   2.7621   100.4821
  6      0.0000     0.0000E+00    0.0000E+00    1.445000E+07  0.00400  7.883E-03    0   0.8571   age078_m42            0.0000     3.2962E-05    12.0878   3.0930    97.9794
  7      0.0000     0.0000E+00    0.0000E+00    2.512000E+07  0.00400  5.251E-03    0   0.8174   age090_m42            0.0000     3.2303E-05    12.0631   2.6342   100.9168
  8      0.0000     0.0000E+00    0.0000E+00    4.000000E+07  0.00400  3.649E-03    0   0.7851   age104_m42            0.0000     3.0418E-05    11.6560   2.4035   101.9119
  9      0.0000     0.0000E+00    0.0000E+00    5.500000E+07  0.00400  3.098E-03    0   0.7629   age110_m42            0.0000     2.7543E-05    10.8547   2.5588   102.1051
 10      0.0000     0.0000E+00    0.0000E+00    1.015200E+08  0.00400  2.228E-03    0   0.7207   age116_m42            0.0000     2.5748E-05    10.2898   2.5771   102.4976
 11      0.0000     0.0000E+00    0.0000E+00    2.861200E+08  0.00400  1.093E-03    0   0.6648   age125_m42            0.0000     2.5994E-05    10.6465   1.9979   105.5069
 12      0.0000     0.0000E+00    0.0000E+00    5.088000E+08  0.00400  6.597E-04    0   0.6365   age130_m42            0.0000     2.2526E-05     9.5972   1.9874   106.7077
 13      0.0000     0.0000E+00    0.0000E+00    1.434000E+09  0.00400  2.132E-04    0   0.5798   age139_m42            0.0000     1.6908E-05     8.3052   1.0058   109.4125
 14      0.0000     0.0000E+00    0.0000E+00    4.250000E+09  0.00400  5.895E-05    0   0.5377   age158_m42            0.0000     1.4018E-05     7.5477   0.5623   105.8834
 15      0.0000     0.0000E+00    0.0000E+00    7.500000E+09  0.00400  3.510E-05    0   0.5212   age171_m42            0.0000     1.2889E-05     7.2217   0.3731   105.4252
 16     17.8874     6.1469E+01    5.6791E+01    1.300000E+10  0.00400  2.005E-05    0   0.5034   age193_m42            0.0000     1.2339E-05     7.0831   0.2072   105.0437
 17      0.0000     0.0000E+00    0.0000E+00    1.800000E+10  0.00400  1.525E-05    0   0.4967   age213_m42            0.0000     1.2684E-05     7.1963   0.1824   104.5666
 18      0.0000     0.0000E+00    0.0000E+00    1.000000E+06  0.00800  1.238E-02    0   1.0000   age020_m52            0.0000     3.3491E-05    11.9199   3.8529    92.4974
 19      0.0000     0.0000E+00    0.0000E+00    3.160000E+06  0.00800  3.074E-02    0   0.9966   age045_m52            0.0000     3.2838E-05    11.7584   3.7739    93.3805
 20      0.0000     0.0000E+00    0.0000E+00    5.010000E+06  0.00800  2.668E-02    0   0.9443   age055_m52            0.0000     3.0809E-05    11.3751   3.5277    95.3966
 21      0.0000     0.0000E+00    0.0000E+00    6.610000E+06  0.00800  2.136E-02    0   0.9177   age061_m52            0.0000     2.8988E-05    11.4739   2.2632   101.8869
 22      0.0000     0.0000E+00    0.0000E+00    1.000000E+07  0.00800  1.215E-02    0   0.8827   age070_m52            0.0000     3.4501E-05    12.5267   2.9366   100.1982
 23      0.0000     0.0000E+00    0.0000E+00    1.445000E+07  0.00800  8.717E-03    0   0.8552   age078_m52            0.0000     3.2534E-05    11.9703   3.0539    99.3843
 24      0.0000     0.0000E+00    0.0000E+00    2.512000E+07  0.00800  5.592E-03    0   0.8162   age090_m52            0.0000     3.2536E-05    12.0780   2.6895   102.1970
 25      0.0000     0.0000E+00    0.0000E+00    4.000000E+07  0.00800  3.896E-03    0   0.7841   age104_m52            0.0000     3.0158E-05    11.5820   2.6009   103.1338
 26      0.0000     0.0000E+00    0.0000E+00    1.015200E+08  0.00800  2.148E-03    0   0.7226   age116_m52            0.0000     2.6435E-05    10.6107   2.5410   103.2535
 27      0.0000     0.0000E+00    0.0000E+00    2.861200E+08  0.00800  9.925E-04    0   0.6683   age125_m52            0.0000     2.2255E-05     9.5187   2.0495   107.7886
 28      0.0000     0.0000E+00    0.0000E+00    9.047900E+08  0.00800  3.141E-04    0   0.6138   age135_m52            0.0000     1.5301E-05     7.9118   1.2351   113.1659
 29      0.0000     0.0000E+00    0.0000E+00    1.434000E+09  0.00800  1.719E-04    0   0.5853   age139_m52            0.0000     1.4399E-05     7.9465   0.6450   111.2160
 30      0.0000     0.0000E+00    0.0000E+00    2.500000E+09  0.00800  7.872E-05    0   0.5600   age150_m52            0.0000     1.1446E-05     6.8191   0.3829   108.7904
 31      0.0000     0.0000E+00    0.0000E+00    4.250000E+09  0.00800  4.336E-05    0   0.5426   age158_m52            0.0000     1.1623E-05     6.8763   0.3698   107.7691
 32      0.0000     0.0000E+00    0.0000E+00    6.250000E+09  0.00800  3.159E-05    0   0.5319   age166_m52            0.0000     1.0391E-05     6.4543   0.1637   108.1930
 33      0.0000     0.0000E+00    0.0000E+00    1.300000E+10  0.00800  1.361E-05    0   0.5073   age193_m52            0.0000     9.6841E-06     6.0404  -0.3085   107.9720
 34      0.0000     0.0000E+00    0.0000E+00    1.800000E+10  0.00800  9.886E-06    0   0.4990   age213_m52            0.0000     9.5441E-06     5.9202  -0.4207   107.8706
 35      0.0000     0.0000E+00    0.0000E+00    1.000000E+06  0.02000  1.544E-02    0   1.0000   age020_m62            0.0000     3.3637E-05    11.9402   3.8493    92.7210
 36      0.0000     0.0000E+00    0.0000E+00    3.160000E+06  0.02000  3.762E-02    0   0.9858   age045_m62            0.0000     3.3461E-05    11.8831   3.7857    93.5749
 37      0.0000     0.0000E+00    0.0000E+00    5.010000E+06  0.02000  3.296E-02    0   0.9342   age055_m62            0.0000     2.8180E-05    10.8120   3.4021    97.6036
 38      0.0000     0.0000E+00    0.0000E+00    8.710000E+06  0.02000  1.154E-02    0   0.8861   age067_m62            0.0000     5.1038E-05    16.4781   2.3821   101.9653
 39      0.0000     0.0000E+00    0.0000E+00    1.445000E+07  0.02000  7.663E-03    0   0.8472   age078_m62            0.0000     3.8099E-05    13.6394   2.5743   102.2894
 40      0.0000     0.0000E+00    0.0000E+00    2.512000E+07  0.02000  4.532E-03    0   0.8099   age090_m62            0.0000     3.9054E-05    13.8597   2.5661   101.8786
 41      0.0000     0.0000E+00    0.0000E+00    5.500000E+07  0.02000  2.733E-03    0   0.7595   age110_m62            0.0000     3.0125E-05    11.5650   2.5876   102.3946
 42      0.0000     0.0000E+00    0.0000E+00    1.609000E+08  0.02000  1.369E-03    0   0.6985   age120_m62            0.0000     2.4950E-05    10.1334   2.4236   105.6336
 43      0.0000     0.0000E+00    0.0000E+00    2.861200E+08  0.02000  9.013E-04    0   0.6714   age125_m62            0.0000     2.2102E-05     9.2529   2.1669   108.9959
 44      0.0000     0.0000E+00    0.0000E+00    5.088000E+08  0.02000  5.028E-04    0   0.6449   age130_m62            0.0000     1.7004E-05     7.9658   1.7813   112.5505
 45      0.0000     0.0000E+00    0.0000E+00    9.047900E+08  0.02000  2.428E-04    0   0.6179   age135_m62            0.0000     1.2818E-05     7.1383   1.1876   112.5910
 46      0.0000     0.0000E+00    0.0000E+00    1.434000E+09  0.02000  1.263E-04    0   0.5908   age139_m62            0.0000     1.1597E-05     6.8228   0.7416   111.2889
 47      0.0000     0.0000E+00    0.0000E+00    2.500000E+09  0.02000  5.985E-05    0   0.5673   age150_m62            0.0000     1.0234E-05     6.3453   0.3698   110.4098
 48      0.0000     0.0000E+00    0.0000E+00    4.250000E+09  0.02000  3.271E-05    0   0.5468   age158_m62            0.0000     9.1029E-06     5.8776   0.0615   110.1037
 49      0.0000     0.0000E+00    0.0000E+00    1.000000E+10  0.02000  1.360E-05    0   0.5167   age181_m62            0.0000     9.5441E-06     5.8176  -0.2947   110.4113
 50      0.0000     0.0000E+00    0.0000E+00    1.800000E+10  0.02000  7.124E-06    0   0.5013   age213_m62            0.0000     1.0875E-05     6.1335  -0.5123   110.1252
 51      0.0000     0.0000E+00    0.0000E+00    1.000000E+06  0.05000  2.592E-02    0   0.9998   age020_m72            0.0000     3.4401E-05    12.0697   3.8411    92.7470
 52      0.0000     0.0000E+00    0.0000E+00    3.160000E+06  0.05000  4.845E-02    0   0.9577   age045_m72            0.0000     3.1190E-05    11.4165   3.6671    94.8925
 53      0.0000     0.0000E+00    0.0000E+00    5.010000E+06  0.05000  3.072E-02    0   0.9147   age055_m72            0.0000     3.6628E-05    13.1739   3.1610    98.7690
 54      0.0000     0.0000E+00    0.0000E+00    6.610000E+06  0.05000  1.455E-02    0   0.8877   age061_m72            0.0000     6.6641E-05    19.8359   2.3880   102.7098
 55      0.0000     0.0000E+00    0.0000E+00    1.000000E+07  0.05000  9.074E-03    0   0.8524   age070_m72            0.0000     3.9538E-05    14.2166   3.3340    98.6171
 56      0.0000     0.0000E+00    0.0000E+00    2.512000E+07  0.05000  4.250E-03    0   0.7902   age090_m72            0.0000     3.5804E-05    13.1638   3.0356   100.3748
 57      0.0000     0.0000E+00    0.0000E+00    4.000000E+07  0.05000  3.087E-03    0   0.7618   age104_m72            0.0000     3.5905E-05    13.2056   2.8019   101.9979
 58      0.0000     0.0000E+00    0.0000E+00    1.015200E+08  0.05000  1.700E-03    0   0.7096   age116_m72            0.0000     2.7883E-05    10.8572   2.5565   105.0915
 59      0.0000     0.0000E+00    0.0000E+00    2.861200E+08  0.05000  7.384E-04    0   0.6633   age125_m72            0.0000     1.9151E-05     8.4924   2.0289   110.9255
 60      0.0000     0.0000E+00    0.0000E+00    5.088000E+08  0.05000  3.819E-04    0   0.6372   age130_m72            0.0000     1.3808E-05     7.1951   1.5343   113.4454
 61     93.7282     3.8531E+01    4.3209E+01    9.047900E+08  0.05000  1.676E-04    0   0.6110   age135_m72            0.0000     1.0380E-05     6.3434   0.8336   112.3467
 62      0.0000     0.0000E+00    0.0000E+00    1.434000E+09  0.05000  8.837E-05    0   0.5874   age139_m72            0.0000     1.0117E-05     6.2856   0.3643   112.2597
 63      0.0000     0.0000E+00    0.0000E+00    2.500000E+09  0.05000  4.233E-05    0   0.5598   age150_m72            0.0000     9.1374E-06     5.9123   0.0530   111.4275
 64      0.0000     0.0000E+00    0.0000E+00    6.250000E+09  0.05000  1.435E-05    0   0.5249   age166_m72            0.0000     9.8843E-06     5.9918  -0.3982   110.3039
 65      0.0000     0.0000E+00    0.0000E+00    1.300000E+10  0.05000  6.513E-06    0   0.5036   age193_m72            0.0000     1.2110E-05     6.5580  -0.6862   111.9463
 66      0.0000     0.0000E+00    0.0000E+00    1.800000E+10  0.05000  4.527E-06    0   0.4945   age213_m72            0.0000     1.4102E-05     7.1061  -0.8517   112.0278


## Synthesis Results - Average & Chains ##

# j      x_j: min, <> & last-chain-values for 1 ...  7 chains
  1      0.0000      0.1591      0.0012      0.0052      0.0100      0.0000      0.0000      0.0077      0.0000
  2      0.0000      0.1485      0.0000      0.0010      0.0070      0.0000      0.0000      0.0000      0.0031
  3      0.0000      0.1404      0.0010      0.0082      0.0000      0.0044      0.0096      0.0167      0.0000
  4      0.0000      0.2037      0.0000      0.0097      0.0017      0.0000      0.0130      0.0000      0.0000
  5      0.0000      0.1066      0.0000      0.0000      0.0054      0.0041      0.0206      0.0000      0.0000
  6      0.0000      0.1897      0.0165      0.0000      0.0251      0.0000      0.0291      0.0824      0.0074
  7      0.0000      0.2709      0.0604      0.0503      0.0484      0.0716      0.1069      0.0547      0.0509
  8      0.0000      0.6856      1.1660      0.7554      0.6122      0.6124      0.7679      0.8473      0.5935
  9      0.0000      0.6654      0.5630      0.7926      0.5569      0.8233      0.7332      0.9576      0.8626
 10      0.0000      0.3121      0.2183      0.2132      0.2214      0.1906      0.2198      0.2216      0.3351
 11      0.0000      0.1800      0.0064      0.0004      0.0000      0.0377      0.0149      0.0326      0.0000
 12      0.0000      0.1706      0.0000      0.0000      0.0000      0.0116      0.0842      0.0220      0.0040
 13      0.0000      1.7430      1.8868      1.7295      1.8927      1.7797      1.8108      2.0902      1.7190
 14      0.0000     10.6289     10.8603     11.4532     10.4581     11.5106     11.5430     10.8847     12.3546
 15      0.0000      3.7084      3.9102      3.8640      3.8673      3.8729      3.8687      3.8784      3.7823
 16     17.8874      1.1430      1.0626      1.5683      1.8257      1.1754      0.9394      1.0161      1.1867
 17      0.0000      7.6122      7.9785      7.8677      9.0702      7.4586      7.8097      6.7818      7.8097
 18      0.0000      0.1522      0.0038      0.0000      0.0151      0.0079      0.0000      0.0138      0.0036
 19      0.0000      0.1062      0.0094      0.0119      0.0017      0.0054      0.0121      0.0216      0.0008
 20      0.0000      0.0973      0.0031      0.0000      0.0000      0.0000      0.0000      0.0000      0.0000
 21      0.0000      0.1563      0.0161      0.0134      0.0028      0.0244      0.0008      0.0109      0.0088
 22      0.0000      0.1495      0.0016      0.0012      0.0000      0.0000      0.0065      0.0082      0.0009
 23      0.0000      0.1808      0.0088      0.0065      0.0199      0.0185      0.0058      0.0038      0.0131
 24      0.0000      2.3925      2.4407      2.5707      2.4467      2.4570      2.4583      2.4422      2.3672
 25      0.0000      0.4326      0.4785      0.4711      0.4519      0.4845      0.5600      0.4855      0.5268
 26      0.0000      0.3382      0.4034      0.3498      0.3088      0.3481      0.4059      0.3621      0.3078
 27      0.0000      0.1825      0.0420      0.0710      0.0989      0.0891      0.0595      0.0707      0.1012
 28      0.0000      0.2328      0.0140      0.0199      0.0221      0.0114      0.0230      0.0000      0.0224
 29      0.0000      0.1035      0.0039      0.0036      0.0115      0.0017      0.0177      0.0208      0.0039
 30      0.0000      0.1866      0.0046      0.0006      0.0062      0.0008      0.0000      0.0222      0.0102
 31      0.0000      0.1917      0.0004      0.0034      0.0000      0.0000      0.0123      0.0000      0.0043
 32      0.0000      0.1710      0.0005      0.0042      0.0000      0.0048      0.0076      0.0013      0.0014
 33      0.0000      0.1305      0.0020      0.0068      0.0010      0.0129      0.0000      0.0000      0.0043
 34      0.0000      0.1652      0.0000      0.0089      0.0000      0.0017      0.0098      0.0217      0.0024
 35      0.0000      0.2139      0.0000      0.0000      0.0004      0.0270      0.0000      0.0021      0.0000
 36      0.0000      0.1599      0.0000      0.0018      0.0002      0.0000      0.0071      0.0540      0.0008
 37      0.0000      0.1630      0.0000      0.0000      0.0022      0.0095      0.0000      0.0064      0.0048
 38      0.0000      0.2450      0.0028      0.0088      0.0063      0.0000      0.0059      0.0005      0.0042
 39      0.0000      0.2126      0.0078      0.0000      0.0069      0.0249      0.0156      0.0390      0.0504
 40      0.0000      0.1941      0.0000      0.0040      0.0049      0.0065      0.0053      0.0131      0.0103
 41      0.0000      0.1500      0.0693      0.0484      0.0503      0.0575      0.0617      0.0409      0.0397
 42      0.0000      0.1809      0.0000      0.0090      0.0042      0.0073      0.0117      0.0363      0.0000
 43      0.0000      0.1572      0.0034      0.0000      0.0000      0.0000      0.0025      0.0000      0.0005
 44      0.0000      0.1443      0.0000      0.0213      0.0072      0.0054      0.0007      0.0008      0.0000
 45      0.0000     23.5656     25.4656     25.3659     24.8202     25.0159     24.8862     25.8480     24.2557
 46      0.0000      8.5277      8.9902      8.8934      8.8921      8.9656      9.0036      9.0107      8.9704
