###################################################################
## OUTPUT of StarlightChains_v04.for    [Cid@UFSC - 01/Apr/2007] ##
###################################################################

## Some input info
KUG0210-078._53_30.txt                   [arq_obs]
Base.CB07.vall.4m                        [arq_base]
Masks.EmLines.NEW.gm                     [arq_masks]
StCv04.C11.config                        [arq_config]
   66                                    [N_base]
    0                                    [N_YAV_components = # of components with extra extinction!]
    0                                    [i_FitPowerLaw (1/0 = Yes/No)]
-9.99                                    [alpha_PowerLaw]
CCM                                      [red_law_option]
 1.458241                                [q_norm = A(l_norm)/A(V)]

## (Re)Sampling Parameters
 3741.00                                 [l_ini (A)]
 7218.00                                 [l_fin (A)]
    1.00                                 [dl    (A)]     (OBS: dl_cushion =    50.00 A)

## Normalization info
 4020.00                                 [l_norm (A) - for base]
 4010.00                                 [llow_norm (A) - window for f_obs]
 4060.00                                 [lupp_norm (A) - window for f_obs]
5.067410E-18                             [fobs_norm (in input units)]

## S/N
 3691.00                                 [llow_SN (A) - window for S/N]
 7268.00                                 [lupp_SN (A) - window for S/N]
   2.384                                 [S/N in S/N window]
   2.333                                 [S/N in norm. window]
   0.006                                 [S/N_err in S/N window]
   0.006                                 [S/N_err in norm. window]
  1.0000                                 [fscale_chi2]

## etc...
    -2007993                             [idum_orig]
  2374                                   [NOl_eff]
  2097                                   [Nl_eff]
   277    NSIGMA                         [Ntot_cliped & clip_method]
  7457520                                [Nglobal_steps]
   7                                     [N_chains]
  33                                     [NEX0s_base = N_base in EX0s-fits]
 0   0   1      277   2.0   3.785E+03    [Clip-Bug, RC-Crash & Burn-In warning-flags, n_censored_weights, wei_nsig_threshold & wei_limit]
    69     67.368     66.261      1.107  [idt_all, wdt_TotTime, wdt_UsrTime & wdt_SysTime (sec)]

## Synthesis Results - Best model ##

 1.12508E-05                             [chi2/Nl_eff]
    23.78777                             [adev (%)]

   129.99997                             [sum-of-x (%)]
 2.08244E-18                             [Flux_tot (units of input spectrum!)]
 6.48840E-14                             [Mini_tot (???)]
 3.37832E-14                             [Mcor_tot (???)]

 445.60                                  [v0_min  (km/s)]
 293.94                                  [vd_min  (km/s)]
-0.8575                                  [AV_min  (mag)]
 0.0000                                  [YAV_min (mag)]

# j     x_j(%)      Mini_j(%)     Mcor_j(%)     age_j(yr)     Z_j      (L/M)_j    YAV?  Mstars   component_j        a/Fe...       SSP_chi2r SSP_adev(%)   SSP_AV   SSP_x(%)
  1      0.0000     0.0000E+00    0.0000E+00    1.000000E+06  0.00400  1.094E-02    0   1.0000   age020_m42            0.0000     8.4354E-06    21.6931   1.4397   172.9024
  2      0.0000     0.0000E+00    0.0000E+00    3.160000E+06  0.00400  4.007E-02    0   0.9999   age045_m42            0.0000     8.6572E-06    21.7107   0.7924   179.5731
  3      0.0141     1.3738E-05    2.5034E-05    5.010000E+06  0.00400  2.539E-02    0   0.9488   age055_m42            0.0000     8.4935E-06    21.6493   1.0742   177.7605
  4      0.0000     0.0000E+00    0.0000E+00    6.610000E+06  0.00400  2.620E-02    0   0.9220   age061_m42            0.0000     8.5904E-06    21.6580   0.7198   180.0969
  5      0.0000     0.0000E+00    0.0000E+00    1.000000E+07  0.00400  1.322E-02    0   0.8862   age070_m42            0.0000     8.4561E-06    21.5296   0.4731   183.5350
  6      0.0000     0.0000E+00    0.0000E+00    1.445000E+07  0.00400  7.883E-03    0   0.8571   age078_m42            0.0000     8.4363E-06    21.5120   0.7737   180.2243
  7      0.0000     0.0000E+00    0.0000E+00    2.512000E+07  0.00400  5.251E-03    0   0.8174   age090_m42            0.0000     8.4566E-06    21.5298   0.3534   184.1174
  8      0.0000     0.0000E+00    0.0000E+00    4.000000E+07  0.00400  3.649E-03    0   0.7851   age104_m42            0.0000     8.4850E-06    21.5324   0.1384   184.7295
  9      0.0000     0.0000E+00    0.0000E+00    5.500000E+07  0.00400  3.098E-03    0   0.7629   age110_m42            0.0000     8.6554E-06    21.5698   0.2864   184.1704
 10      0.0000     0.0000E+00    0.0000E+00    1.015200E+08  0.00400  2.228E-03    0   0.7207   age116_m42            0.0000     8.7310E-06    21.6093   0.3023   184.2075
 11     13.4033     3.0275E-01    3.8655E-01    2.861200E+08  0.00400  1.093E-03    0   0.6648   age125_m42            0.0000     8.6552E-06    21.9501  -0.2340   187.8936
 12      0.0000     0.0000E+00    0.0000E+00    5.088000E+08  0.00400  6.597E-04    0   0.6365   age130_m42            0.0000     8.7667E-06    21.8795  -0.2439   188.5854
 13      0.0000     0.0000E+00    0.0000E+00    1.434000E+09  0.00400  2.132E-04    0   0.5798   age139_m42            0.0000     8.4877E-06    22.1210  -1.0000   183.3383
 14      1.7431     7.2999E-01    7.5387E-01    4.250000E+09  0.00400  5.895E-05    0   0.5377   age158_m42            0.0000     8.9210E-06    27.4710  -1.0000   160.2535
 15     40.5716     2.8537E+01    2.8566E+01    7.500000E+09  0.00400  3.510E-05    0   0.5212   age171_m42            0.0000     9.5089E-06    30.7317  -1.0000   151.6268
 16     29.8804     3.6793E+01    3.5572E+01    1.300000E+10  0.00400  2.005E-05    0   0.5034   age193_m42            0.0000     1.0227E-05    33.9105  -1.0000   144.1863
 17      0.0000     0.0000E+00    0.0000E+00    1.800000E+10  0.00400  1.525E-05    0   0.4967   age213_m42            0.0000     1.0312E-05    34.4950  -1.0000   142.7847
 18      0.0000     0.0000E+00    0.0000E+00    1.000000E+06  0.00800  1.238E-02    0   1.0000   age020_m52            0.0000     8.4432E-06    21.7010   1.4338   173.3189
 19      0.0000     0.0000E+00    0.0000E+00    3.160000E+06  0.00800  3.074E-02    0   0.9966   age045_m52            0.0000     8.4509E-06    21.6345   1.3703   174.2258
 20      0.0000     0.0000E+00    0.0000E+00    5.010000E+06  0.00800  2.668E-02    0   0.9443   age055_m52            0.0000     8.4587E-06    21.5841   1.1543   176.4921
 21      0.0000     0.0000E+00    0.0000E+00    6.610000E+06  0.00800  2.136E-02    0   0.9177   age061_m52            0.0000     8.2826E-06    21.3491  -0.0211   185.1949
 22      0.0000     0.0000E+00    0.0000E+00    1.000000E+07  0.00800  1.215E-02    0   0.8827   age070_m52            0.0000     8.4273E-06    21.6136   0.6516   183.4578
 23      0.0602     1.7043E-04    2.7993E-04    1.445000E+07  0.00800  8.717E-03    0   0.8552   age078_m52            0.0000     8.4510E-06    21.5187   0.7512   182.1104
 24      0.0000     0.0000E+00    0.0000E+00    2.512000E+07  0.00800  5.592E-03    0   0.8162   age090_m52            0.0000     8.5007E-06    21.6171   0.4257   185.7518
 25      0.0000     0.0000E+00    0.0000E+00    4.000000E+07  0.00800  3.896E-03    0   0.7841   age104_m52            0.0000     8.5611E-06    21.6759   0.3480   186.0525
 26      0.0000     0.0000E+00    0.0000E+00    1.015200E+08  0.00800  2.148E-03    0   0.7226   age116_m52            0.0000     8.5698E-06    21.6431   0.2883   184.9449
 27      0.0618     1.5378E-03    1.9739E-03    2.861200E+08  0.00800  9.925E-04    0   0.6683   age125_m52            0.0000     8.7544E-06    21.8049  -0.1760   190.3308
 28      0.0000     0.0000E+00    0.0000E+00    9.047900E+08  0.00800  3.141E-04    0   0.6138   age135_m52            0.0000     8.6912E-06    21.8170  -0.9354   194.0087
 29      0.0000     0.0000E+00    0.0000E+00    1.434000E+09  0.00800  1.719E-04    0   0.5853   age139_m52            0.0000     8.8294E-06    26.2148  -1.0000   171.7957
 30      5.1220     1.6064E+00    1.7277E+00    2.500000E+09  0.00800  7.872E-05    0   0.5600   age150_m52            0.0000     9.5383E-06    30.3132  -1.0000   156.4847
 31      0.0000     0.0000E+00    0.0000E+00    4.250000E+09  0.00800  4.336E-05    0   0.5426   age158_m52            0.0000     9.5592E-06    30.5384  -1.0000   154.3487
 32      3.9410     3.0800E+00    3.1465E+00    6.250000E+09  0.00800  3.159E-05    0   0.5319   age166_m52            0.0000     1.0376E-05    34.2040  -1.0000   145.9200
 33      0.0000     0.0000E+00    0.0000E+00    1.300000E+10  0.00800  1.361E-05    0   0.5073   age193_m52            0.0000     1.3084E-05    43.4132  -1.0000   125.7714
 34      0.0000     0.0000E+00    0.0000E+00    1.800000E+10  0.00800  9.886E-06    0   0.4990   age213_m52            0.0000     1.3925E-05    45.0591  -1.0000   120.5174
 35      0.0000     0.0000E+00    0.0000E+00    1.000000E+06  0.02000  1.544E-02    0   1.0000   age020_m62            0.0000     8.4493E-06    21.6889   1.4329   173.6692
 36      0.0000     0.0000E+00    0.0000E+00    3.160000E+06  0.02000  3.762E-02    0   0.9858   age045_m62            0.0000     8.4864E-06    21.6892   1.3689   175.3044
 37      0.0000     0.0000E+00    0.0000E+00    5.010000E+06  0.02000  3.296E-02    0   0.9342   age055_m62            0.0000     8.5549E-06    21.6760   1.0369   179.5677
 38      0.0000     0.0000E+00    0.0000E+00    8.710000E+06  0.02000  1.154E-02    0   0.8861   age067_m62            0.0000     8.2976E-06    22.4436   0.1428   189.6952
 39      1.1921     3.8406E-03    6.2491E-03    1.445000E+07  0.02000  7.663E-03    0   0.8472   age078_m62            0.0000     8.4004E-06    21.9820   0.3206   187.1148
 40      0.0000     0.0000E+00    0.0000E+00    2.512000E+07  0.02000  4.532E-03    0   0.8099   age090_m62            0.0000     8.3755E-06    22.0955   0.3180   186.3940
 41      0.0000     0.0000E+00    0.0000E+00    5.500000E+07  0.02000  2.733E-03    0   0.7595   age110_m62            0.0000     8.4501E-06    21.6354   0.3196   185.6236
 42      0.0000     0.0000E+00    0.0000E+00    1.609000E+08  0.02000  1.369E-03    0   0.6985   age120_m62            0.0000     8.7055E-06    21.6966   0.1628   189.2714
 43      0.0000     0.0000E+00    0.0000E+00    2.861200E+08  0.02000  9.013E-04    0   0.6714   age125_m62            0.0000     8.9343E-06    21.7229  -0.0707   193.0480
 44      0.0000     0.0000E+00    0.0000E+00    5.088000E+08  0.02000  5.028E-04    0   0.6449   age130_m62            0.0000     9.0968E-06    21.8086  -0.4319   195.4591
 45      0.0000     0.0000E+00    0.0000E+00    9.047900E+08  0.02000  2.428E-04    0   0.6179   age135_m62            0.0000     8.5218E-06    21.6515  -1.0000   192.7559
 46      4.0321     7.8817E-01    8.9433E-01    1.434000E+09  0.02000  1.263E-04    0   0.5908   age139_m62            0.0000     8.6169E-06    24.3311  -1.0000   173.9893
 47      5.3728     2.2163E+00    2.4148E+00    2.500000E+09  0.02000  5.985E-05    0   0.5673   age150_m62            0.0000     9.6288E-06    30.2122  -1.0000   157.2760
 48      0.0000     0.0000E+00    0.0000E+00    4.250000E+09  0.02000  3.271E-05    0   0.5468   age158_m62            0.0000     1.1012E-05    35.7642  -1.0000   143.1689
 49      1.2405     2.2520E+00    2.2348E+00    1.000000E+10  0.02000  1.360E-05    0   0.5167   age181_m62            0.0000     1.3195E-05    42.1701  -1.0000   127.8171
 50      0.0000     0.0000E+00    0.0000E+00    1.800000E+10  0.02000  7.124E-06    0   0.5013   age213_m62            0.0000     1.4919E-05    45.6256  -1.0000   117.9593
 51      2.6506     2.5247E-03    4.8480E-03    1.000000E+06  0.05000  2.592E-02    0   0.9998   age020_m72            0.0000     8.4455E-06    21.6572   1.4265   173.7594
 52      0.0000     0.0000E+00    0.0000E+00    3.160000E+06  0.05000  4.845E-02    0   0.9577   age045_m72            0.0000     8.4837E-06    21.6873   1.2675   176.5862
 53      0.0000     0.0000E+00    0.0000E+00    5.010000E+06  0.05000  3.072E-02    0   0.9147   age055_m72            0.0000     8.4338E-06    22.0494   0.8522   181.8731
 54      0.0000     0.0000E+00    0.0000E+00    6.610000E+06  0.05000  1.455E-02    0   0.8877   age061_m72            0.0000     8.5065E-06    24.5329   0.1852   191.5868
 55      0.0000     0.0000E+00    0.0000E+00    1.000000E+07  0.05000  9.074E-03    0   0.8524   age070_m72            0.0000     8.5476E-06    22.9151   1.0245   181.3223
 56      0.0000     0.0000E+00    0.0000E+00    2.512000E+07  0.05000  4.250E-03    0   0.7902   age090_m72            0.0000     8.5261E-06    22.4215   0.7622   182.8332
 57      0.0000     0.0000E+00    0.0000E+00    4.000000E+07  0.05000  3.087E-03    0   0.7618   age104_m72            0.0000     8.5591E-06    22.5222   0.5521   185.0480
 58      0.0000     0.0000E+00    0.0000E+00    1.015200E+08  0.05000  1.700E-03    0   0.7096   age116_m72            0.0000     8.6656E-06    21.8550   0.3117   188.4640
 59      0.0000     0.0000E+00    0.0000E+00    2.861200E+08  0.05000  7.384E-04    0   0.6633   age125_m72            0.0000     9.0078E-06    21.7649  -0.1973   194.4601
 60      0.0000     0.0000E+00    0.0000E+00    5.088000E+08  0.05000  3.819E-04    0   0.6372   age130_m72            0.0000     8.7753E-06    21.6329  -0.6853   196.1598
 61      0.0000     0.0000E+00    0.0000E+00    9.047900E+08  0.05000  1.676E-04    0   0.6110   age135_m72            0.0000     8.5982E-06    23.0157  -1.0000   178.3041
 62      0.0000     0.0000E+00    0.0000E+00    1.434000E+09  0.05000  8.837E-05    0   0.5874   age139_m72            0.0000     9.6163E-06    30.0718  -1.0000   159.2780
 63     10.5094     6.1294E+00    6.5901E+00    2.500000E+09  0.05000  4.233E-05    0   0.5598   age150_m72            0.0000     1.1096E-05    35.6570  -1.0000   144.3260
 64     10.2050     1.7557E+01    1.7700E+01    6.250000E+09  0.05000  1.435E-05    0   0.5249   age166_m72            0.0000     1.3951E-05    43.8990  -1.0000   123.3059
 65      0.0000     0.0000E+00    0.0000E+00    1.300000E+10  0.05000  6.513E-06    0   0.5036   age193_m72            0.0000     1.6500E-05    48.3076  -1.0000   112.5811
 66      0.0000     0.0000E+00    0.0000E+00    1.800000E+10  0.05000  4.527E-06    0   0.4945   age213_m72            0.0000     1.8143E-05    50.4858  -1.0000   105.5905


## Synthesis Results - Average & Chains ##

# j      x_j: min, <> & last-chain-values for 1 ...  7 chains
  1      0.0000     24.3862     25.6972     24.2095     22.9659     24.6836     24.7329     24.4253     21.8544
  2      0.0000      0.1061      0.4259      0.9417      0.0000      0.0369      0.5502      0.0000      0.0000
  3      0.0141      0.1533      0.2603      0.0000      0.5604      0.0450      0.0768      0.0423      0.4302
  4      0.0000      0.1626      0.2470      0.0000      0.2338      0.0000      0.0000      0.1960      0.3083
  5      0.0000      0.1772      0.0000      0.0070      0.1186      0.3851      0.1506      0.0092      0.0438
  6      0.0000      0.1477      0.0000      0.2451      0.0000      0.4483      0.1256      0.2162      0.5125
  7      0.0000      0.2232      0.0000      0.0000      0.1214      0.2800      0.8206      0.2112      0.9669
  8      0.0000      0.1681      0.0519      0.0000      0.2023      0.1448      0.1754      0.2936      0.0156
  9      0.0000      0.1241      0.2340      0.0000      0.3138      0.3484      0.2916      0.1978      0.0000
 10      0.0000      0.1168      0.3439      0.0000      0.4261      0.0000      0.1569      0.2268      0.7125
 11     13.4033      0.0912      0.0000      0.0423      0.1248      0.5128      0.1415      0.0000      0.2483
 12      0.0000      0.1997      0.0000      0.1628      0.3246      0.2254      0.5512      0.0000      0.4033
 13      0.0000      0.1227      0.1052      0.0580      0.2122      0.5333      0.2578      0.0536      0.1485
 14      1.7431      0.2072      0.2710      0.7226      0.0545      0.3163      0.1769      0.1755      0.8187
 15     40.5716      0.2000      0.3579      0.5495      0.0000      0.0000      0.2658      0.1538      0.3204
 16     29.8804      0.1415      0.0000      0.0000      0.3683      0.3596      0.0886      0.0523      0.4868
 17      0.0000      0.1449      0.0000      1.1123      0.4233      0.1670      0.3378      0.1928      0.0517
 18      0.0000      4.8269      5.0304      4.7351      4.6874      4.6830      4.9391      4.7624      4.0290
 19      0.0000      0.2134      0.4331      0.0000      0.3782      0.1137      0.4369      0.7965      0.4535
 20      0.0000      0.1107      0.3072      0.2671      0.1298      0.6715      0.0069      0.1278      0.0000
 21      0.0000      0.1122      0.0000      0.0000      0.1315      0.2712      0.1973      0.0265      0.0408
 22      0.0000      0.1474      0.2017      0.4899      0.5291      0.0000      0.2995      0.4057      0.0000
 23      0.0602      0.1417      0.3513      0.6004      0.0000      0.0950      0.0825      0.1788      0.2490
 24      0.0000      0.1388      0.2063      0.2132      0.0713      0.0000      0.3195      0.2465      0.0746
 25      0.0000      0.1183      0.0006      0.5199      0.2401      0.1226      0.0756      0.5869      0.1767
 26      0.0000      0.1721      0.0000      0.3199      0.3917      0.4564      0.3616      0.2874      0.1141
 27      0.0618      0.1292      0.0000      0.1398      0.2799      0.0000      0.0000      0.0274      0.8569
 28      0.0000      0.1182      0.0000      0.1160      0.0406      0.0035      0.2900      0.2346      0.0181
 29      0.0000      0.1567      0.7143      0.1964      0.0182      0.2625      0.1957      0.1143      0.2883
 30      5.1220      0.1307      0.1346      0.0000      0.3523      0.3582      0.2625      0.5932      0.7608
 31      0.0000      0.1414      0.4130      0.2553      0.0946      0.1354      0.1559      0.0224      0.8848
 32      3.9410      0.2119      1.6735      0.6270      0.1616      0.3384      0.4318      0.2952      2.4950
 33      0.0000      0.1814      0.5714      0.3629      0.3130      0.7378      0.0000      0.0000      0.0000
 34      0.0000     34.1836     31.7004     30.5304     32.6531     33.5805     31.7108     33.6398     31.7321
 35      0.0000      0.1442      0.5211      0.0116      0.1463      0.1798      0.4014      0.2209      0.3491
 36      0.0000      0.2012      0.3110      1.7614      0.0818      0.0000      0.3701      0.5000      0.2165
 37      0.0000      0.1621      0.1248      0.3938      0.3460      0.0877      0.0009      0.0740      0.0000
 38      0.0000      0.1353      0.1319      0.1139      0.0000      0.0000      0.2419      0.1926      1.1820
 39      1.1921      0.1538      0.2671      0.3400      1.1657      0.8384      0.2870      0.0458      0.6427
 40      0.0000      0.1408      0.0570      0.1100      0.1669      0.0000      0.1090      0.0874      0.1134
 41      0.0000      0.1104      0.0257      0.0000      0.3742      0.3208      0.0338      0.0753      0.0000
 42      0.0000      0.1940      0.0000      0.5474      0.4758      0.1907      0.1229      0.4274      0.5331
 43      0.0000      0.1516      0.2293      0.1021      0.3296      0.4717      0.0000      0.1399      0.1706
 44      0.0000      0.1588      0.0273      0.4243      0.0334      0.0605      0.0000      0.1700      0.2117
 45      0.0000      0.1157      0.3249      0.0000      0.4905      0.1523      0.3074      0.1139      0.0000
 46      4.0321      0.1215      0.1302      0.0043      0.8469      0.0879      0.1000      0.0778      0.3898
