###################################################################
## OUTPUT of StarlightChains_v04.for    [Cid@UFSC - 01/Apr/2007] ##
###################################################################

## Some input info
KUG0210-078._46_53.txt                   [arq_obs]
Base.CB07.vall.4m                        [arq_base]
Masks.EmLines.NEW.gm                     [arq_masks]
StCv04.C11.config                        [arq_config]
   66                                    [N_base]
    0                                    [N_YAV_components = # of components with extra extinction!]
    0                                    [i_FitPowerLaw (1/0 = Yes/No)]
-9.99                                    [alpha_PowerLaw]
CCM                                      [red_law_option]
 1.458241                                [q_norm = A(l_norm)/A(V)]

## (Re)Sampling Parameters
 3741.00                                 [l_ini (A)]
 7218.00                                 [l_fin (A)]
    1.00                                 [dl    (A)]     (OBS: dl_cushion =    50.00 A)

## Normalization info
 4020.00                                 [l_norm (A) - for base]
 4010.00                                 [llow_norm (A) - window for f_obs]
 4060.00                                 [lupp_norm (A) - window for f_obs]
3.459531E-18                             [fobs_norm (in input units)]

## S/N
 3691.00                                 [llow_SN (A) - window for S/N]
 7268.00                                 [lupp_SN (A) - window for S/N]
   2.290                                 [S/N in S/N window]
   1.401                                 [S/N in norm. window]
   0.007                                 [S/N_err in S/N window]
   0.004                                 [S/N_err in norm. window]
  1.0000                                 [fscale_chi2]

## etc...
    -2007903                             [idum_orig]
  2346                                   [NOl_eff]
  2116                                   [Nl_eff]
   230    NSIGMA                         [Ntot_cliped & clip_method]
  5248670                                [Nglobal_steps]
   7                                     [N_chains]
   7                                     [NEX0s_base = N_base in EX0s-fits]
 0   0   1      230   2.0   2.359E+03    [Clip-Bug, RC-Crash & Burn-In warning-flags, n_censored_weights, wei_nsig_threshold & wei_limit]
    44     44.234     43.591      0.643  [idt_all, wdt_TotTime, wdt_UsrTime & wdt_SysTime (sec)]

## Synthesis Results - Best model ##

 1.47869E-05                             [chi2/Nl_eff]
    34.19956                             [adev (%)]

   130.00000                             [sum-of-x (%)]
 3.96847E-16                             [Flux_tot (units of input spectrum!)]
 3.04736E-14                             [Mini_tot (???)]
 3.04398E-14                             [Mcor_tot (???)]

-218.50                                  [v0_min  (km/s)]
   0.01                                  [vd_min  (km/s)]
 3.3356                                  [AV_min  (mag)]
 0.0000                                  [YAV_min (mag)]

# j     x_j(%)      Mini_j(%)     Mcor_j(%)     age_j(yr)     Z_j      (L/M)_j    YAV?  Mstars   component_j        a/Fe...       SSP_chi2r SSP_adev(%)   SSP_AV   SSP_x(%)
  1    100.6845     9.2194E+01    9.2296E+01    1.000000E+06  0.00400  1.094E-02    0   1.0000   age020_m42            0.0000     8.8066E-06    24.4998   2.0701   225.0634
  2      0.0000     0.0000E+00    0.0000E+00    3.160000E+06  0.00400  4.007E-02    0   0.9999   age045_m42            0.0000     8.7265E-06    25.3349   1.4228   232.6885
  3      0.0000     0.0000E+00    0.0000E+00    5.010000E+06  0.00400  2.539E-02    0   0.9488   age055_m42            0.0000     8.7453E-06    24.9627   1.7082   230.3963
  4      0.0000     0.0000E+00    0.0000E+00    6.610000E+06  0.00400  2.620E-02    0   0.9220   age061_m42            0.0000     8.7649E-06    25.4588   1.3547   232.7542
  5      0.0000     0.0000E+00    0.0000E+00    1.000000E+07  0.00400  1.322E-02    0   0.8862   age070_m42            0.0000     8.9773E-06    26.5953   1.0829   237.8881
  6      0.0000     0.0000E+00    0.0000E+00    1.445000E+07  0.00400  7.883E-03    0   0.8571   age078_m42            0.0000     8.9913E-06    26.2125   1.3909   233.5619
  7      0.0000     0.0000E+00    0.0000E+00    2.512000E+07  0.00400  5.251E-03    0   0.8174   age090_m42            0.0000     9.0619E-06    27.0031   0.9697   237.9566
  8      0.0000     0.0000E+00    0.0000E+00    4.000000E+07  0.00400  3.649E-03    0   0.7851   age104_m42            0.0000     9.0515E-06    27.0142   0.7540   238.5259
  9      0.0000     0.0000E+00    0.0000E+00    5.500000E+07  0.00400  3.098E-03    0   0.7629   age110_m42            0.0000     8.9148E-06    26.5729   0.9107   237.6564
 10      0.0000     0.0000E+00    0.0000E+00    1.015200E+08  0.00400  2.228E-03    0   0.7207   age116_m42            0.0000     8.8375E-06    26.3600   0.9372   237.2260
 11      0.0000     0.0000E+00    0.0000E+00    2.861200E+08  0.00400  1.093E-03    0   0.6648   age125_m42            0.0000     8.9732E-06    27.2392   0.3904   241.7825
 12      0.0000     0.0000E+00    0.0000E+00    5.088000E+08  0.00400  6.597E-04    0   0.6365   age130_m42            0.0000     8.8269E-06    26.7929   0.3888   242.4225
 13      0.0000     0.0000E+00    0.0000E+00    1.434000E+09  0.00400  2.132E-04    0   0.5798   age139_m42            0.0000     8.8434E-06    26.7037  -0.5431   242.9125
 14      0.0000     0.0000E+00    0.0000E+00    4.250000E+09  0.00400  5.895E-05    0   0.5377   age158_m42            0.0000     8.9238E-06    25.4922  -0.9911   233.3446
 15      0.0000     0.0000E+00    0.0000E+00    7.500000E+09  0.00400  3.510E-05    0   0.5212   age171_m42            0.0000     9.0519E-06    27.8209  -1.0000   221.7067
 16      0.0000     0.0000E+00    0.0000E+00    1.300000E+10  0.00400  2.005E-05    0   0.5034   age193_m42            0.0000     9.2990E-06    30.4817  -1.0000   211.2571
 17      0.0000     0.0000E+00    0.0000E+00    1.800000E+10  0.00400  1.525E-05    0   0.4967   age213_m42            0.0000     9.3228E-06    30.9783  -1.0000   209.2309
 18      0.0000     0.0000E+00    0.0000E+00    1.000000E+06  0.00800  1.238E-02    0   1.0000   age020_m52            0.0000     8.7576E-06    24.4446   2.0591   226.0318
 19      0.0000     0.0000E+00    0.0000E+00    3.160000E+06  0.00800  3.074E-02    0   0.9966   age045_m52            0.0000     8.7178E-06    24.4636   1.9888   227.5420
 20      0.0000     0.0000E+00    0.0000E+00    5.010000E+06  0.00800  2.668E-02    0   0.9443   age055_m52            0.0000     8.7641E-06    24.8687   1.7782   229.5116
 21      0.0000     0.0000E+00    0.0000E+00    6.610000E+06  0.00800  2.136E-02    0   0.9177   age061_m52            0.0000     8.9909E-06    26.3796   0.5846   240.3885
 22      0.0000     0.0000E+00    0.0000E+00    1.000000E+07  0.00800  1.215E-02    0   0.8827   age070_m52            0.0000     9.0515E-06    26.9111   1.2542   238.3673
 23      0.0000     0.0000E+00    0.0000E+00    1.445000E+07  0.00800  8.717E-03    0   0.8552   age078_m52            0.0000     9.0248E-06    26.4057   1.3666   235.9109
 24      0.0000     0.0000E+00    0.0000E+00    2.512000E+07  0.00800  5.592E-03    0   0.8162   age090_m52            0.0000     9.0910E-06    27.2045   1.0377   240.2127
 25      0.0000     0.0000E+00    0.0000E+00    4.000000E+07  0.00800  3.896E-03    0   0.7841   age104_m52            0.0000     9.0583E-06    27.1350   0.9632   240.3278
 26      0.0000     0.0000E+00    0.0000E+00    1.015200E+08  0.00800  2.148E-03    0   0.7226   age116_m52            0.0000     9.0168E-06    26.7283   0.9152   238.1451
 27      0.0000     0.0000E+00    0.0000E+00    2.861200E+08  0.00800  9.925E-04    0   0.6683   age125_m52            0.0000     8.9085E-06    26.8432   0.4572   244.3562
 28      0.0000     0.0000E+00    0.0000E+00    9.047900E+08  0.00800  3.141E-04    0   0.6138   age135_m52            0.0000     8.8038E-06    26.6023  -0.2944   248.3570
 29      0.0000     0.0000E+00    0.0000E+00    1.434000E+09  0.00800  1.719E-04    0   0.5853   age139_m52            0.0000     8.9213E-06    26.2059  -0.8840   243.6333
 30      0.0000     0.0000E+00    0.0000E+00    2.500000E+09  0.00800  7.872E-05    0   0.5600   age150_m52            0.0000     8.9572E-06    27.3436  -1.0000   228.4220
 31      0.0000     0.0000E+00    0.0000E+00    4.250000E+09  0.00800  4.336E-05    0   0.5426   age158_m52            0.0000     9.0195E-06    27.4890  -1.0000   225.3221
 32      0.0000     0.0000E+00    0.0000E+00    6.250000E+09  0.00800  3.159E-05    0   0.5319   age166_m52            0.0000     9.3324E-06    30.5027  -1.0000   213.4296
 33      0.0000     0.0000E+00    0.0000E+00    1.300000E+10  0.00800  1.361E-05    0   0.5073   age193_m52            0.0000     1.0761E-05    38.6258  -1.0000   184.9389
 34      0.0000     0.0000E+00    0.0000E+00    1.800000E+10  0.00800  9.886E-06    0   0.4990   age213_m52            0.0000     1.1216E-05    40.0716  -1.0000   177.5091
 35      0.0000     0.0000E+00    0.0000E+00    1.000000E+06  0.02000  1.544E-02    0   1.0000   age020_m62            0.0000     8.7445E-06    24.4703   2.0546   226.7582
 36     29.3155     7.8061E+00    7.7038E+00    3.160000E+06  0.02000  3.762E-02    0   0.9858   age045_m62            0.0000     8.6934E-06    24.3785   1.9874   229.1150
 37      0.0000     0.0000E+00    0.0000E+00    5.010000E+06  0.02000  3.296E-02    0   0.9342   age055_m62            0.0000     8.7306E-06    24.9743   1.6763   232.3140
 38      0.0000     0.0000E+00    0.0000E+00    8.710000E+06  0.02000  1.154E-02    0   0.8861   age067_m62            0.0000     9.5063E-06    29.5392   0.6933   248.5844
 39      0.0000     0.0000E+00    0.0000E+00    1.445000E+07  0.02000  7.663E-03    0   0.8472   age078_m62            0.0000     9.2589E-06    27.8850   0.9107   243.1394
 40      0.0000     0.0000E+00    0.0000E+00    2.512000E+07  0.02000  4.532E-03    0   0.8099   age090_m62            0.0000     9.3315E-06    28.1468   0.9084   241.9029
 41      0.0000     0.0000E+00    0.0000E+00    5.500000E+07  0.02000  2.733E-03    0   0.7595   age110_m62            0.0000     9.0933E-06    27.0090   0.9378   239.4703
 42      0.0000     0.0000E+00    0.0000E+00    1.609000E+08  0.02000  1.369E-03    0   0.6985   age120_m62            0.0000     8.9293E-06    26.7466   0.7994   243.0466
 43      0.0000     0.0000E+00    0.0000E+00    2.861200E+08  0.02000  9.013E-04    0   0.6714   age125_m62            0.0000     8.8237E-06    26.7268   0.5677   247.6712
 44      0.0000     0.0000E+00    0.0000E+00    5.088000E+08  0.02000  5.028E-04    0   0.6449   age130_m62            0.0000     8.6543E-06    26.3021   0.2179   250.3574
 45      0.0000     0.0000E+00    0.0000E+00    9.047900E+08  0.02000  2.428E-04    0   0.6179   age135_m62            0.0000     8.7864E-06    25.8524  -0.3465   245.6882
 46      0.0000     0.0000E+00    0.0000E+00    1.434000E+09  0.02000  1.263E-04    0   0.5908   age139_m62            0.0000     8.9099E-06    25.4262  -0.7883   241.2668
 47      0.0000     0.0000E+00    0.0000E+00    2.500000E+09  0.02000  5.985E-05    0   0.5673   age150_m62            0.0000     9.0345E-06    26.9644  -1.0000   229.1141
 48      0.0000     0.0000E+00    0.0000E+00    4.250000E+09  0.02000  3.271E-05    0   0.5468   age158_m62            0.0000     9.5149E-06    31.5533  -1.0000   209.4540
 49      0.0000     0.0000E+00    0.0000E+00    1.000000E+10  0.02000  1.360E-05    0   0.5167   age181_m62            0.0000     1.0612E-05    37.1613  -1.0000   187.8340
 50      0.0000     0.0000E+00    0.0000E+00    1.800000E+10  0.02000  7.124E-06    0   0.5013   age213_m62            0.0000     1.1558E-05    40.3351  -1.0000   173.9477
 51      0.0000     0.0000E+00    0.0000E+00    1.000000E+06  0.05000  2.592E-02    0   0.9998   age020_m72            0.0000     8.6524E-06    24.3784   2.0267   228.4880
 52      0.0000     0.0000E+00    0.0000E+00    3.160000E+06  0.05000  4.845E-02    0   0.9577   age045_m72            0.0000     8.7683E-06    24.5021   1.8965   229.5118
 53      0.0000     0.0000E+00    0.0000E+00    5.010000E+06  0.05000  3.072E-02    0   0.9147   age055_m72            0.0000     9.0819E-06    26.6189   1.4530   236.8102
 54      0.0000     0.0000E+00    0.0000E+00    6.610000E+06  0.05000  1.455E-02    0   0.8877   age061_m72            0.0000     1.0008E-05    31.2545   0.7094   252.3015
 55      0.0000     0.0000E+00    0.0000E+00    1.000000E+07  0.05000  9.074E-03    0   0.8524   age070_m72            0.0000     9.2169E-06    26.8759   1.6201   236.1867
 56      0.0000     0.0000E+00    0.0000E+00    2.512000E+07  0.05000  4.250E-03    0   0.7902   age090_m72            0.0000     9.2288E-06    27.2274   1.3666   237.0156
 57      0.0000     0.0000E+00    0.0000E+00    4.000000E+07  0.05000  3.087E-03    0   0.7618   age104_m72            0.0000     9.2688E-06    27.6916   1.1543   239.6564
 58      0.0000     0.0000E+00    0.0000E+00    1.015200E+08  0.05000  1.700E-03    0   0.7096   age116_m72            0.0000     9.0687E-06    27.1446   0.9369   242.5546
 59      0.0000     0.0000E+00    0.0000E+00    2.861200E+08  0.05000  7.384E-04    0   0.6633   age125_m72            0.0000     8.7313E-06    26.5077   0.4536   248.6198
 60      0.0000     0.0000E+00    0.0000E+00    5.088000E+08  0.05000  3.819E-04    0   0.6372   age130_m72            0.0000     8.6762E-06    25.8979  -0.0140   249.2313
 61      0.0000     0.0000E+00    0.0000E+00    9.047900E+08  0.05000  1.676E-04    0   0.6110   age135_m72            0.0000     8.9713E-06    24.8524  -0.6950   241.7013
 62      0.0000     0.0000E+00    0.0000E+00    1.434000E+09  0.05000  8.837E-05    0   0.5874   age139_m72            0.0000     9.1418E-06    26.8481  -1.0000   231.3862
 63      0.0000     0.0000E+00    0.0000E+00    2.500000E+09  0.05000  4.233E-05    0   0.5598   age150_m72            0.0000     9.5237E-06    31.3045  -1.0000   210.9456
 64      0.0000     0.0000E+00    0.0000E+00    6.250000E+09  0.05000  1.435E-05    0   0.5249   age166_m72            0.0000     1.1023E-05    38.7462  -1.0000   181.3950
 65      0.0000     0.0000E+00    0.0000E+00    1.300000E+10  0.05000  6.513E-06    0   0.5036   age193_m72            0.0000     1.2530E-05    42.9927  -1.0000   166.4527
 66      0.0000     0.0000E+00    0.0000E+00    1.800000E+10  0.05000  4.527E-06    0   0.4945   age213_m72            0.0000     1.3540E-05    45.2475  -1.0000   156.6299


## Synthesis Results - Average & Chains ##

# j      x_j: min, <> & last-chain-values for 1 ...  7 chains
  1    100.6845      5.6019      3.1428      4.2273      4.8243      5.7805      6.3141      4.0850      7.0634
  2      0.0000      0.1598      0.0297      0.0278      0.0279      0.3088      0.8146      0.0398      0.0433
  3      0.0000      0.1788      0.1282      0.0000      0.0133      0.4590      0.2866      0.0158      0.2671
  4      0.0000      0.1673      0.0000      0.1295      0.0892      0.2980      0.0000      0.0257      0.5314
  5      0.0000      0.1583      0.0081      0.0781      0.0226      0.0000      0.0000      0.0196      0.6201
  6      0.0000      0.2354      0.0000      0.0296      0.0611      0.0838      0.1056      0.0000      0.0000
  7      0.0000      0.1830      0.0119      0.0782      0.1809      0.4297      0.8358      0.0404      0.0192
  8      0.0000      0.2192      0.1328      0.0378      0.0562      0.2597      0.2118      0.0236      0.4518
  9      0.0000      0.1678      0.0175      0.0000      0.0774      0.1977      0.4652      0.0301      0.0007
 10      0.0000      0.1830      0.0415      0.0218      0.0967      0.2671      0.2159      0.0727      0.6941
 11      0.0000      0.2344      0.0000      0.0409      0.1101      0.0921      0.1525      0.0622      0.7194
 12      0.0000      0.1702      0.0371      0.0178      0.0000      0.0727      0.3673      0.0166      0.2384
 13      0.0000      0.1274      0.0061      0.0000      0.0713      0.0514      0.0676      0.0257      1.2167
 14      0.0000      0.1888      0.0241      0.0000      0.0373      0.1314      0.1097      0.0344      0.0691
 15      0.0000      0.1423      0.0605      0.0198      0.0075      0.4411      0.8460      0.0031      0.4127
 16      0.0000      0.2657      0.0822      0.0339      0.0388      0.4341      1.3080      0.0000      1.2575
 17      0.0000      0.1776      0.0413      0.0000      0.1655      0.0871      0.3028      0.0000      0.0804
 18      0.0000      0.2019      0.0024      0.0033      0.0108      0.1568      0.0000      0.0100      0.6019
 19      0.0000      0.1961      0.0242      0.1323      0.0000      0.2237      0.4587      0.0000      0.4886
 20      0.0000      0.1642      0.0068      0.0755      0.0038      0.0934      0.1383      0.0228      0.6080
 21      0.0000      0.1894      0.0247      0.0791      0.0993      0.0360      0.9793      0.0093      0.2671
 22      0.0000      0.1902      0.0182      0.0014      0.0046      0.3643      0.3026      0.0118      0.6175
 23      0.0000      0.1891      0.0203      0.0184      0.0000      0.4847      0.2481      0.0337      0.0000
 24      0.0000      0.2211      0.0130      0.0512      0.0292      0.2595      0.0000      0.0214      0.2219
 25      0.0000      0.2094      0.0000      0.1075      0.0000      0.1051      0.0000      0.0362      0.0000
 26      0.0000      0.1790      0.0730      0.0000      0.1137      0.0796      0.2225      0.0542      0.0000
 27      0.0000      0.2530      0.0533      0.0103      0.1316      0.1027      0.4572      0.0000      1.1932
 28      0.0000      0.2072      0.0450      0.0254      0.0136      0.4912      1.0526      0.0851      0.5104
 29      0.0000      0.2394      0.0293      0.0000      0.0000      0.1837      0.0000      0.0174      0.4514
 30      0.0000      0.1697      0.0020      0.0248      0.0401      0.1171      0.0000      0.0111      0.0524
 31      0.0000      0.1439      0.0537      0.0000      0.0000      0.0734      0.3469      0.0000      0.0000
 32      0.0000      0.1871      0.0303      0.0555      0.0817      0.1851      0.0819      0.0068      0.2563
 33      0.0000      0.2127      0.0395      0.0174      0.0226      0.0826      0.1810      0.0000      0.0805
 34      0.0000      0.2846      0.0025      0.0177      0.0470      0.0000      1.0432      0.0010      0.0007
 35      0.0000      0.1714      0.0209      0.0154      0.0000      0.0000      0.1860      0.0263      0.0000
 36     29.3155      0.1915      0.0000      0.0656      0.0016      0.5881      1.1186      0.0999      0.0353
 37      0.0000      0.1300      0.0000      0.0732      0.0401      0.4171      0.0000      0.0175      0.3514
 38      0.0000      0.1956      0.0052      0.0000      0.0313      0.4519      0.3553      0.0229      0.3062
 39      0.0000      0.2603      0.0130      0.0000      0.0712      0.5110      0.3163      0.0243      0.2009
 40      0.0000      0.2212      0.0000      0.1271      0.0870      0.4649      0.0760      0.0112      0.1010
 41      0.0000      0.1917      0.0525      0.0000      0.0848      0.9323      0.9196      0.0000      0.0000
 42      0.0000      0.2578      0.0000      0.0126      0.0171      0.0144      1.0086      0.0000      0.8130
 43      0.0000      0.1876      0.0694      0.0000      0.0737      0.0829      0.0302      0.0000      0.0586
 44      0.0000      0.2166      0.0368      0.0455      0.0246      0.3642      0.5203      0.0306      0.5266
 45      0.0000      0.1978      0.0209      0.0179      0.0609      0.1641      0.0975      0.0000      0.2389
 46      0.0000      0.1295      0.0140      0.0252      0.0287      0.0000      0.0000      0.0000      0.2150
