###################################################################
## OUTPUT of StarlightChains_v04.for    [Cid@UFSC - 01/Apr/2007] ##
###################################################################

## Some input info
KUG0210-078._36_31.txt                   [arq_obs]
Base.CB07.vall.4m                        [arq_base]
Masks.EmLines.NEW.gm                     [arq_masks]
StCv04.C11.config                        [arq_config]
   66                                    [N_base]
    0                                    [N_YAV_components = # of components with extra extinction!]
    0                                    [i_FitPowerLaw (1/0 = Yes/No)]
-9.99                                    [alpha_PowerLaw]
CCM                                      [red_law_option]
 1.458241                                [q_norm = A(l_norm)/A(V)]

## (Re)Sampling Parameters
 3741.00                                 [l_ini (A)]
 7218.00                                 [l_fin (A)]
    1.00                                 [dl    (A)]     (OBS: dl_cushion =    50.00 A)

## Normalization info
 4020.00                                 [l_norm (A) - for base]
 4010.00                                 [llow_norm (A) - window for f_obs]
 4060.00                                 [lupp_norm (A) - window for f_obs]
2.252228E-17                             [fobs_norm (in input units)]

## S/N
 3691.00                                 [llow_SN (A) - window for S/N]
 7268.00                                 [lupp_SN (A) - window for S/N]
   3.651                                 [S/N in S/N window]
   2.337                                 [S/N in norm. window]
   0.046                                 [S/N_err in S/N window]
   0.029                                 [S/N_err in norm. window]
  1.0000                                 [fscale_chi2]

## etc...
    -2007595                             [idum_orig]
  2426                                   [NOl_eff]
  2352                                   [Nl_eff]
    74    NSIGMA                         [Ntot_cliped & clip_method]
  5357520                                [Nglobal_steps]
   7                                     [N_chains]
  15                                     [NEX0s_base = N_base in EX0s-fits]
 0   0   1       74   2.0   8.303E+03    [Clip-Bug, RC-Crash & Burn-In warning-flags, n_censored_weights, wei_nsig_threshold & wei_limit]
    49     49.311     48.574      0.736  [idt_all, wdt_TotTime, wdt_UsrTime & wdt_SysTime (sec)]

## Synthesis Results - Best model ##

 6.01857E-05                             [chi2/Nl_eff]
    13.00363                             [adev (%)]

   122.18819                             [sum-of-x (%)]
 2.00029E-17                             [Flux_tot (units of input spectrum!)]
 2.32658E-12                             [Mini_tot (???)]
 1.16516E-12                             [Mcor_tot (???)]

 -55.25                                  [v0_min  (km/s)]
 202.00                                  [vd_min  (km/s)]
-0.2375                                  [AV_min  (mag)]
 0.0000                                  [YAV_min (mag)]

# j     x_j(%)      Mini_j(%)     Mcor_j(%)     age_j(yr)     Z_j      (L/M)_j    YAV?  Mstars   component_j        a/Fe...       SSP_chi2r SSP_adev(%)   SSP_AV   SSP_x(%)
  1      0.0000     0.0000E+00    0.0000E+00    1.000000E+06  0.00400  1.094E-02    0   1.0000   age020_m42            0.0000     1.0761E-04    19.2457   3.9867   102.4167
  2      0.0000     0.0000E+00    0.0000E+00    3.160000E+06  0.00400  4.007E-02    0   0.9999   age045_m42            0.0000     1.0502E-04    19.3887   3.2668   108.8471
  3      0.0000     0.0000E+00    0.0000E+00    5.010000E+06  0.00400  2.539E-02    0   0.9488   age055_m42            0.0000     1.0744E-04    19.4722   3.5898   106.1679
  4      0.0000     0.0000E+00    0.0000E+00    6.610000E+06  0.00400  2.620E-02    0   0.9220   age061_m42            0.0000     1.0757E-04    19.6805   3.1994   108.6999
  5      0.0000     0.0000E+00    0.0000E+00    1.000000E+07  0.00400  1.322E-02    0   0.8862   age070_m42            0.0000     1.2218E-04    21.3706   2.9238   110.1637
  6      0.0000     0.0000E+00    0.0000E+00    1.445000E+07  0.00400  7.883E-03    0   0.8571   age078_m42            0.0000     1.2162E-04    21.1820   3.2477   107.6512
  7      0.0000     0.0000E+00    0.0000E+00    2.512000E+07  0.00400  5.251E-03    0   0.8174   age090_m42            0.0000     1.2483E-04    21.6923   2.7968   110.5573
  8      0.0000     0.0000E+00    0.0000E+00    4.000000E+07  0.00400  3.649E-03    0   0.7851   age104_m42            0.0000     1.2127E-04    21.3979   2.5670   111.6375
  9      0.0000     0.0000E+00    0.0000E+00    5.500000E+07  0.00400  3.098E-03    0   0.7629   age110_m42            0.0000     1.1547E-04    20.7443   2.7169   111.9733
 10      0.0000     0.0000E+00    0.0000E+00    1.015200E+08  0.00400  2.228E-03    0   0.7207   age116_m42            0.0000     1.1233E-04    20.3650   2.7384   112.2203
 11      0.0000     0.0000E+00    0.0000E+00    2.861200E+08  0.00400  1.093E-03    0   0.6648   age125_m42            0.0000     1.1855E-04    21.0978   2.1610   115.3128
 12      0.0000     0.0000E+00    0.0000E+00    5.088000E+08  0.00400  6.597E-04    0   0.6365   age130_m42            0.0000     1.0991E-04    20.1309   2.1464   116.8344
 13      0.0000     0.0000E+00    0.0000E+00    1.434000E+09  0.00400  2.132E-04    0   0.5798   age139_m42            0.0000     9.4066E-05    18.6476   1.1656   120.0670
 14      0.0000     0.0000E+00    0.0000E+00    4.250000E+09  0.00400  5.895E-05    0   0.5377   age158_m42            0.0000     7.6560E-05    16.4383   0.7066   116.9460
 15      0.0000     0.0000E+00    0.0000E+00    7.500000E+09  0.00400  3.510E-05    0   0.5212   age171_m42            0.0000     7.1953E-05    15.6942   0.5070   116.8339
 16      0.0000     0.0000E+00    0.0000E+00    1.300000E+10  0.00400  2.005E-05    0   0.5034   age193_m42            0.0000     6.8766E-05    15.1013   0.3309   116.8072
 17     33.4226     1.5421E+01    1.5295E+01    1.800000E+10  0.00400  1.525E-05    0   0.4967   age213_m42            0.0000     6.9557E-05    15.2293   0.3090   116.2097
 18      0.0000     0.0000E+00    0.0000E+00    1.000000E+06  0.00800  1.238E-02    0   1.0000   age020_m52            0.0000     1.0779E-04    19.2383   3.9828   102.6236
 19      0.0000     0.0000E+00    0.0000E+00    3.160000E+06  0.00800  3.074E-02    0   0.9966   age045_m52            0.0000     1.0738E-04    19.1899   3.9105   103.3832
 20      0.0000     0.0000E+00    0.0000E+00    5.010000E+06  0.00800  2.668E-02    0   0.9443   age055_m52            0.0000     1.0837E-04    19.4887   3.6730   105.2215
 21      0.0000     0.0000E+00    0.0000E+00    6.610000E+06  0.00800  2.136E-02    0   0.9177   age061_m52            0.0000     1.1183E-04    20.4412   2.4154   112.1656
 22      0.0000     0.0000E+00    0.0000E+00    1.000000E+07  0.00800  1.215E-02    0   0.8827   age070_m52            0.0000     1.2852E-04    21.9120   3.1018   109.7707
 23      0.0000     0.0000E+00    0.0000E+00    1.445000E+07  0.00800  8.717E-03    0   0.8552   age078_m52            0.0000     1.2185E-04    21.2242   3.2154   109.0167
 24      0.0000     0.0000E+00    0.0000E+00    2.512000E+07  0.00800  5.592E-03    0   0.8162   age090_m52            0.0000     1.2663E-04    21.8111   2.8580   111.8422
 25      0.0000     0.0000E+00    0.0000E+00    4.000000E+07  0.00800  3.896E-03    0   0.7841   age104_m52            0.0000     1.2287E-04    21.4776   2.7680   112.8400
 26      0.0000     0.0000E+00    0.0000E+00    1.015200E+08  0.00800  2.148E-03    0   0.7226   age116_m52            0.0000     1.1479E-04    20.6585   2.7050   112.9324
 27      0.0000     0.0000E+00    0.0000E+00    2.861200E+08  0.00800  9.925E-04    0   0.6683   age125_m52            0.0000     1.1018E-04    20.0935   2.2121   117.8281
 28      0.0000     0.0000E+00    0.0000E+00    9.047900E+08  0.00800  3.141E-04    0   0.6138   age135_m52            0.0000     9.1634E-05    17.9675   1.3827   124.7249
 29      0.0000     0.0000E+00    0.0000E+00    1.434000E+09  0.00800  1.719E-04    0   0.5853   age139_m52            0.0000     8.4984E-05    17.4375   0.7989   122.4549
 30      0.0000     0.0000E+00    0.0000E+00    2.500000E+09  0.00800  7.872E-05    0   0.5600   age150_m52            0.0000     7.1474E-05    15.5961   0.5208   120.3738
 31      2.6274     4.2637E-01    4.6195E-01    4.250000E+09  0.00800  4.336E-05    0   0.5426   age158_m52            0.0000     7.0490E-05    15.3889   0.5033   119.4233
 32      0.0000     0.0000E+00    0.0000E+00    6.250000E+09  0.00800  3.159E-05    0   0.5319   age166_m52            0.0000     6.6127E-05    14.5828   0.2892   120.1670
 33      1.9611     1.0139E+00    1.0270E+00    1.300000E+10  0.00800  1.361E-05    0   0.5073   age193_m52            0.0000     6.2427E-05    13.6610  -0.1923   120.2855
 34      0.0000     0.0000E+00    0.0000E+00    1.800000E+10  0.00800  9.886E-06    0   0.4990   age213_m52            0.0000     6.0904E-05    13.0458  -0.3126   120.4511
 35      0.0000     0.0000E+00    0.0000E+00    1.000000E+06  0.02000  1.544E-02    0   1.0000   age020_m62            0.0000     1.0822E-04    19.2498   3.9799   102.8310
 36      0.0000     0.0000E+00    0.0000E+00    3.160000E+06  0.02000  3.762E-02    0   0.9858   age045_m62            0.0000     1.0835E-04    19.2096   3.9187   103.7458
 37      0.0000     0.0000E+00    0.0000E+00    5.010000E+06  0.02000  3.296E-02    0   0.9342   age055_m62            0.0000     1.0605E-04    19.2980   3.5514   107.3977
 38      0.0000     0.0000E+00    0.0000E+00    8.710000E+06  0.02000  1.154E-02    0   0.8861   age067_m62            0.0000     1.6787E-04    25.3937   2.5529   111.6057
 39      0.0000     0.0000E+00    0.0000E+00    1.445000E+07  0.02000  7.663E-03    0   0.8472   age078_m62            0.0000     1.3837E-04    22.8899   2.7398   112.1474
 40      0.0000     0.0000E+00    0.0000E+00    2.512000E+07  0.02000  4.532E-03    0   0.8099   age090_m62            0.0000     1.4258E-04    23.2718   2.7347   111.4972
 41      0.0000     0.0000E+00    0.0000E+00    5.500000E+07  0.02000  2.733E-03    0   0.7595   age110_m62            0.0000     1.2270E-04    21.4573   2.7525   111.9670
 42      0.0000     0.0000E+00    0.0000E+00    1.609000E+08  0.02000  1.369E-03    0   0.6985   age120_m62            0.0000     1.1534E-04    20.6481   2.5890   115.2843
 43      0.0000     0.0000E+00    0.0000E+00    2.861200E+08  0.02000  9.013E-04    0   0.6714   age125_m62            0.0000     1.1020E-04    20.0325   2.3332   119.0197
 44      0.0000     0.0000E+00    0.0000E+00    5.088000E+08  0.02000  5.028E-04    0   0.6449   age130_m62            0.0000     9.5821E-05    18.3271   1.9321   123.8123
 45      0.0000     0.0000E+00    0.0000E+00    9.047900E+08  0.02000  2.428E-04    0   0.6179   age135_m62            0.0000     8.1378E-05    16.8102   1.3251   124.3872
 46      0.0000     0.0000E+00    0.0000E+00    1.434000E+09  0.02000  1.263E-04    0   0.5908   age139_m62            0.0000     7.4280E-05    15.9424   0.8768   123.0237
 47      0.0000     0.0000E+00    0.0000E+00    2.500000E+09  0.02000  5.985E-05    0   0.5673   age150_m62            0.0000     6.6523E-05    14.6342   0.4954   122.4792
 48     16.7564     3.6045E+00    3.9355E+00    4.250000E+09  0.02000  3.271E-05    0   0.5468   age158_m62            0.0000     6.1288E-05    13.5493   0.1744   122.5420
 49      0.0000     0.0000E+00    0.0000E+00    1.000000E+10  0.02000  1.360E-05    0   0.5167   age181_m62            0.0000     6.0698E-05    12.7209  -0.1947   123.2806
 50     29.6294     2.9265E+01    2.9294E+01    1.800000E+10  0.02000  7.124E-06    0   0.5013   age213_m62            0.0000     6.2310E-05    12.2748  -0.4207   123.2340
 51      0.0000     0.0000E+00    0.0000E+00    1.000000E+06  0.05000  2.592E-02    0   0.9998   age020_m72            0.0000     1.0944E-04    19.3160   3.9726   102.8217
 52      0.0000     0.0000E+00    0.0000E+00    3.160000E+06  0.05000  4.845E-02    0   0.9577   age045_m72            0.0000     1.0667E-04    19.1304   3.8086   104.7931
 53      0.0000     0.0000E+00    0.0000E+00    5.010000E+06  0.05000  3.072E-02    0   0.9147   age055_m72            0.0000     1.3106E-04    21.8681   3.3126   108.6807
 54      0.0000     0.0000E+00    0.0000E+00    6.610000E+06  0.05000  1.455E-02    0   0.8877   age061_m72            0.0000     2.0577E-04    28.3286   2.5588   112.3958
 55      0.0000     0.0000E+00    0.0000E+00    1.000000E+07  0.05000  9.074E-03    0   0.8524   age070_m72            0.0000     1.4173E-04    22.4946   3.4678   108.6805
 56      0.0000     0.0000E+00    0.0000E+00    2.512000E+07  0.05000  4.250E-03    0   0.7902   age090_m72            0.0000     1.3616E-04    22.3798   3.1935   109.9673
 57      0.0000     0.0000E+00    0.0000E+00    4.000000E+07  0.05000  3.087E-03    0   0.7618   age104_m72            0.0000     1.3920E-04    22.7473   2.9704   111.4201
 58      0.0000     0.0000E+00    0.0000E+00    1.015200E+08  0.05000  1.700E-03    0   0.7096   age116_m72            0.0000     1.2243E-04    21.3333   2.7310   114.4791
 59      0.0000     0.0000E+00    0.0000E+00    2.861200E+08  0.05000  7.384E-04    0   0.6633   age125_m72            0.0000     1.0302E-04    19.1953   2.1893   121.4531
 60      0.0000     0.0000E+00    0.0000E+00    5.088000E+08  0.05000  3.819E-04    0   0.6372   age130_m72            0.0000     8.5876E-05    17.2669   1.6777   125.0056
 61      0.0000     0.0000E+00    0.0000E+00    9.047900E+08  0.05000  1.676E-04    0   0.6110   age135_m72            0.0000     6.8473E-05    14.8755   0.9606   124.5408
 62      0.0000     0.0000E+00    0.0000E+00    1.434000E+09  0.05000  8.837E-05    0   0.5874   age139_m72            0.0000     6.6400E-05    14.4917   0.4892   124.5494
 63      0.0000     0.0000E+00    0.0000E+00    2.500000E+09  0.05000  4.233E-05    0   0.5598   age150_m72            0.0000     6.0573E-05    13.2078   0.1645   124.1563
 64      0.0000     0.0000E+00    0.0000E+00    6.250000E+09  0.05000  1.435E-05    0   0.5249   age166_m72            0.0000     6.0585E-05    12.5593  -0.2983   123.1891
 65     17.8703     1.9306E+01    1.9414E+01    1.300000E+10  0.05000  6.513E-06    0   0.5036   age193_m72            0.0000     6.3882E-05    12.1551  -0.5963   125.3846
 66     19.9210     3.0963E+01    3.0573E+01    1.800000E+10  0.05000  4.527E-06    0   0.4945   age213_m72            0.0000     6.6834E-05    12.0573  -0.7690   125.7519


## Synthesis Results - Average & Chains ##

# j      x_j: min, <> & last-chain-values for 1 ...  7 chains
  1      0.0000      0.1887      0.0411      0.1146      0.0000      0.0208      0.0622      0.0455      0.1955
  2      0.0000      0.1996      0.0474      0.0000      0.1454      0.0531      0.0312      0.2814      0.0496
  3      0.0000      0.2712      0.0817      0.1155      0.1379      0.0000      0.1387      0.0979      0.0408
  4      0.0000      0.2608      0.1241      0.1576      0.1114      0.0787      0.0778      0.0000      0.1785
  5      0.0000      0.2898      0.0393      0.0878      0.0000      0.0469      0.1731      0.4848      0.1650
  6      0.0000      0.2628      0.0000      0.0488      0.4128      0.1439      0.0000      0.0300      0.0805
  7      0.0000      0.2181      0.2169      0.3884      0.1046      0.0294      0.2173      0.1150      0.1867
  8      0.0000      0.3244      0.0592      0.0000      0.1727      0.0000      0.0817      0.0506      0.1700
  9      0.0000      0.2504      0.0000      0.0000      0.1365      0.1397      0.1318      0.2315      0.1033
 10      0.0000      0.2490      0.2560      0.1608      0.0361      0.0000      0.0468      0.0604      0.0000
 11      0.0000      0.2344      0.0627      0.3256      0.0295      0.0000      0.0274      0.0180      0.0000
 12      0.0000      0.1656      0.0287      0.0367      0.0000      0.0199      0.0253      0.0000      0.0217
 13      0.0000      0.2511      0.0000      0.1895      0.0000      0.0863      0.0033      0.0000      0.0836
 14      0.0000      0.1718      0.0392      0.1326      0.1191      0.0371      0.0770      0.0000      0.1419
 15      0.0000      0.2556      0.0319      0.1403      0.0477      0.0065      0.1245      0.2800      0.0000
 16      0.0000      0.2404      0.2678      0.0016      0.0000      0.0941      0.2627      0.0696      0.0885
 17     33.4226      0.3560      0.0343      0.1068      0.0790      0.4436      0.1440      0.2358      0.0001
 18      0.0000      0.2403      0.0590      0.0529      0.0211      0.0089      0.0502      0.0926      0.1069
 19      0.0000      0.2108      0.2284      0.1203      0.0000      0.0441      0.1999      0.0678      0.0580
 20      0.0000      0.2783      0.0842      0.1388      0.2292      0.1252      0.0398      0.0000      0.0180
 21      0.0000      0.2612      0.0113      0.0000      0.0916      0.0000      0.0000      0.0000      0.0271
 22      0.0000      0.1849      0.0944      0.0172      0.0338      0.0338      0.0423      0.1021      0.1144
 23      0.0000      0.2460      0.0321      0.0000      0.0937      0.0530      0.0000      0.0000      0.0000
 24      0.0000      0.2745      0.0899      0.0805      0.1247      0.1000      0.0603      0.1257      0.1080
 25      0.0000      0.2793      0.1084      0.1249      0.0962      0.0060      0.0334      0.4280      0.0000
 26      0.0000      0.2129      0.0330      0.0000      0.0000      0.0638      0.0333      0.0589      0.0000
 27      0.0000      0.2472      0.0960      0.0152      0.0000      0.0000      0.0000      0.0768      0.1326
 28      0.0000      0.2063      0.0767      0.0568      0.0233      0.0000      0.0000      0.0000      0.0951
 29      0.0000      0.1659      0.0000      0.0320      0.0000      0.0541      0.0922      0.0475      0.0494
 30      0.0000      0.3671      0.1948      0.1430      0.3427      0.1246      0.0000      0.3847      0.2722
 31      2.6274      0.2169      0.0000      0.0000      0.1306      0.1531      0.0000      0.0924      0.0240
 32      0.0000      0.2282      0.0746      0.1006      0.1462      0.1369      0.0000      0.0000      0.1766
 33      1.9611      0.2240      0.1373      0.0532      0.1924      0.2426      0.0000      0.0846      0.0620
 34      0.0000     18.8852     21.1148     20.7763     20.6398     16.3094     21.6248     20.4681     20.4876
 35      0.0000      0.2525      0.0982      0.0000      0.3856      0.3004      0.1482      0.2388      0.0000
 36      0.0000      0.3494      0.0498      0.0830      0.0584      0.6420      0.0289      0.1725      0.2322
 37      0.0000      0.2631      0.2563      0.0716      0.0000      0.0031      0.0845      0.0916      0.0000
 38      0.0000      0.2009      0.1748      0.2071      0.1135      0.0376      0.0691      0.1681      0.0000
 39      0.0000      0.2052      0.0000      0.1041      0.0172      0.0120      0.0336      0.0188      0.0000
 40      0.0000      0.2062      0.0069      0.2863      0.0000      0.0976      0.0993      0.0781      0.2881
 41      0.0000      0.2222      0.0819      0.0146      0.1196      0.0723      0.0522      0.0000      0.0330
 42      0.0000      0.1601      0.0291      0.0000      0.0966      0.0000      0.0000      0.1187      0.0731
 43      0.0000      0.2693      0.0889      0.0619      0.0281      0.0455      0.1281      0.1415      0.0667
 44      0.0000      0.2816      0.2814      0.1340      0.0546      0.0000      0.0784      0.0159      0.0638
 45      0.0000      0.2014      0.0196      0.0414      0.0052      0.0294      0.0035      0.0159      0.0289
 46      0.0000      0.2492      0.0334      0.1716      0.0405      0.0000      0.1855      0.0000      0.0067
