###################################################################
## OUTPUT of StarlightChains_v04.for    [Cid@UFSC - 01/Apr/2007] ##
###################################################################

## Some input info
KUG0210-078._39_43.txt                   [arq_obs]
Base.CB07.vall.4m                        [arq_base]
Masks.EmLines.NEW.gm                     [arq_masks]
StCv04.C11.config                        [arq_config]
   66                                    [N_base]
    0                                    [N_YAV_components = # of components with extra extinction!]
    0                                    [i_FitPowerLaw (1/0 = Yes/No)]
-9.99                                    [alpha_PowerLaw]
CCM                                      [red_law_option]
 1.458241                                [q_norm = A(l_norm)/A(V)]

## (Re)Sampling Parameters
 3741.00                                 [l_ini (A)]
 7218.00                                 [l_fin (A)]
    1.00                                 [dl    (A)]     (OBS: dl_cushion =    50.00 A)

## Normalization info
 4020.00                                 [l_norm (A) - for base]
 4010.00                                 [llow_norm (A) - window for f_obs]
 4060.00                                 [lupp_norm (A) - window for f_obs]
1.008522E-17                             [fobs_norm (in input units)]

## S/N
 3691.00                                 [llow_SN (A) - window for S/N]
 7268.00                                 [lupp_SN (A) - window for S/N]
   4.055                                 [S/N in S/N window]
   2.607                                 [S/N in norm. window]
   0.018                                 [S/N_err in S/N window]
   0.011                                 [S/N_err in norm. window]
  1.0000                                 [fscale_chi2]

## etc...
    -2007699                             [idum_orig]
  2413                                   [NOl_eff]
  2385                                   [Nl_eff]
    28    NSIGMA                         [Ntot_cliped & clip_method]
  1018080                                [Nglobal_steps]
   7                                     [N_chains]
   7                                     [NEX0s_base = N_base in EX0s-fits]
 0   0   1       28   2.0   2.242E+03    [Clip-Bug, RC-Crash & Burn-In warning-flags, n_censored_weights, wei_nsig_threshold & wei_limit]
    15     15.549     14.891      0.658  [idt_all, wdt_TotTime, wdt_UsrTime & wdt_SysTime (sec)]

## Synthesis Results - Best model ##

 1.05497E-05                             [chi2/Nl_eff]
    27.02137                             [adev (%)]

   123.52914                             [sum-of-x (%)]
 8.93377E-18                             [Flux_tot (units of input spectrum!)]
 8.30320E-13                             [Mini_tot (???)]
 4.22276E-13                             [Mcor_tot (???)]

  15.02                                  [v0_min  (km/s)]
 217.83                                  [vd_min  (km/s)]
-0.2476                                  [AV_min  (mag)]
 0.0000                                  [YAV_min (mag)]

# j     x_j(%)      Mini_j(%)     Mcor_j(%)     age_j(yr)     Z_j      (L/M)_j    YAV?  Mstars   component_j        a/Fe...       SSP_chi2r SSP_adev(%)   SSP_AV   SSP_x(%)
  1      0.0000     0.0000E+00    0.0000E+00    1.000000E+06  0.00400  1.094E-02    0   1.0000   age020_m42            0.0000     1.9140E-05    53.2775   3.9828   102.2882
  2      0.0000     0.0000E+00    0.0000E+00    3.160000E+06  0.00400  4.007E-02    0   0.9999   age045_m42            0.0000     1.7251E-05    49.7747   3.2527   109.4065
  3      0.0000     0.0000E+00    0.0000E+00    5.010000E+06  0.00400  2.539E-02    0   0.9488   age055_m42            0.0000     1.8153E-05    51.6120   3.5743   106.6888
  4      0.0000     0.0000E+00    0.0000E+00    6.610000E+06  0.00400  2.620E-02    0   0.9220   age061_m42            0.0000     1.7372E-05    49.9120   3.1800   109.5758
  5      0.0000     0.0000E+00    0.0000E+00    1.000000E+07  0.00400  1.322E-02    0   0.8862   age070_m42            0.0000     1.8970E-05    52.5088   2.9114   111.1215
  6      0.0000     0.0000E+00    0.0000E+00    1.445000E+07  0.00400  7.883E-03    0   0.8571   age078_m42            0.0000     1.9262E-05    53.1427   3.2358   108.4463
  7      0.0000     0.0000E+00    0.0000E+00    2.512000E+07  0.00400  5.251E-03    0   0.8174   age090_m42            0.0000     1.9190E-05    52.6174   2.7827   111.6473
  8      0.0000     0.0000E+00    0.0000E+00    4.000000E+07  0.00400  3.649E-03    0   0.7851   age104_m42            0.0000     1.8609E-05    51.3664   2.5520   112.7540
  9      0.0000     0.0000E+00    0.0000E+00    5.500000E+07  0.00400  3.098E-03    0   0.7629   age110_m42            0.0000     1.7668E-05    49.6872   2.7000   113.0732
 10      0.0000     0.0000E+00    0.0000E+00    1.015200E+08  0.00400  2.228E-03    0   0.7207   age116_m42            0.0000     1.7136E-05    48.6284   2.7169   113.4715
 11      0.0000     0.0000E+00    0.0000E+00    2.861200E+08  0.00400  1.093E-03    0   0.6648   age125_m42            0.0000     1.7332E-05    48.2907   2.1427   116.8015
 12      0.0000     0.0000E+00    0.0000E+00    5.088000E+08  0.00400  6.597E-04    0   0.6365   age130_m42            0.0000     1.6210E-05    45.7294   2.1272   118.1847
 13      0.0000     0.0000E+00    0.0000E+00    1.434000E+09  0.00400  2.132E-04    0   0.5798   age139_m42            0.0000     1.4412E-05    41.3900   1.1501   121.0376
 14      0.0000     0.0000E+00    0.0000E+00    4.250000E+09  0.00400  5.895E-05    0   0.5377   age158_m42            0.0000     1.3094E-05    38.4761   0.6947   117.3582
 15      0.0000     0.0000E+00    0.0000E+00    7.500000E+09  0.00400  3.510E-05    0   0.5212   age171_m42            0.0000     1.2585E-05    36.6615   0.4993   116.9685
 16      0.0000     0.0000E+00    0.0000E+00    1.300000E+10  0.00400  2.005E-05    0   0.5034   age193_m42            0.0000     1.2230E-05    35.1548   0.3281   116.6416
 17      0.0000     0.0000E+00    0.0000E+00    1.800000E+10  0.00400  1.525E-05    0   0.4967   age213_m42            0.0000     1.2370E-05    35.6777   0.3063   116.0647
 18      0.0000     0.0000E+00    0.0000E+00    1.000000E+06  0.00800  1.238E-02    0   1.0000   age020_m52            0.0000     1.9143E-05    53.3044   3.9785   102.5140
 19      0.0000     0.0000E+00    0.0000E+00    3.160000E+06  0.00800  3.074E-02    0   0.9966   age045_m52            0.0000     1.8970E-05    53.0062   3.9018   103.4592
 20      0.0000     0.0000E+00    0.0000E+00    5.010000E+06  0.00800  2.668E-02    0   0.9443   age055_m52            0.0000     1.8440E-05    52.0454   3.6583   105.6956
 21      0.0000     0.0000E+00    0.0000E+00    6.610000E+06  0.00800  2.136E-02    0   0.9177   age061_m52            0.0000     1.8159E-05    50.9763   2.4086   112.6926
 22      0.0000     0.0000E+00    0.0000E+00    1.000000E+07  0.00800  1.215E-02    0   0.8827   age070_m52            0.0000     1.9761E-05    53.8148   3.0912   110.7390
 23      0.0000     0.0000E+00    0.0000E+00    1.445000E+07  0.00800  8.717E-03    0   0.8552   age078_m52            0.0000     1.9135E-05    52.9221   3.2012   109.9486
 24      0.0000     0.0000E+00    0.0000E+00    2.512000E+07  0.00800  5.592E-03    0   0.8162   age090_m52            0.0000     1.9176E-05    52.5205   2.8448   112.9848
 25      0.0000     0.0000E+00    0.0000E+00    4.000000E+07  0.00800  3.896E-03    0   0.7841   age104_m52            0.0000     1.8437E-05    51.0462   2.7530   114.0535
 26      0.0000     0.0000E+00    0.0000E+00    1.015200E+08  0.00800  2.148E-03    0   0.7226   age116_m52            0.0000     1.7361E-05    48.9536   2.6836   114.3238
 27      0.0000     0.0000E+00    0.0000E+00    2.861200E+08  0.00800  9.925E-04    0   0.6683   age125_m52            0.0000     1.6181E-05    45.3291   2.1915   119.2801
 28      0.0000     0.0000E+00    0.0000E+00    9.047900E+08  0.00800  3.141E-04    0   0.6138   age135_m52            0.0000     1.3453E-05    38.2034   1.3725   125.4243
 29      0.0000     0.0000E+00    0.0000E+00    1.434000E+09  0.00800  1.719E-04    0   0.5853   age139_m52            0.0000     1.3227E-05    38.5131   0.7893   123.0700
 30      0.0000     0.0000E+00    0.0000E+00    2.500000E+09  0.00800  7.872E-05    0   0.5600   age150_m52            0.0000     1.2094E-05    35.6482   0.5101   120.6405
 31      0.0000     0.0000E+00    0.0000E+00    4.250000E+09  0.00800  4.336E-05    0   0.5426   age158_m52            0.0000     1.2044E-05    35.3322   0.4946   119.5670
 32      0.0000     0.0000E+00    0.0000E+00    6.250000E+09  0.00800  3.159E-05    0   0.5319   age166_m52            0.0000     1.1505E-05    33.0621   0.2812   120.1487
 33      0.0000     0.0000E+00    0.0000E+00    1.300000E+10  0.00800  1.361E-05    0   0.5073   age193_m52            0.0000     1.1014E-05    30.0382  -0.1982   120.0002
 34      0.0000     0.0000E+00    0.0000E+00    1.800000E+10  0.00800  9.886E-06    0   0.4990   age213_m52            0.0000     1.0710E-05    28.1179  -0.3186   120.0394
 35      0.0000     0.0000E+00    0.0000E+00    1.000000E+06  0.02000  1.544E-02    0   1.0000   age020_m62            0.0000     1.9211E-05    53.4360   3.9763   102.7048
 36      0.0000     0.0000E+00    0.0000E+00    3.160000E+06  0.02000  3.762E-02    0   0.9858   age045_m62            0.0000     1.9151E-05    53.2188   3.9128   103.7074
 37      0.0000     0.0000E+00    0.0000E+00    5.010000E+06  0.02000  3.296E-02    0   0.9342   age055_m62            0.0000     1.7702E-05    50.7106   3.5322   108.1129
 38      0.0000     0.0000E+00    0.0000E+00    8.710000E+06  0.02000  1.154E-02    0   0.8861   age067_m62            0.0000     2.4797E-05    60.1153   2.5579   112.5343
 39      0.0000     0.0000E+00    0.0000E+00    1.445000E+07  0.02000  7.663E-03    0   0.8472   age078_m62            0.0000     2.0796E-05    54.8707   2.7384   112.9776
 40      0.0000     0.0000E+00    0.0000E+00    2.512000E+07  0.02000  4.532E-03    0   0.8099   age090_m62            0.0000     2.1120E-05    55.2297   2.7302   112.5870
 41      0.0000     0.0000E+00    0.0000E+00    5.500000E+07  0.02000  2.733E-03    0   0.7595   age110_m62            0.0000     1.8577E-05    51.5285   2.7347   113.2828
 42      0.0000     0.0000E+00    0.0000E+00    1.609000E+08  0.02000  1.369E-03    0   0.6985   age120_m62            0.0000     1.7110E-05    48.0609   2.5647   116.8777
 43      0.0000     0.0000E+00    0.0000E+00    2.861200E+08  0.02000  9.013E-04    0   0.6714   age125_m62            0.0000     1.6211E-05    45.0903   2.3081   120.5985
 44      0.0000     0.0000E+00    0.0000E+00    5.088000E+08  0.02000  5.028E-04    0   0.6449   age130_m62            0.0000     1.4192E-05    39.6985   1.9143   124.7582
 45      0.0000     0.0000E+00    0.0000E+00    9.047900E+08  0.02000  2.428E-04    0   0.6179   age135_m62            0.0000     1.2605E-05    36.9968   1.3118   124.9718
 46      0.0000     0.0000E+00    0.0000E+00    1.434000E+09  0.02000  1.263E-04    0   0.5908   age139_m62            0.0000     1.2195E-05    36.0799   0.8627   123.5124
 47      0.0000     0.0000E+00    0.0000E+00    2.500000E+09  0.02000  5.985E-05    0   0.5673   age150_m62            0.0000     1.1510E-05    33.5794   0.4844   122.5821
 48      0.0000     0.0000E+00    0.0000E+00    4.250000E+09  0.02000  3.271E-05    0   0.5468   age158_m62            0.0000     1.0894E-05    30.4530   0.1634   122.4087
 49      0.0000     0.0000E+00    0.0000E+00    1.000000E+10  0.02000  1.360E-05    0   0.5167   age181_m62            0.0000     1.0555E-05    27.0486  -0.2043   122.9135
 50     58.1406     7.1085E+01    7.0068E+01    1.800000E+10  0.02000  7.124E-06    0   0.5013   age213_m62            0.0000     1.0573E-05    25.3155  -0.4312   122.7734
 51      0.0000     0.0000E+00    0.0000E+00    1.000000E+06  0.05000  2.592E-02    0   0.9998   age020_m72            0.0000     1.9492E-05    53.8779   3.9689   102.7012
 52      0.0000     0.0000E+00    0.0000E+00    3.160000E+06  0.05000  4.845E-02    0   0.9577   age045_m72            0.0000     1.8517E-05    52.1415   3.7931   105.1902
 53      0.0000     0.0000E+00    0.0000E+00    5.010000E+06  0.05000  3.072E-02    0   0.9147   age055_m72            0.0000     2.0201E-05    54.4845   3.3126   109.2185
 54      0.0000     0.0000E+00    0.0000E+00    6.610000E+06  0.05000  1.455E-02    0   0.8877   age061_m72            0.0000     2.8740E-05    63.8290   2.5831   113.2996
 55      0.0000     0.0000E+00    0.0000E+00    1.000000E+07  0.05000  9.074E-03    0   0.8524   age070_m72            0.0000     2.0935E-05    55.0053   3.4760   109.1708
 56      0.0000     0.0000E+00    0.0000E+00    2.512000E+07  0.05000  4.250E-03    0   0.7902   age090_m72            0.0000     1.9967E-05    53.5487   3.1876   111.0423
 57      0.0000     0.0000E+00    0.0000E+00    4.000000E+07  0.05000  3.087E-03    0   0.7618   age104_m72            0.0000     2.0050E-05    53.4392   2.9617   112.7633
 58      0.0000     0.0000E+00    0.0000E+00    1.015200E+08  0.05000  1.700E-03    0   0.7096   age116_m72            0.0000     1.7956E-05    49.5824   2.7073   116.2050
 59      0.0000     0.0000E+00    0.0000E+00    2.861200E+08  0.05000  7.384E-04    0   0.6633   age125_m72            0.0000     1.5159E-05    42.5087   2.1678   122.7464
 60      0.0000     0.0000E+00    0.0000E+00    5.088000E+08  0.05000  3.819E-04    0   0.6372   age130_m72            0.0000     1.3145E-05    38.3816   1.6585   125.8452
 61      0.0000     0.0000E+00    0.0000E+00    9.047900E+08  0.05000  1.676E-04    0   0.6110   age135_m72            0.0000     1.1644E-05    34.8010   0.9423   124.9409
 62      0.0000     0.0000E+00    0.0000E+00    1.434000E+09  0.05000  8.837E-05    0   0.5874   age139_m72            0.0000     1.1419E-05    33.2204   0.4768   124.7036
 63     43.7059     8.9932E+00    9.8991E+00    2.500000E+09  0.05000  4.233E-05    0   0.5598   age150_m72            0.0000     1.0754E-05    29.6578   0.1547   123.8883
 64     13.0400     7.9149E+00    8.1690E+00    6.250000E+09  0.05000  1.435E-05    0   0.5249   age166_m72            0.0000     1.0584E-05    27.2862  -0.3083   122.7658
 65      7.8768     1.0534E+01    1.0431E+01    1.300000E+10  0.05000  6.513E-06    0   0.5036   age193_m72            0.0000     1.0823E-05    25.2015  -0.6080   124.8569
 66      0.7658     1.4734E+00    1.4326E+00    1.800000E+10  0.05000  4.527E-06    0   0.4945   age213_m72            0.0000     1.1150E-05    24.5623  -0.7805   125.1182


## Synthesis Results - Average & Chains ##

# j      x_j: min, <> & last-chain-values for 1 ...  7 chains
  1      0.0000      0.7999      0.0000      0.0000      0.0000      0.0000      0.0000      0.0000      0.0000
  2      0.0000      1.0330      0.0000      0.0000      0.0000      0.0000      0.0000      0.0000      0.0000
  3      0.0000      1.1977      0.0000      0.0000      0.0000      0.0000      0.0000      0.0000      0.0000
  4      0.0000      0.8249      0.0003      0.0000      0.0000      0.0000      0.0000      0.0000      0.0000
  5      0.0000      0.7664      0.0000      0.0000      0.0682      0.0000      0.0000      0.0002      0.0000
  6      0.0000      0.9004      0.0000      0.0000      0.0000      0.0000      0.0000      0.0000      0.0000
  7      0.0000      1.2119      0.0000      0.0000      0.0000      0.0000      0.0000      0.0000      0.0007
  8      0.0000      0.8488      0.0000      0.0000      0.0000      0.0000      0.0000      0.0000      0.0000
  9      0.0000      1.1099      0.0000      0.0000      0.0000      0.0000      0.0000      0.0000      0.0000
 10      0.0000      0.7600      0.0000      0.0000      0.0000      0.0000      0.0000      0.0000      0.0000
 11      0.0000      0.6800      0.0000      0.0000      0.0000      0.0000      0.0000      0.0000      0.0000
 12      0.0000      0.6121      0.0000      0.0000      0.0000      0.0000      0.0000      0.0000      0.0000
 13      0.0000      0.9991      0.0000      0.0000      0.0000      0.0000      0.0040      0.0000      0.0000
 14      0.0000      1.0836      0.0000      0.0000      0.0000      0.0001      0.0000      0.0000      0.0000
 15      0.0000      0.7479      0.0000      0.0015      0.0000      0.0000      0.0000      0.0014      0.0000
 16      0.0000     34.6798     57.9256     66.1143     64.2107     65.9118     66.1697     62.6904     67.1159
 17      0.0000      1.1620      2.2168      0.9821      0.9479      1.0608      0.9439      1.0492      1.0561
 18      0.0000      1.0137      0.0000      0.0000      0.0000      0.0000      0.0000      0.0000      0.0000
 19      0.0000      0.6945      0.0000      0.0000      0.0000      0.0000      0.0000      0.0000      0.0000
 20      0.0000      1.1220      0.0000      0.0000      0.0000      0.0000      0.0000      0.0000      0.0000
 21      0.0000      0.7588      0.0000      0.0000      0.0000      0.0000      0.0000      0.0000      0.0000
 22      0.0000      0.9981      0.0000      0.0000      0.0000      0.0000      0.0000      0.0000      0.0000
 23      0.0000      0.8038      0.0000      0.0000      0.0000      0.0000      0.0000      0.0000      0.0000
 24      0.0000      0.6762      0.0000      0.0000      0.0000      0.0000      0.0000      0.0000      0.0000
 25      0.0000      0.9613      0.0000      0.0000      0.0000      0.0000      0.0000      0.0000      0.0000
 26      0.0000      1.2926      0.0000      0.0000      0.0000      0.0000      0.0000      0.0000      0.0000
 27      0.0000      1.0487      0.0000      0.0000      0.0000      0.0000      0.0000      0.0000      0.0000
 28      0.0000      0.9911      0.0003      0.0000      0.0140      0.0000      0.0000      0.0000      0.0014
 29      0.0000      1.1272      0.2554      0.0000      0.0000      0.0000      0.0000      0.0086      0.0037
 30      0.0000      1.1531      0.0000      0.0035      0.0028      0.0083      0.0118      0.0162      0.0000
 31      0.0000      1.0508      0.2512      0.0000      0.0004      0.0000      0.0000      0.0008      0.0000
 32      0.0000      1.0550      0.0092      0.0027      0.0048      0.0395      0.0087      0.0000      0.0000
 33      0.0000      0.8744      0.0017      0.0045      0.0000      0.0000      0.0000      0.0000      0.0120
 34      0.0000      0.7209      0.0301      0.0621      0.0001      0.0000      0.0122      0.0030      0.0102
 35      0.0000      0.9700      0.0000      0.0000      0.0005      0.0000      0.0000      0.0000      0.0000
 36      0.0000      0.8267      0.0000      0.0000      0.0000      0.0000      0.0000      0.0000      0.0000
 37      0.0000      0.9050      0.0000      0.0000      0.0000      0.0000      0.0000      0.0000      0.0000
 38      0.0000      0.9204      0.0000      0.0000      0.0000      0.0000      0.0000      0.0000      0.0000
 39      0.0000      0.6849      0.0000      0.0000      0.0000      0.0000      0.0000      0.0000      0.0000
 40      0.0000      0.7886      0.0000      0.0000      0.0000      0.0000      0.0000      0.0000      0.0000
 41      0.0000      1.1985      0.0000      0.0000      0.0000      0.0000      0.0000      0.0000      0.0000
 42      0.0000      0.8997      0.0000      0.0000      0.0961      0.0003      0.0000      0.0000      0.0000
 43      0.0000      0.9576      0.0000      0.0000      0.1521      0.0000      0.0000      0.0002      0.0000
 44      0.0000      1.1021      0.0000      0.0000      0.0000      0.0000      0.0023      0.0000      0.0000
 45      0.0000      0.6813      0.0000      0.0000      0.0000      0.0000      0.0000      0.0000      0.0000
 46      0.0000      0.8345      0.0000      0.0026      0.0049      0.0000      0.0000      0.0000      0.0000
