###################################################################
## OUTPUT of StarlightChains_v04.for    [Cid@UFSC - 01/Apr/2007] ##
###################################################################

## Some input info
KUG0210-078._41_56.txt                   [arq_obs]
Base.CB07.vall.4m                        [arq_base]
Masks.EmLines.NEW.gm                     [arq_masks]
StCv04.C11.config                        [arq_config]
   66                                    [N_base]
    0                                    [N_YAV_components = # of components with extra extinction!]
    0                                    [i_FitPowerLaw (1/0 = Yes/No)]
-9.99                                    [alpha_PowerLaw]
CCM                                      [red_law_option]
 1.458241                                [q_norm = A(l_norm)/A(V)]

## (Re)Sampling Parameters
 3741.00                                 [l_ini (A)]
 7218.00                                 [l_fin (A)]
    1.00                                 [dl    (A)]     (OBS: dl_cushion =    50.00 A)

## Normalization info
 4020.00                                 [l_norm (A) - for base]
 4010.00                                 [llow_norm (A) - window for f_obs]
 4060.00                                 [lupp_norm (A) - window for f_obs]
7.347388E-18                             [fobs_norm (in input units)]

## S/N
 3691.00                                 [llow_SN (A) - window for S/N]
 7268.00                                 [lupp_SN (A) - window for S/N]
   3.033                                 [S/N in S/N window]
   2.995                                 [S/N in norm. window]
   0.011                                 [S/N_err in S/N window]
   0.011                                 [S/N_err in norm. window]
  1.0000                                 [fscale_chi2]

## etc...
    -2007766                             [idum_orig]
  2383                                   [NOl_eff]
  2117                                   [Nl_eff]
   266    NSIGMA                         [Ntot_cliped & clip_method]
  9992220                                [Nglobal_steps]
   7                                     [N_chains]
   7                                     [NEX0s_base = N_base in EX0s-fits]
 0   0   1      266   2.0   5.363E+03    [Clip-Bug, RC-Crash & Burn-In warning-flags, n_censored_weights, wei_nsig_threshold & wei_limit]
   179    177.190    175.876      1.313  [idt_all, wdt_TotTime, wdt_UsrTime & wdt_SysTime (sec)]

## Synthesis Results - Best model ##

 1.81936E-05                             [chi2/Nl_eff]
    21.44279                             [adev (%)]

    93.63941                             [sum-of-x (%)]
 3.59348E-16                             [Flux_tot (units of input spectrum!)]
 1.51642E-14                             [Mini_tot (???)]
 1.51617E-14                             [Mcor_tot (???)]

-372.31                                  [v0_min  (km/s)]
   0.00                                  [vd_min  (km/s)]
 2.9452                                  [AV_min  (mag)]
 0.0000                                  [YAV_min (mag)]

# j     x_j(%)      Mini_j(%)     Mcor_j(%)     age_j(yr)     Z_j      (L/M)_j    YAV?  Mstars   component_j        a/Fe...       SSP_chi2r SSP_adev(%)   SSP_AV   SSP_x(%)
  1      0.0000     0.0000E+00    0.0000E+00    1.000000E+06  0.00400  1.094E-02    0   1.0000   age020_m42            0.0000     1.8353E-05    21.3736   2.9882    92.1163
  2      0.0000     0.0000E+00    0.0000E+00    3.160000E+06  0.00400  4.007E-02    0   0.9999   age045_m42            0.0000     1.9956E-05    21.9242   2.5004    87.9167
  3      0.0000     0.0000E+00    0.0000E+00    5.010000E+06  0.00400  2.539E-02    0   0.9488   age055_m42            0.0000     1.8210E-05    21.4280   2.6105    94.6828
  4      0.0000     0.0000E+00    0.0000E+00    6.610000E+06  0.00400  2.620E-02    0   0.9220   age061_m42            0.0000     1.9570E-05    21.9023   2.3939    89.4807
  5      0.0000     0.0000E+00    0.0000E+00    1.000000E+07  0.00400  1.322E-02    0   0.8862   age070_m42            0.0000     1.9425E-05    22.2705   2.0760    92.5782
  6      0.0000     0.0000E+00    0.0000E+00    1.445000E+07  0.00400  7.883E-03    0   0.8571   age078_m42            0.0000     1.8144E-05    21.8049   2.2587    96.6287
  7      0.0000     0.0000E+00    0.0000E+00    2.512000E+07  0.00400  5.251E-03    0   0.8174   age090_m42            0.0000     1.9054E-05    22.2667   1.9157    94.4194
  8      0.0000     0.0000E+00    0.0000E+00    4.000000E+07  0.00400  3.649E-03    0   0.7851   age104_m42            0.0000     1.9193E-05    22.3107   1.7184    93.8893
  9      0.0000     0.0000E+00    0.0000E+00    5.500000E+07  0.00400  3.098E-03    0   0.7629   age110_m42            0.0000     1.9399E-05    22.2164   1.9143    92.1328
 10      0.0000     0.0000E+00    0.0000E+00    1.015200E+08  0.00400  2.228E-03    0   0.7207   age116_m42            0.0000     2.0159E-05    22.3293   2.0134    88.9072
 11      0.0000     0.0000E+00    0.0000E+00    2.861200E+08  0.00400  1.093E-03    0   0.6648   age125_m42            0.0000     2.2306E-05    23.5717   1.5896    84.6234
 12      0.0000     0.0000E+00    0.0000E+00    5.088000E+08  0.00400  6.597E-04    0   0.6365   age130_m42            0.0000     2.2838E-05    23.4438   1.6430    82.9175
 13      0.0000     0.0000E+00    0.0000E+00    1.434000E+09  0.00400  2.132E-04    0   0.5798   age139_m42            0.0000     2.3674E-05    23.5515   0.7715    80.8270
 14      0.0000     0.0000E+00    0.0000E+00    4.250000E+09  0.00400  5.895E-05    0   0.5377   age158_m42            0.0000     2.2890E-05    22.8065   0.2639    80.7420
 15      0.0000     0.0000E+00    0.0000E+00    7.500000E+09  0.00400  3.510E-05    0   0.5212   age171_m42            0.0000     2.2997E-05    21.9763  -0.0000    81.1144
 16      0.0000     0.0000E+00    0.0000E+00    1.300000E+10  0.00400  2.005E-05    0   0.5034   age193_m42            0.0000     2.2986E-05    22.6587  -0.1028    80.2760
 17      0.0000     0.0000E+00    0.0000E+00    1.800000E+10  0.00400  1.525E-05    0   0.4967   age213_m42            0.0000     2.2902E-05    22.6712  -0.1289    80.0297
 18      2.8145     5.7534E+00    5.7543E+00    1.000000E+06  0.00800  1.238E-02    0   1.0000   age020_m52            0.0000     1.8249E-05    21.3556   2.9763    92.6291
 19      0.0000     0.0000E+00    0.0000E+00    3.160000E+06  0.00800  3.074E-02    0   0.9966   age045_m52            0.0000     1.7749E-05    21.2198   2.8434    95.9055
 20      0.0000     0.0000E+00    0.0000E+00    5.010000E+06  0.00800  2.668E-02    0   0.9443   age055_m52            0.0000     1.7694E-05    21.2772   2.6223    96.9184
 21      0.0000     0.0000E+00    0.0000E+00    6.610000E+06  0.00800  2.136E-02    0   0.9177   age061_m52            0.0000     1.9983E-05    22.2824   1.6215    91.7953
 22      0.0000     0.0000E+00    0.0000E+00    1.000000E+07  0.00800  1.215E-02    0   0.8827   age070_m52            0.0000     1.8860E-05    22.2837   2.1797    95.6058
 23      0.0000     0.0000E+00    0.0000E+00    1.445000E+07  0.00800  8.717E-03    0   0.8552   age078_m52            0.0000     1.8538E-05    21.9500   2.2742    95.7233
 24      0.0000     0.0000E+00    0.0000E+00    2.512000E+07  0.00800  5.592E-03    0   0.8162   age090_m52            0.0000     1.9129E-05    22.4018   1.9911    94.9105
 25      0.0000     0.0000E+00    0.0000E+00    4.000000E+07  0.00800  3.896E-03    0   0.7841   age104_m52            0.0000     1.9247E-05    22.4289   1.9298    94.3727
 26      0.0000     0.0000E+00    0.0000E+00    1.015200E+08  0.00800  2.148E-03    0   0.7226   age116_m52            0.0000     2.0235E-05    22.5004   1.9705    89.8632
 27      0.0000     0.0000E+00    0.0000E+00    2.861200E+08  0.00800  9.925E-04    0   0.6683   age125_m52            0.0000     2.2816E-05    23.4099   1.7170    83.3848
 28      0.0000     0.0000E+00    0.0000E+00    9.047900E+08  0.00800  3.141E-04    0   0.6138   age135_m52            0.0000     2.3761E-05    23.6072   1.0267    82.4349
 29      0.0000     0.0000E+00    0.0000E+00    1.434000E+09  0.00800  1.719E-04    0   0.5853   age139_m52            0.0000     2.3799E-05    23.6529   0.4232    81.6662
 30      0.0000     0.0000E+00    0.0000E+00    2.500000E+09  0.00800  7.872E-05    0   0.5600   age150_m52            0.0000     2.3223E-05    22.8642   0.1209    81.4211
 31      0.0000     0.0000E+00    0.0000E+00    4.250000E+09  0.00800  4.336E-05    0   0.5426   age158_m52            0.0000     2.3151E-05    22.7912   0.0896    81.3467
 32      0.0000     0.0000E+00    0.0000E+00    6.250000E+09  0.00800  3.159E-05    0   0.5319   age166_m52            0.0000     2.3174E-05    22.6685  -0.1113    81.3867
 33      0.0000     0.0000E+00    0.0000E+00    1.300000E+10  0.00800  1.361E-05    0   0.5073   age193_m52            0.0000     2.3304E-05    22.5343  -0.5635    80.3696
 34      0.0000     0.0000E+00    0.0000E+00    1.800000E+10  0.00800  9.886E-06    0   0.4990   age213_m52            0.0000     2.3202E-05    22.3836  -0.6819    80.4936
 35      8.4054     1.3777E+01    1.3779E+01    1.000000E+06  0.02000  1.544E-02    0   1.0000   age020_m62            0.0000     1.8227E-05    21.3639   2.9681    93.0384
 36      0.0000     0.0000E+00    0.0000E+00    3.160000E+06  0.02000  3.762E-02    0   0.9858   age045_m62            0.0000     1.7755E-05    21.2374   2.8457    96.5009
 37      0.0000     0.0000E+00    0.0000E+00    5.010000E+06  0.02000  3.296E-02    0   0.9342   age055_m62            0.0000     1.8549E-05    21.4730   2.6297    93.2638
 38      0.0000     0.0000E+00    0.0000E+00    8.710000E+06  0.02000  1.154E-02    0   0.8861   age067_m62            0.0000     1.9542E-05    23.6563   1.5987    99.0269
 39      0.0000     0.0000E+00    0.0000E+00    1.445000E+07  0.02000  7.663E-03    0   0.8472   age078_m62            0.0000     1.9142E-05    22.8679   1.8248    97.2992
 40      0.0000     0.0000E+00    0.0000E+00    2.512000E+07  0.02000  4.532E-03    0   0.8099   age090_m62            0.0000     1.8556E-05    22.8373   1.7599    99.6406
 41      0.0000     0.0000E+00    0.0000E+00    5.500000E+07  0.02000  2.733E-03    0   0.7595   age110_m62            0.0000     1.9173E-05    22.4015   1.8974    94.4154
 42      0.0000     0.0000E+00    0.0000E+00    1.609000E+08  0.02000  1.369E-03    0   0.6985   age120_m62            0.0000     2.1565E-05    22.9561   1.9755    86.4878
 43      0.0000     0.0000E+00    0.0000E+00    2.861200E+08  0.02000  9.013E-04    0   0.6714   age125_m62            0.0000     2.2820E-05    23.3028   1.8499    83.7734
 44      0.0000     0.0000E+00    0.0000E+00    5.088000E+08  0.02000  5.028E-04    0   0.6449   age130_m62            0.0000     2.3422E-05    23.2998   1.5557    82.7412
 45      0.0000     0.0000E+00    0.0000E+00    9.047900E+08  0.02000  2.428E-04    0   0.6179   age135_m62            0.0000     2.3611E-05    23.1625   0.9697    82.3117
 46      0.0000     0.0000E+00    0.0000E+00    1.434000E+09  0.02000  1.263E-04    0   0.5908   age139_m62            0.0000     2.3484E-05    22.9819   0.5028    82.1731
 47      0.0000     0.0000E+00    0.0000E+00    2.500000E+09  0.02000  5.985E-05    0   0.5673   age150_m62            0.0000     2.3270E-05    22.6801   0.1145    82.2376
 48      0.0000     0.0000E+00    0.0000E+00    4.250000E+09  0.02000  3.271E-05    0   0.5468   age158_m62            0.0000     2.3243E-05    22.3889  -0.2052    82.3206
 49      0.0000     0.0000E+00    0.0000E+00    1.000000E+10  0.02000  1.360E-05    0   0.5167   age181_m62            0.0000     2.3273E-05    22.2354  -0.5616    82.4079
 50      0.0000     0.0000E+00    0.0000E+00    1.800000E+10  0.02000  7.124E-06    0   0.5013   age213_m62            0.0000     2.3256E-05    22.1530  -0.7828    82.2803
 51     82.4195     8.0470E+01    8.0467E+01    1.000000E+06  0.05000  2.592E-02    0   0.9998   age020_m72            0.0000     1.8202E-05    21.3666   2.9408    93.8525
 52      0.0000     0.0000E+00    0.0000E+00    3.160000E+06  0.05000  4.845E-02    0   0.9577   age045_m72            0.0000     1.7473E-05    21.1823   2.7251    97.8974
 53      0.0000     0.0000E+00    0.0000E+00    5.010000E+06  0.05000  3.072E-02    0   0.9147   age055_m72            0.0000     1.8297E-05    22.4293   2.3090    98.2713
 54      0.0000     0.0000E+00    0.0000E+00    6.610000E+06  0.05000  1.455E-02    0   0.8877   age061_m72            0.0000     2.0742E-05    25.7991   1.5905   100.3017
 55      0.0000     0.0000E+00    0.0000E+00    1.000000E+07  0.05000  9.074E-03    0   0.8524   age070_m72            0.0000     1.8312E-05    23.0358   2.4213   100.1331
 56      0.0000     0.0000E+00    0.0000E+00    2.512000E+07  0.05000  4.250E-03    0   0.7902   age090_m72            0.0000     1.8118E-05    22.7145   2.1847    99.6936
 57      0.0000     0.0000E+00    0.0000E+00    4.000000E+07  0.05000  3.087E-03    0   0.7618   age104_m72            0.0000     1.9172E-05    23.1691   2.0710    95.8838
 58      0.0000     0.0000E+00    0.0000E+00    1.015200E+08  0.05000  1.700E-03    0   0.7096   age116_m72            0.0000     2.1376E-05    23.1538   2.0820    87.3939
 59      0.0000     0.0000E+00    0.0000E+00    2.861200E+08  0.05000  7.384E-04    0   0.6633   age125_m72            0.0000     2.2973E-05    23.2624   1.7553    83.4756
 60      0.0000     0.0000E+00    0.0000E+00    5.088000E+08  0.05000  3.819E-04    0   0.6372   age130_m72            0.0000     2.3147E-05    23.0115   1.3040    83.5773
 61      0.0000     0.0000E+00    0.0000E+00    9.047900E+08  0.05000  1.676E-04    0   0.6110   age135_m72            0.0000     2.3060E-05    22.6072   0.5905    83.2699
 62      0.0000     0.0000E+00    0.0000E+00    1.434000E+09  0.05000  8.837E-05    0   0.5874   age139_m72            0.0000     2.3323E-05    22.7443   0.1176    83.1984
 63      0.0000     0.0000E+00    0.0000E+00    2.500000E+09  0.05000  4.233E-05    0   0.5598   age150_m72            0.0000     2.3238E-05    22.3881  -0.2108    83.2813
 64      0.0000     0.0000E+00    0.0000E+00    6.250000E+09  0.05000  1.435E-05    0   0.5249   age166_m72            0.0000     2.3314E-05    22.2457  -0.6687    82.4569
 65      0.0000     0.0000E+00    0.0000E+00    1.300000E+10  0.05000  6.513E-06    0   0.5036   age193_m72            0.0000     2.3474E-05    22.2229  -0.9625    83.8460
 66      0.0000     0.0000E+00    0.0000E+00    1.800000E+10  0.05000  4.527E-06    0   0.4945   age213_m72            0.0000     2.3709E-05    23.9147  -1.0000    82.3833


## Synthesis Results - Average & Chains ##

# j      x_j: min, <> & last-chain-values for 1 ...  7 chains
  1      0.0000     66.3000     61.4592     68.6872     78.4776     77.4885     77.6672     95.7839     96.9931
  2      0.0000      0.2840      0.0000      0.0132      0.1309      0.0000      0.0000      0.0000      0.0000
  3      0.0000      0.4175      0.0725      0.3048      0.0826      0.2804      0.3462      0.0244      0.0115
  4      0.0000      0.3877      0.1419      0.0000      0.4126      0.3086      0.0000      0.0137      0.0356
  5      0.0000      0.4094      0.1566      0.8989      0.0000      0.0931      0.0424      0.0000      0.0036
  6      0.0000      0.3049      0.1144      0.4793      0.0232      0.0000      0.0000      0.0301      0.0048
  7      0.0000      0.4940      0.0984      0.6476      0.2660      0.0158      0.4535      0.0574      0.0360
  8      0.0000      0.4747      0.0000      0.1344      0.0955      0.1016      0.0059      0.0000      0.0660
  9      0.0000      0.3976      0.0090      0.9841      0.1242      0.1965      0.6408      0.0513      0.0490
 10      0.0000      0.3952      0.0756      0.6404      0.0000      0.2065      0.1086      0.0804      0.0595
 11      0.0000      0.4205      0.0949      0.0000      0.0092      0.0000      0.3960      0.0509      0.0083
 12      0.0000      0.3484      0.1744      0.3939      0.0519      0.0367      0.1253      0.0356      0.0692
 13      0.0000      0.3986      0.1131      1.1217      0.0000      0.1767      0.1294      0.0091      0.0000
 14      0.0000      0.4913      0.0000      0.0231      0.1752      0.4125      0.3269      0.0045      0.0151
 15      0.0000      0.4071      0.1610      0.0128      0.0213      0.0943      0.0000      0.0000      0.0000
 16      0.0000      0.2838      0.0921      0.0000      0.0888      0.2569      0.0658      0.0000      0.0251
 17      0.0000      0.3044      0.1059      0.0000      0.1136      0.0267      0.1179      0.0000      0.0386
 18      2.8145     10.1832     27.8162      9.9334     10.2976     10.5712     10.5234      1.9525      1.4913
 19      0.0000      0.4171      0.0000      0.3188      0.0000      0.0286      0.4598      0.0000      0.0159
 20      0.0000      0.3512      0.0234      0.2655      0.1712      0.0978      0.2185      0.0143      0.0000
 21      0.0000      0.4998      0.0000      0.0744      0.1141      0.0000      0.1286      0.0335      0.0503
 22      0.0000      0.3835      0.0540      0.2039      0.0000      0.2600      0.5235      0.0071      0.0000
 23      0.0000      0.3581      0.0000      0.6633      0.0966      0.3093      0.0000      0.0267      0.0000
 24      0.0000      0.4036      0.0420      0.1704      0.0215      0.3641      0.0000      0.0000      0.0000
 25      0.0000      0.4900      0.0264      0.4358      0.1018      0.1697      0.4269      0.0527      0.0361
 26      0.0000      0.3659      0.0000      0.0000      0.0804      0.0532      0.0000      0.0389      0.0000
 27      0.0000      0.2294      0.0447      0.0000      0.0000      0.0000      0.0283      0.0000      0.0524
 28      0.0000      0.4088      0.1009      0.6528      0.0119      0.0425      0.1495      0.1102      0.0578
 29      0.0000      0.3195      0.0456      0.3407      0.0000      0.0249      0.0000      0.0095      0.1343
 30      0.0000      0.4832      0.0778      0.4019      0.0000      0.0000      0.0000      0.0000      0.0540
 31      0.0000      0.4728      0.2750      0.0132      0.0177      0.0732      0.0641      0.0000      0.0450
 32      0.0000      0.4147      0.0322      0.4920      0.6375      0.0697      0.3970      0.0000      0.0202
 33      0.0000      0.4864      0.2059      0.6214      0.0447      0.0166      0.4237      0.0000      0.0000
 34      0.0000      0.2988      0.0000      0.0000      0.2046      0.0560      0.2303      0.0000      0.0186
 35      8.4054      0.4919      0.2453      0.4742      0.5186      0.3763      0.1651      0.2510      0.1422
 36      0.0000      0.3887      0.1166      0.1246      0.0208      0.2117      0.1633      0.0272      0.0000
 37      0.0000      0.3636      0.0031      0.3858      0.0124      0.1706      0.2903      0.0000      0.0088
 38      0.0000      0.3060      0.0000      0.0869      0.0758      0.0059      0.5195      0.0524      0.0000
 39      0.0000      0.3247      0.0418      0.2763      0.1034      0.0000      0.2513      0.0563      0.0000
 40      0.0000      0.2944      0.1480      0.0309      0.0195      0.0716      0.1715      0.0623      0.0000
 41      0.0000      0.3294      0.1184      0.4990      0.0000      0.0000      0.1236      0.0009      0.0077
 42      0.0000      0.4719      0.1681      1.0952      0.0921      0.0479      0.4487      0.0172      0.0210
 43      0.0000      0.4687      0.0000      0.0000      0.2857      0.0018      0.0057      0.0000      0.0138
 44      0.0000      0.3297      0.0000      0.1142      0.5275      0.0945      0.0828      0.0000      0.0000
 45      0.0000      0.4951      0.1788      0.0000      0.0092      0.2152      0.2727      0.0731      0.0000
 46      0.0000      0.3692      0.0152      0.0557      0.0216      0.1081      0.0525      0.0066      0.0000
