###################################################################
## OUTPUT of StarlightChains_v04.for    [Cid@UFSC - 01/Apr/2007] ##
###################################################################

## Some input info
KUG0210-078._30_30.txt                   [arq_obs]
Base.CB07.vall.4m                        [arq_base]
Masks.EmLines.NEW.gm                     [arq_masks]
StCv04.C11.config                        [arq_config]
   66                                    [N_base]
    0                                    [N_YAV_components = # of components with extra extinction!]
    0                                    [i_FitPowerLaw (1/0 = Yes/No)]
-9.99                                    [alpha_PowerLaw]
CCM                                      [red_law_option]
 1.458241                                [q_norm = A(l_norm)/A(V)]

## (Re)Sampling Parameters
 3741.00                                 [l_ini (A)]
 7218.00                                 [l_fin (A)]
    1.00                                 [dl    (A)]     (OBS: dl_cushion =    50.00 A)

## Normalization info
 4020.00                                 [l_norm (A) - for base]
 4010.00                                 [llow_norm (A) - window for f_obs]
 4060.00                                 [lupp_norm (A) - window for f_obs]
6.116808E-17                             [fobs_norm (in input units)]

## S/N
 3691.00                                 [llow_SN (A) - window for S/N]
 7268.00                                 [lupp_SN (A) - window for S/N]
   6.419                                 [S/N in S/N window]
   6.744                                 [S/N in norm. window]
   0.092                                 [S/N_err in S/N window]
   0.097                                 [S/N_err in norm. window]
  1.0000                                 [fscale_chi2]

## etc...
    -2007431                             [idum_orig]
  2432                                   [NOl_eff]
  2024                                   [Nl_eff]
   408    NSIGMA                         [Ntot_cliped & clip_method]
 10574270                                [Nglobal_steps]
   7                                     [N_chains]
  28                                     [NEX0s_base = N_base in EX0s-fits]
 0   0   1      408   2.0   5.510E+04    [Clip-Bug, RC-Crash & Burn-In warning-flags, n_censored_weights, wei_nsig_threshold & wei_limit]
    76     75.862     75.269      0.593  [idt_all, wdt_TotTime, wdt_UsrTime & wdt_SysTime (sec)]

## Synthesis Results - Best model ##

 1.23567E-05                             [chi2/Nl_eff]
     3.05084                             [adev (%)]

   110.84131                             [sum-of-x (%)]
 2.21828E-17                             [Flux_tot (units of input spectrum!)]
 1.99646E-12                             [Mini_tot (???)]
 1.00460E-12                             [Mcor_tot (???)]

  50.28                                  [v0_min  (km/s)]
 204.36                                  [vd_min  (km/s)]
-0.8318                                  [AV_min  (mag)]
 0.0000                                  [YAV_min (mag)]

# j     x_j(%)      Mini_j(%)     Mcor_j(%)     age_j(yr)     Z_j      (L/M)_j    YAV?  Mstars   component_j        a/Fe...       SSP_chi2r SSP_adev(%)   SSP_AV   SSP_x(%)
  1      0.0000     0.0000E+00    0.0000E+00    1.000000E+06  0.00400  1.094E-02    0   1.0000   age020_m42            0.0000     6.7890E-05     5.9155   2.8050    99.7314
  2      0.0000     0.0000E+00    0.0000E+00    3.160000E+06  0.00400  4.007E-02    0   0.9999   age045_m42            0.0000     6.8842E-05     5.2574   2.1907   101.4682
  3      0.0000     0.0000E+00    0.0000E+00    5.010000E+06  0.00400  2.539E-02    0   0.9488   age055_m42            0.0000     6.5508E-05     5.4335   2.4560   101.4379
  4      0.0000     0.0000E+00    0.0000E+00    6.610000E+06  0.00400  2.620E-02    0   0.9220   age061_m42            0.0000     6.5374E-05     5.0549   2.1153   101.8326
  5      0.0000     0.0000E+00    0.0000E+00    1.000000E+07  0.00400  1.322E-02    0   0.8862   age070_m42            0.0000     6.2325E-05     4.6176   1.8257   104.6391
  6      3.5236     4.4807E-03    7.6321E-03    1.445000E+07  0.00400  7.883E-03    0   0.8571   age078_m42            0.0000     6.2581E-05     4.6951   2.1272   103.1074
  7      0.0000     0.0000E+00    0.0000E+00    2.512000E+07  0.00400  5.251E-03    0   0.8174   age090_m42            0.0000     6.4144E-05     4.7129   1.7060   104.8052
  8      0.0000     0.0000E+00    0.0000E+00    4.000000E+07  0.00400  3.649E-03    0   0.7851   age104_m42            0.0000     6.3219E-05     4.6722   1.4959   104.8392
  9      0.0000     0.0000E+00    0.0000E+00    5.500000E+07  0.00400  3.098E-03    0   0.7629   age110_m42            0.0000     6.4885E-05     4.6819   1.6695   103.7683
 10      0.0000     0.0000E+00    0.0000E+00    1.015200E+08  0.00400  2.228E-03    0   0.7207   age116_m42            0.0000     6.4588E-05     4.6807   1.7000   103.4234
 11      0.0000     0.0000E+00    0.0000E+00    2.861200E+08  0.00400  1.093E-03    0   0.6648   age125_m42            0.0000     6.5221E-05     4.7364   1.1492   105.5411
 12      0.0000     0.0000E+00    0.0000E+00    5.088000E+08  0.00400  6.597E-04    0   0.6365   age130_m42            0.0000     6.3500E-05     4.5556   1.1679   104.9818
 13      0.0000     0.0000E+00    0.0000E+00    1.434000E+09  0.00400  2.132E-04    0   0.5798   age139_m42            0.0000     4.7226E-05     3.9322   0.2341   105.4372
 14      0.0000     0.0000E+00    0.0000E+00    4.250000E+09  0.00400  5.895E-05    0   0.5377   age158_m42            0.0000     2.9916E-05     3.5541  -0.2568   103.6582
 15      0.0000     0.0000E+00    0.0000E+00    7.500000E+09  0.00400  3.510E-05    0   0.5212   age171_m42            0.0000     2.6409E-05     3.4512  -0.4455   102.9277
 16      0.0000     0.0000E+00    0.0000E+00    1.300000E+10  0.00400  2.005E-05    0   0.5034   age193_m42            0.0000     2.5490E-05     3.4529  -0.6075   102.1484
 17      0.0000     0.0000E+00    0.0000E+00    1.800000E+10  0.00400  1.525E-05    0   0.4967   age213_m42            0.0000     2.4242E-05     3.4308  -0.6439   102.3268
 18      4.6389     3.7562E-03    7.4648E-03    1.000000E+06  0.00800  1.238E-02    0   1.0000   age020_m52            0.0000     6.7579E-05     5.9174   2.8005    99.9684
 19      0.0000     0.0000E+00    0.0000E+00    3.160000E+06  0.00800  3.074E-02    0   0.9966   age045_m52            0.0000     6.6995E-05     5.8958   2.7324   100.4939
 20      0.0000     0.0000E+00    0.0000E+00    5.010000E+06  0.00800  2.668E-02    0   0.9443   age055_m52            0.0000     6.4300E-05     5.4273   2.5278   101.0409
 21      0.0000     0.0000E+00    0.0000E+00    6.610000E+06  0.00800  2.136E-02    0   0.9177   age061_m52            0.0000     5.0463E-05     4.2302   1.3214   106.0958
 22      0.7972     6.5774E-04    1.1538E-03    1.000000E+07  0.00800  1.215E-02    0   0.8827   age070_m52            0.0000     6.3754E-05     4.6471   1.9942   104.8972
 23      0.0000     0.0000E+00    0.0000E+00    1.445000E+07  0.00800  8.717E-03    0   0.8552   age078_m52            0.0000     6.2579E-05     4.5982   2.1071   103.8665
 24      0.0000     0.0000E+00    0.0000E+00    2.512000E+07  0.00800  5.592E-03    0   0.8162   age090_m52            0.0000     6.4735E-05     4.7021   1.7805   105.4920
 25      0.0000     0.0000E+00    0.0000E+00    4.000000E+07  0.00800  3.896E-03    0   0.7841   age104_m52            0.0000     6.4324E-05     4.6894   1.7119   105.3274
 26      0.0000     0.0000E+00    0.0000E+00    1.015200E+08  0.00800  2.148E-03    0   0.7226   age116_m52            0.0000     6.2864E-05     4.6167   1.6676   104.2559
 27      0.0000     0.0000E+00    0.0000E+00    2.861200E+08  0.00800  9.925E-04    0   0.6683   age125_m52            0.0000     6.0165E-05     4.4750   1.2300   106.1121
 28      5.2129     1.6637E-01    2.0293E-01    9.047900E+08  0.00800  3.141E-04    0   0.6138   age135_m52            0.0000     4.8892E-05     4.0514   0.4974   107.1933
 29      0.0000     0.0000E+00    0.0000E+00    1.434000E+09  0.00800  1.719E-04    0   0.5853   age139_m52            0.0000     3.2263E-05     3.4568  -0.1302   107.2916
 30      0.0000     0.0000E+00    0.0000E+00    2.500000E+09  0.00800  7.872E-05    0   0.5600   age150_m52            0.0000     2.2733E-05     3.2555  -0.4128   105.1506
 31      0.0000     0.0000E+00    0.0000E+00    4.250000E+09  0.00800  4.336E-05    0   0.5426   age158_m52            0.0000     2.2373E-05     3.2833  -0.4319   104.3443
 32      2.3085     7.3255E-01    7.7434E-01    6.250000E+09  0.00800  3.159E-05    0   0.5319   age166_m52            0.0000     2.0286E-05     3.3426  -0.6293   104.0525
 33      0.0000     0.0000E+00    0.0000E+00    1.300000E+10  0.00800  1.361E-05    0   0.5073   age193_m52            0.0000     2.2799E-05     4.1071  -1.0000   100.9885
 34      0.0000     0.0000E+00    0.0000E+00    1.800000E+10  0.00800  9.886E-06    0   0.4990   age213_m52            0.0000     4.0275E-05     5.5728  -1.0000    97.5873
 35      0.0000     0.0000E+00    0.0000E+00    1.000000E+06  0.02000  1.544E-02    0   1.0000   age020_m62            0.0000     6.7688E-05     5.9355   2.7937   100.3262
 36      0.0000     0.0000E+00    0.0000E+00    3.160000E+06  0.02000  3.762E-02    0   0.9858   age045_m62            0.0000     6.7805E-05     5.9259   2.7420   100.7900
 37      0.0000     0.0000E+00    0.0000E+00    5.010000E+06  0.02000  3.296E-02    0   0.9342   age055_m62            0.0000     6.5743E-05     5.3682   2.4391   101.6257
 38      0.0000     0.0000E+00    0.0000E+00    8.710000E+06  0.02000  1.154E-02    0   0.8861   age067_m62            0.0000     7.9258E-05     6.0008   1.4081   110.1284
 39      0.0000     0.0000E+00    0.0000E+00    1.445000E+07  0.02000  7.663E-03    0   0.8472   age078_m62            0.0000     6.7420E-05     4.9346   1.6475   106.9954
 40      0.0000     0.0000E+00    0.0000E+00    2.512000E+07  0.02000  4.532E-03    0   0.8099   age090_m62            0.0000     6.9011E-05     5.0759   1.6393   106.7068
 41      0.0000     0.0000E+00    0.0000E+00    5.500000E+07  0.02000  2.733E-03    0   0.7595   age110_m62            0.0000     5.9844E-05     4.4984   1.6808   105.2410
 42      0.0000     0.0000E+00    0.0000E+00    1.609000E+08  0.02000  1.369E-03    0   0.6985   age120_m62            0.0000     6.0180E-05     4.4708   1.5617   105.9804
 43      1.6130     1.7940E-02    2.3937E-02    2.861200E+08  0.02000  9.013E-04    0   0.6714   age125_m62            0.0000     6.0697E-05     4.4311   1.3516   107.0373
 44      0.0000     0.0000E+00    0.0000E+00    5.088000E+08  0.02000  5.028E-04    0   0.6449   age130_m62            0.0000     5.8747E-05     4.3026   1.0301   107.0070
 45      1.8989     7.8397E-02    9.6269E-02    9.047900E+08  0.02000  2.428E-04    0   0.6179   age135_m62            0.0000     3.7365E-05     3.7027   0.4293   107.0630
 46      4.1042     3.2575E-01    3.8246E-01    1.434000E+09  0.02000  1.263E-04    0   0.5908   age139_m62            0.0000     2.5886E-05     3.3564  -0.0342   106.4360
 47      0.0000     0.0000E+00    0.0000E+00    2.500000E+09  0.02000  5.985E-05    0   0.5673   age150_m62            0.0000     1.8280E-05     3.4197  -0.4353   106.6041
 48      0.0000     0.0000E+00    0.0000E+00    4.250000E+09  0.02000  3.271E-05    0   0.5468   age158_m62            0.0000     1.7465E-05     3.7781  -0.7422   105.7179
 49      0.0000     0.0000E+00    0.0000E+00    1.000000E+10  0.02000  1.360E-05    0   0.5167   age181_m62            0.0000     2.4086E-05     4.3976  -1.0000   103.0247
 50      7.9998     1.1257E+01    1.1214E+01    1.800000E+10  0.02000  7.124E-06    0   0.5013   age213_m62            0.0000     7.5523E-05     7.0532  -1.0000    96.7395
 51      9.7082     3.7546E-03    7.4600E-03    1.000000E+06  0.05000  2.592E-02    0   0.9998   age020_m72            0.0000     6.7362E-05     5.9664   2.7731   100.9183
 52      0.0000     0.0000E+00    0.0000E+00    3.160000E+06  0.05000  4.845E-02    0   0.9577   age045_m72            0.0000     6.7537E-05     5.8032   2.6548   100.7752
 53      0.0000     0.0000E+00    0.0000E+00    5.010000E+06  0.05000  3.072E-02    0   0.9147   age055_m72            0.0000     6.5076E-05     4.9116   2.1989   104.1434
 54      0.0000     0.0000E+00    0.0000E+00    6.610000E+06  0.05000  1.455E-02    0   0.8877   age061_m72            0.0000     1.2590E-04     8.6549   1.4273   111.6309
 55      0.0000     0.0000E+00    0.0000E+00    1.000000E+07  0.05000  9.074E-03    0   0.8524   age070_m72            0.0000     7.9802E-05     6.1429   2.3725   103.6760
 56      0.0000     0.0000E+00    0.0000E+00    2.512000E+07  0.05000  4.250E-03    0   0.7902   age090_m72            0.0000     7.3363E-05     5.3849   2.1162   104.0202
 57      1.1261     3.6566E-03    5.5359E-03    4.000000E+07  0.05000  3.087E-03    0   0.7618   age104_m72            0.0000     7.5316E-05     5.4546   1.9033   105.1046
 58      3.7728     2.2247E-02    3.1373E-02    1.015200E+08  0.05000  1.700E-03    0   0.7096   age116_m72            0.0000     6.5815E-05     4.6944   1.6969   105.8371
 59      4.8399     6.5705E-02    8.6612E-02    2.861200E+08  0.05000  7.384E-04    0   0.6633   age125_m72            0.0000     5.4740E-05     4.2088   1.2410   107.4249
 60      0.0000     0.0000E+00    0.0000E+00    5.088000E+08  0.05000  3.819E-04    0   0.6372   age130_m72            0.0000     4.3473E-05     3.9099   0.7851   107.3648
 61      0.0000     0.0000E+00    0.0000E+00    9.047900E+08  0.05000  1.676E-04    0   0.6110   age135_m72            0.0000     2.3546E-05     3.7810   0.0512   107.2986
 62      0.0000     0.0000E+00    0.0000E+00    1.434000E+09  0.05000  8.837E-05    0   0.5874   age139_m72            0.0000     1.7897E-05     3.3592  -0.4128   107.0162
 63      0.0000     0.0000E+00    0.0000E+00    2.500000E+09  0.05000  4.233E-05    0   0.5598   age150_m72            0.0000     1.7096E-05     3.9236  -0.7477   106.8152
 64     22.9093     1.6003E+01    1.6694E+01    6.250000E+09  0.05000  1.435E-05    0   0.5249   age166_m72            0.0000     4.0093E-05     5.3117  -1.0000   100.0338
 65     13.7156     2.1110E+01    2.1127E+01    1.300000E+10  0.05000  6.513E-06    0   0.5036   age193_m72            0.0000     1.5637E-04    10.1556  -1.0000    93.5077
 66     22.6724     5.0204E+01    4.9337E+01    1.800000E+10  0.05000  4.527E-06    0   0.4945   age213_m72            0.0000     2.6654E-04    12.9996  -1.0000    88.7623


## Synthesis Results - Average & Chains ##

# j      x_j: min, <> & last-chain-values for 1 ...  7 chains
  1      0.0000      0.1741      0.0263      0.1793      0.0245      0.0973      0.3716      0.1309      0.1300
  2      0.0000      0.1642      0.0000      0.0639      0.0067      0.0895      0.1698      0.0207      0.0430
  3      0.0000      0.1624      0.0000      0.0373      0.0254      0.0000      0.5712      0.0899      0.0970
  4      0.0000      0.1879      0.0000      0.0499      0.0875      0.0724      0.5228      0.1304      0.0621
  5      0.0000      0.1695      0.0551      0.0281      0.0249      0.0778      0.0000      0.0000      0.0251
  6      3.5236      0.1762      0.1422      0.3692      0.0167      0.0791      0.0000      0.0761      0.1277
  7      0.0000      0.1673      0.1166      0.0000      0.0717      0.0696      0.2747      0.0400      0.0109
  8      0.0000      0.1817      0.0000      0.0000      0.0555      0.0619      0.8949      0.0000      0.0000
  9      0.0000      0.1683      0.2962      0.0000      0.0000      0.0083      0.0000      0.0000      0.0904
 10      0.0000      0.1519      0.2324      0.3158      0.0842      0.0000      0.5598      0.0904      0.0271
 11      0.0000      0.1559      0.1122      0.1967      0.0696      0.0458      0.3401      0.0413      0.0318
 12      0.0000      0.1399      0.0330      0.0799      0.0497      0.0808      0.0000      0.0428      0.0756
 13      0.0000      0.1717      0.0868      0.0397      0.0944      0.0112      0.6364      0.1663      0.0000
 14      0.0000      0.2028      0.0993      0.2794      0.1186      0.0000      0.6960      0.0000      0.1175
 15      0.0000      0.1962      0.0856      0.0879      0.0381      0.0000      0.0000      0.0245      0.0732
 16      0.0000      0.1994      0.0000      0.1059      0.1019      0.0687      0.7983      0.0225      0.1387
 17      0.0000      0.1460      0.1163      0.1500      0.0280      0.2205      0.2134      0.0475      0.0396
 18      4.6389      0.1555      0.2398      0.0956      0.0432      0.0008      0.1736      0.0386      0.1196
 19      0.0000      0.1748      0.0607      0.1608      0.0537      0.0000      0.2421      0.1164      0.0812
 20      0.0000      0.1512      0.0000      0.1182      0.0712      0.0825      0.1671      0.0549      0.1089
 21      0.0000      0.2580      0.0945      0.1380      0.0680      0.0465      0.4480      0.0000      0.0457
 22      0.7972      0.2177      0.1261      0.1584      0.0000      0.0198      0.7450      0.0570      0.0736
 23      0.0000      0.1937      0.0547      0.0000      0.0361      0.0010      0.0000      0.0946      0.0142
 24      0.0000      0.1647      0.0885      0.0134      0.0000      0.0736      0.7313      0.0000      0.0783
 25      0.0000      0.1669      0.0000      0.0935      0.0787      0.0672      0.7694      0.1387      0.0904
 26      0.0000      0.1446      0.0524      0.3103      0.1024      0.2539      0.2469      0.1234      0.1707
 27      0.0000      0.1448      0.0518      0.2215      0.0250      0.0000      0.0000      0.0699      0.2488
 28      5.2129      0.7992      0.7217      1.0510      0.8424      0.9204      0.7038      0.8323      0.4478
 29      0.0000      0.1346      0.2061      0.1006      0.0000      0.0882      1.4826      0.0122      0.0000
 30      0.0000      0.1192      0.0000      0.1122      0.0000      0.1216      0.0000      0.0000      0.1224
 31      0.0000      0.1683      0.1077      0.2228      0.0952      0.0456      0.3795      0.0000      0.1065
 32      2.3085      3.3948      3.5112      3.6916      3.6097      3.5297      3.5101      3.6295      3.7306
 33      0.0000      0.1902      0.0830      0.0814      0.0000      0.0095      0.3897      0.0680      0.0549
 34      0.0000      0.1927      0.3142      0.1252      0.0997      0.0299      0.1999      0.0340      0.0000
 35      0.0000      0.6882      0.6354      0.5320      0.7752      0.8271      0.0000      0.5626      0.6849
 36      0.0000      0.1957      0.0758      0.5266      0.1702      0.0000      1.3948      0.0536      0.0000
 37      0.0000      0.2035      0.0685      0.0000      0.0962      0.0992      0.1467      0.0000      0.1547
 38      0.0000      0.1932      0.0805      0.1492      0.0169      0.0716      0.1910      0.0955      0.1141
 39      0.0000      0.2224      0.0519      0.1789      0.0909      0.0557      0.1529      0.0113      0.0000
 40      0.0000      0.1758      0.0337      0.0000      0.0618      0.1407      0.2963      0.0244      0.0187
 41      0.0000      0.2418      0.0056      0.0020      0.0603      0.0521      0.2900      0.0339      0.0639
 42      0.0000      0.1595      0.0000      0.0019      0.0448      0.0000      0.0000      0.0489      0.1255
 43      1.6130      0.1645      0.1377      0.0000      0.0055      0.0000      0.7559      0.0409      0.1664
 44      0.0000      2.6757      2.8785      2.2841      2.9057      2.8879      3.1106      2.9576      2.8395
 45      1.8989      1.1257      1.1582      0.8842      1.1217      1.1016      1.7461      1.0836      1.0454
 46      4.1042      0.1428      0.1676      0.1228      0.0365      0.0786      0.0047      0.0000      0.1168
