###################################################################
## OUTPUT of StarlightChains_v04.for    [Cid@UFSC - 01/Apr/2007] ##
###################################################################

## Some input info
KUG0210-078._27_35.txt                   [arq_obs]
Base.CB07.vall.4m                        [arq_base]
Masks.EmLines.NEW.gm                     [arq_masks]
StCv04.C11.config                        [arq_config]
   66                                    [N_base]
    0                                    [N_YAV_components = # of components with extra extinction!]
    0                                    [i_FitPowerLaw (1/0 = Yes/No)]
-9.99                                    [alpha_PowerLaw]
CCM                                      [red_law_option]
 1.458241                                [q_norm = A(l_norm)/A(V)]

## (Re)Sampling Parameters
 3741.00                                 [l_ini (A)]
 7218.00                                 [l_fin (A)]
    1.00                                 [dl    (A)]     (OBS: dl_cushion =    50.00 A)

## Normalization info
 4020.00                                 [l_norm (A) - for base]
 4010.00                                 [llow_norm (A) - window for f_obs]
 4060.00                                 [lupp_norm (A) - window for f_obs]
6.291847E-17                             [fobs_norm (in input units)]

## S/N
 3691.00                                 [llow_SN (A) - window for S/N]
 7268.00                                 [lupp_SN (A) - window for S/N]
   5.718                                 [S/N in S/N window]
   3.798                                 [S/N in norm. window]
   0.171                                 [S/N_err in S/N window]
   0.114                                 [S/N_err in norm. window]
  1.0000                                 [fscale_chi2]

## etc...
    -2007355                             [idum_orig]
  2432                                   [NOl_eff]
  2088                                   [Nl_eff]
   344    NSIGMA                         [Ntot_cliped & clip_method]
 15711150                                [Nglobal_steps]
   7                                     [N_chains]
  32                                     [NEX0s_base = N_base in EX0s-fits]
 0   0   1      344   2.0   5.193E+04    [Clip-Bug, RC-Crash & Burn-In warning-flags, n_censored_weights, wei_nsig_threshold & wei_limit]
    81     80.657     80.185      0.473  [idt_all, wdt_TotTime, wdt_UsrTime & wdt_SysTime (sec)]

## Synthesis Results - Best model ##

 3.25642E-04                             [chi2/Nl_eff]
     5.47679                             [adev (%)]

   129.99998                             [sum-of-x (%)]
 5.63899E-15                             [Flux_tot (units of input spectrum!)]
 9.87527E-13                             [Mini_tot (???)]
 7.45567E-13                             [Mcor_tot (???)]

-253.35                                  [v0_min  (km/s)]
 273.47                                  [vd_min  (km/s)]
 3.1519                                  [AV_min  (mag)]
 0.0000                                  [YAV_min (mag)]

# j     x_j(%)      Mini_j(%)     Mcor_j(%)     age_j(yr)     Z_j      (L/M)_j    YAV?  Mstars   component_j        a/Fe...       SSP_chi2r SSP_adev(%)   SSP_AV   SSP_x(%)
  1     76.2450     3.0613E+01    4.0548E+01    1.000000E+06  0.00400  1.094E-02    0   1.0000   age020_m42            0.0000     2.9990E-04     6.2052   3.1628   139.0705
  2      0.0000     0.0000E+00    0.0000E+00    3.160000E+06  0.00400  4.007E-02    0   0.9999   age045_m42            0.0000     2.8947E-04     5.3514   2.5145   143.4306
  3      0.0000     0.0000E+00    0.0000E+00    5.010000E+06  0.00400  2.539E-02    0   0.9488   age055_m42            0.0000     2.8478E-04     5.6281   2.7959   142.4415
  4      0.0000     0.0000E+00    0.0000E+00    6.610000E+06  0.00400  2.620E-02    0   0.9220   age061_m42            0.0000     2.8213E-04     5.1209   2.4391   143.8836
  5      0.0000     0.0000E+00    0.0000E+00    1.000000E+07  0.00400  1.322E-02    0   0.8862   age070_m42            0.0000     2.6743E-04     4.0350   2.1294   148.9980
  6     13.5600     7.5557E+00    8.5777E+00    1.445000E+07  0.00400  7.883E-03    0   0.8571   age078_m42            0.0000     2.6336E-04     4.3324   2.4397   146.3178
  7      0.0000     0.0000E+00    0.0000E+00    2.512000E+07  0.00400  5.251E-03    0   0.8174   age090_m42            0.0000     2.6800E-04     3.8555   2.0015   149.7251
  8      0.0000     0.0000E+00    0.0000E+00    4.000000E+07  0.00400  3.649E-03    0   0.7851   age104_m42            0.0000     2.7231E-04     3.8519   1.7909   149.7929
  9      0.0000     0.0000E+00    0.0000E+00    5.500000E+07  0.00400  3.098E-03    0   0.7629   age110_m42            0.0000     2.7835E-04     4.1297   1.9691   148.0251
 10      0.0000     0.0000E+00    0.0000E+00    1.015200E+08  0.00400  2.228E-03    0   0.7207   age116_m42            0.0000     2.8016E-04     4.3052   2.0029   147.3249
 11      0.0000     0.0000E+00    0.0000E+00    2.861200E+08  0.00400  1.093E-03    0   0.6648   age125_m42            0.0000     2.9178E-04     4.1033   1.4361   151.2475
 12      0.0000     0.0000E+00    0.0000E+00    5.088000E+08  0.00400  6.597E-04    0   0.6365   age130_m42            0.0000     2.9963E-04     4.2472   1.4561   150.3960
 13      0.0000     0.0000E+00    0.0000E+00    1.434000E+09  0.00400  2.132E-04    0   0.5798   age139_m42            0.0000     3.0478E-04     4.2207   0.5234   150.7817
 14      0.0000     0.0000E+00    0.0000E+00    4.250000E+09  0.00400  5.895E-05    0   0.5377   age158_m42            0.0000     2.9719E-04     4.9236   0.0699   145.8034
 15      0.0000     0.0000E+00    0.0000E+00    7.500000E+09  0.00400  3.510E-05    0   0.5212   age171_m42            0.0000     3.1495E-04     5.2358  -0.1069   144.0194
 16      0.0000     0.0000E+00    0.0000E+00    1.300000E+10  0.00400  2.005E-05    0   0.5034   age193_m42            0.0000     3.3877E-04     5.5551  -0.2634   142.5740
 17      0.1229     3.5413E+01    2.3298E+01    1.800000E+10  0.00400  1.525E-05    0   0.4967   age213_m42            0.0000     3.3115E-04     5.5159  -0.2930   142.3750
 18     11.7412     4.1658E+00    5.5178E+00    1.000000E+06  0.00800  1.238E-02    0   1.0000   age020_m52            0.0000     2.9990E-04     6.2080   3.1592   139.3343
 19      0.0000     0.0000E+00    0.0000E+00    3.160000E+06  0.00800  3.074E-02    0   0.9966   age045_m52            0.0000     2.9580E-04     6.1649   3.0883   140.2295
 20      0.0000     0.0000E+00    0.0000E+00    5.010000E+06  0.00800  2.668E-02    0   0.9443   age055_m52            0.0000     2.8276E-04     5.6631   2.8685   141.8333
 21      0.0000     0.0000E+00    0.0000E+00    6.610000E+06  0.00800  2.136E-02    0   0.9177   age061_m52            0.0000     2.7097E-04     4.1382   1.6303   150.6736
 22      0.0000     0.0000E+00    0.0000E+00    1.000000E+07  0.00800  1.215E-02    0   0.8827   age070_m52            0.0000     2.6581E-04     3.9691   2.2898   149.8962
 23      4.3965     2.2154E+00    2.5095E+00    1.445000E+07  0.00800  8.717E-03    0   0.8552   age078_m52            0.0000     2.6329E-04     4.2066   2.4109   147.9604
 24      0.0000     0.0000E+00    0.0000E+00    2.512000E+07  0.00800  5.592E-03    0   0.8162   age090_m52            0.0000     2.6983E-04     3.8607   2.0687   151.1912
 25      0.0000     0.0000E+00    0.0000E+00    4.000000E+07  0.00800  3.896E-03    0   0.7841   age104_m52            0.0000     2.7279E-04     3.9130   2.0015   150.8493
 26      0.0000     0.0000E+00    0.0000E+00    1.015200E+08  0.00800  2.148E-03    0   0.7226   age116_m52            0.0000     2.7432E-04     4.0806   1.9623   149.0194
 27      0.0000     0.0000E+00    0.0000E+00    2.861200E+08  0.00800  9.925E-04    0   0.6683   age125_m52            0.0000     2.9656E-04     4.2458   1.5202   151.8930
 28      0.0000     0.0000E+00    0.0000E+00    9.047900E+08  0.00800  3.141E-04    0   0.6138   age135_m52            0.0000     3.0403E-04     4.4036   0.7823   153.6768
 29      0.0000     0.0000E+00    0.0000E+00    1.434000E+09  0.00800  1.719E-04    0   0.5853   age139_m52            0.0000     2.9816E-04     4.6815   0.1781   152.0763
 30      0.0000     0.0000E+00    0.0000E+00    2.500000E+09  0.00800  7.872E-05    0   0.5600   age150_m52            0.0000     3.0466E-04     5.3028  -0.0804   147.5427
 31      0.0000     0.0000E+00    0.0000E+00    4.250000E+09  0.00800  4.336E-05    0   0.5426   age158_m52            0.0000     3.0668E-04     5.3220  -0.0952   146.1396
 32      0.0000     0.0000E+00    0.0000E+00    6.250000E+09  0.00800  3.159E-05    0   0.5319   age166_m52            0.0000     3.3053E-04     5.7474  -0.2837   145.1766
 33      0.0000     0.0000E+00    0.0000E+00    1.300000E+10  0.00800  1.361E-05    0   0.5073   age193_m52            0.0000     3.6475E-04     6.4053  -0.7381   143.2982
 34      0.0000     0.0000E+00    0.0000E+00    1.800000E+10  0.00800  9.886E-06    0   0.4990   age213_m52            0.0000     3.8902E-04     6.8599  -0.8347   141.8334
 35     20.1730     5.7389E+00    7.6014E+00    1.000000E+06  0.02000  1.544E-02    0   1.0000   age020_m62            0.0000     3.0021E-04     6.2292   3.1533   139.7839
 36      0.0000     0.0000E+00    0.0000E+00    3.160000E+06  0.02000  3.762E-02    0   0.9858   age045_m62            0.0000     2.9651E-04     6.2323   3.0930   140.9562
 37      0.0000     0.0000E+00    0.0000E+00    5.010000E+06  0.02000  3.296E-02    0   0.9342   age055_m62            0.0000     2.8651E-04     5.6210   2.7694   143.2957
 38      2.2476     8.5550E-01    1.0041E+00    8.710000E+06  0.02000  1.154E-02    0   0.8861   age067_m62            0.0000     3.0859E-04     4.4433   1.6639   159.8615
 39      0.0000     0.0000E+00    0.0000E+00    1.445000E+07  0.02000  7.663E-03    0   0.8472   age078_m62            0.0000     2.7743E-04     3.9500   1.9194   154.3687
 40      0.0000     0.0000E+00    0.0000E+00    2.512000E+07  0.02000  4.532E-03    0   0.8099   age090_m62            0.0000     2.8141E-04     4.0422   1.9098   154.0217
 41      1.1819     1.8995E+00    1.9109E+00    5.500000E+07  0.02000  2.733E-03    0   0.7595   age110_m62            0.0000     2.6601E-04     3.9049   1.9719   150.6319
 42      0.0000     0.0000E+00    0.0000E+00    1.609000E+08  0.02000  1.369E-03    0   0.6985   age120_m62            0.0000     2.7653E-04     4.0802   1.8536   151.6340
 43      0.0000     0.0000E+00    0.0000E+00    2.861200E+08  0.02000  9.013E-04    0   0.6714   age125_m62            0.0000     2.8922E-04     4.1276   1.6379   153.5108
 44      0.0000     0.0000E+00    0.0000E+00    5.088000E+08  0.02000  5.028E-04    0   0.6449   age130_m62            0.0000     2.9899E-04     4.4456   1.3118   153.7831
 45      0.0000     0.0000E+00    0.0000E+00    9.047900E+08  0.02000  2.428E-04    0   0.6179   age135_m62            0.0000     2.8580E-04     4.6735   0.7317   152.3384
 46      0.3319     1.1544E+01    9.0332E+00    1.434000E+09  0.02000  1.263E-04    0   0.5908   age139_m62            0.0000     2.8563E-04     5.0262   0.2770   150.8194
 47      0.0000     0.0000E+00    0.0000E+00    2.500000E+09  0.02000  5.985E-05    0   0.5673   age150_m62            0.0000     3.0755E-04     5.7593  -0.0883   148.6904
 48      0.0000     0.0000E+00    0.0000E+00    4.250000E+09  0.02000  3.271E-05    0   0.5468   age158_m62            0.0000     3.5279E-04     6.4962  -0.3753   146.1823
 49      0.0000     0.0000E+00    0.0000E+00    1.000000E+10  0.02000  1.360E-05    0   0.5167   age181_m62            0.0000     3.9322E-04     7.2270  -0.7101   144.6261
 50      0.0000     0.0000E+00    0.0000E+00    1.800000E+10  0.02000  7.124E-06    0   0.5013   age213_m62            0.0000     4.2892E-04     7.8690  -0.9168   143.1830
 51      0.0000     0.0000E+00    0.0000E+00    1.000000E+06  0.05000  2.592E-02    0   0.9998   age020_m72            0.0000     2.9798E-04     6.2511   3.1361   140.3827
 52      0.0000     0.0000E+00    0.0000E+00    3.160000E+06  0.05000  4.845E-02    0   0.9577   age045_m72            0.0000     2.9142E-04     6.1024   2.9955   141.5426
 53      0.0000     0.0000E+00    0.0000E+00    5.010000E+06  0.05000  3.072E-02    0   0.9147   age055_m72            0.0000     2.7187E-04     4.7509   2.4922   149.0486
 54      0.0000     0.0000E+00    0.0000E+00    6.610000E+06  0.05000  1.455E-02    0   0.8877   age061_m72            0.0000     4.5235E-04     7.1872   1.6520   164.2439
 55      0.0000     0.0000E+00    0.0000E+00    1.000000E+07  0.05000  9.074E-03    0   0.8524   age070_m72            0.0000     3.2045E-04     6.0241   2.6534   149.1754
 56      0.0000     0.0000E+00    0.0000E+00    2.512000E+07  0.05000  4.250E-03    0   0.7902   age090_m72            0.0000     2.9089E-04     4.9441   2.3962   149.6599
 57      0.0000     0.0000E+00    0.0000E+00    4.000000E+07  0.05000  3.087E-03    0   0.7618   age104_m72            0.0000     3.0000E-04     4.8319   2.1788   151.4539
 58      0.0000     0.0000E+00    0.0000E+00    1.015200E+08  0.05000  1.700E-03    0   0.7096   age116_m72            0.0000     2.8076E-04     4.1072   1.9801   152.0038
 59      0.0000     0.0000E+00    0.0000E+00    2.861200E+08  0.05000  7.384E-04    0   0.6633   age125_m72            0.0000     2.8815E-04     4.2430   1.5329   153.6359
 60      0.0000     0.0000E+00    0.0000E+00    5.088000E+08  0.05000  3.819E-04    0   0.6372   age130_m72            0.0000     2.8082E-04     4.6737   1.0724   153.9043
 61      0.0000     0.0000E+00    0.0000E+00    9.047900E+08  0.05000  1.676E-04    0   0.6110   age135_m72            0.0000     2.9308E-04     5.6810   0.3807   150.9213
 62      0.0000     0.0000E+00    0.0000E+00    1.434000E+09  0.05000  8.837E-05    0   0.5874   age139_m72            0.0000     3.1470E-04     5.8740  -0.0767   149.9682
 63      0.0000     0.0000E+00    0.0000E+00    2.500000E+09  0.05000  4.233E-05    0   0.5598   age150_m72            0.0000     3.5182E-04     6.7714  -0.3796   147.6657
 64      0.0000     0.0000E+00    0.0000E+00    6.250000E+09  0.05000  1.435E-05    0   0.5249   age166_m72            0.0000     4.0750E-04     7.5836  -0.8089   144.1026
 65      0.0000     0.0000E+00    0.0000E+00    1.300000E+10  0.05000  6.513E-06    0   0.5036   age193_m72            0.0000     4.7060E-04     8.2017  -1.0000   140.9881
 66      0.0000     0.0000E+00    0.0000E+00    1.800000E+10  0.05000  4.527E-06    0   0.4945   age213_m72            0.0000     5.6302E-04     8.5506  -1.0000   132.7345


## Synthesis Results - Average & Chains ##

# j      x_j: min, <> & last-chain-values for 1 ...  7 chains
  1     76.2450     10.2377      1.8879      4.4725      5.6634      2.7055      2.2508      7.5383     12.2071
  2      0.0000      1.7286      0.0000      3.5037      0.0000      0.6375      2.3118      0.1970      1.8878
  3      0.0000      0.3875      0.4308      6.8640      0.0000      0.3492      0.9398      0.0000      0.0963
  4      0.0000      0.4159      3.3372      0.3989      0.0000      7.5420      0.0000      0.0000      0.1371
  5      0.0000      0.4395      7.0823      0.0000      2.4530      0.0000      0.0000      0.8833      0.1176
  6     13.5600      0.3228      0.4388      3.3857      0.5639      0.9788      0.0000      1.5836      0.0000
  7      0.0000      0.3753      0.4856      0.0731      3.1290      0.0000      0.0000      0.0000      0.0384
  8      0.0000      0.4140      1.9023      1.6691      0.6866      0.0000      0.0000      0.0000      0.0000
  9      0.0000      0.4670      0.0000      0.1778      0.0875      0.0000      0.0000      1.3958      0.0112
 10      0.0000      0.4491      0.2339      0.0000      1.5038      0.3077      0.0455      0.0000      0.2281
 11      0.0000      0.4484      0.4178      0.0000      0.0000      3.0243      0.0000      0.0000      0.1584
 12      0.0000      0.4044      1.7067      0.0000      2.1798      1.1451      0.0608      2.6723      0.0000
 13      0.0000     22.1872      0.6226      2.9371      8.6596      3.6696      7.2486     18.9260     29.9526
 14      0.0000      0.4152      0.5905      0.0000      0.3577      0.0612      0.4859      0.9047      0.1958
 15      0.0000      0.4297      3.4193      2.0020      0.6510      0.9619      0.0000      0.2084      0.1924
 16      0.0000      0.4465      0.0000      3.5420      2.0993      0.0000      0.0000      1.4531      0.0137
 17      0.1229      0.4781      0.0000      3.2125      0.0000      0.0000      0.0000      0.0000      0.1942
 18     11.7412     16.9075     12.5580     15.4634     12.6678     17.3201     10.4030     16.0348     15.3292
 19      0.0000      0.4382      3.4525      0.0000      0.0756      2.2013      0.0000      0.0000      0.0000
 20      0.0000      0.3968      2.8577      0.0000      4.2721      0.0000      2.7457      0.1398      0.0023
 21      0.0000      0.4256      2.3810      1.3131      0.0000      0.2803      0.0000      0.0000      0.1312
 22      0.0000      0.3991      0.0000      0.0000      0.0000      2.2716      1.7244      0.2304      0.0000
 23      4.3965      0.4568      2.8342      6.7368      1.0212      3.5731      2.6152      2.0504      0.0414
 24      0.0000      0.4234      1.2721      0.0000      3.3592      3.4338      0.0000      0.5061      0.0993
 25      0.0000      0.3690      0.0000      0.1992      0.3472      2.3326      1.2983      0.6840      0.1636
 26      0.0000      0.3432      0.1900      1.0235      0.0782      0.0000      0.0000      0.2142      0.0501
 27      0.0000      0.4791      3.0118      0.8287      0.6815      9.0883      1.8688      0.0000      0.1702
 28      0.0000      0.4086      0.0000      0.0000      2.9584      0.0000      0.4193      0.0000      0.0830
 29      0.0000      0.3319      0.0000      0.0000      0.0000      0.0000      0.0000      0.4589      0.0000
 30      0.0000      0.3517      1.0492      4.9735      0.0000      0.0000      2.7692      1.9912      0.0000
 31      0.0000      0.4439      4.4448      0.0273      0.0000      0.0000      0.0000      0.0000      0.4712
 32      0.0000      0.4221      0.0000      0.8393      4.3389      0.0000      0.9057      0.8860      0.1883
 33      0.0000      1.5578      1.3653      0.0000      0.8368      2.3368      3.2491      0.6157      1.0804
 34      0.0000      8.6864      6.6195      5.0503     10.5531      1.7488      8.6943      6.6131     15.4259
 35     20.1730      3.5117      4.2418      3.6655      0.8207      2.0892      0.3250      1.4184      4.2722
 36      0.0000      0.4180      0.0000      0.3318      0.0000      2.9931      1.9601      3.7123      0.1949
 37      0.0000      0.4953      0.0000      4.1097      0.0000      1.6377      2.8963      0.0000      0.0874
 38      2.2476      0.4656      0.0000      1.8336      2.7307      1.9658      2.2195      0.0000      0.1381
 39      0.0000      0.4468      0.0403      0.0000      0.7245      0.0000      0.0000      0.0000      0.0156
 40      0.0000      0.4409      3.1990      3.0750      0.0000      0.4506      0.5464      0.7303      0.0883
 41      1.1819      0.4145      0.0000      3.8695      0.0000      0.9271      0.0000      0.2421      0.4604
 42      0.0000      0.5758      0.0000      0.0000      0.0000      0.3100      7.0545      4.4681      0.2046
 43      0.0000      0.3985      0.5209      0.3777      0.0000      5.9705      0.0805      0.3551      0.0985
 44      0.0000      0.3844      0.0000      0.0000      1.1795      3.0997      0.3012      1.7675      0.1354
 45      0.0000      0.3562      1.5460      3.6414      0.5907      2.9977      0.0000      0.8317      0.1440
 46      0.3319      0.4266      2.4775      2.8218      0.0000      1.6646      0.0000      0.0000      0.0000
