###################################################################
## OUTPUT of StarlightChains_v04.for    [Cid@UFSC - 01/Apr/2007] ##
###################################################################

## Some input info
KUG0210-078._34_27.txt                   [arq_obs]
Base.CB07.vall.4m                        [arq_base]
Masks.EmLines.NEW.gm                     [arq_masks]
StCv04.C11.config                        [arq_config]
   66                                    [N_base]
    0                                    [N_YAV_components = # of components with extra extinction!]
    0                                    [i_FitPowerLaw (1/0 = Yes/No)]
-9.99                                    [alpha_PowerLaw]
CCM                                      [red_law_option]
 1.458241                                [q_norm = A(l_norm)/A(V)]

## (Re)Sampling Parameters
 3741.00                                 [l_ini (A)]
 7218.00                                 [l_fin (A)]
    1.00                                 [dl    (A)]     (OBS: dl_cushion =    50.00 A)

## Normalization info
 4020.00                                 [l_norm (A) - for base]
 4010.00                                 [llow_norm (A) - window for f_obs]
 4060.00                                 [lupp_norm (A) - window for f_obs]
1.579955E-17                             [fobs_norm (in input units)]

## S/N
 3691.00                                 [llow_SN (A) - window for S/N]
 7268.00                                 [lupp_SN (A) - window for S/N]
   3.089                                 [S/N in S/N window]
   2.293                                 [S/N in norm. window]
   0.029                                 [S/N_err in S/N window]
   0.021                                 [S/N_err in norm. window]
  1.0000                                 [fscale_chi2]

## etc...
    -2007532                             [idum_orig]
  2411                                   [NOl_eff]
  2135                                   [Nl_eff]
   276    NSIGMA                         [Ntot_cliped & clip_method]
 10170580                                [Nglobal_steps]
   7                                     [N_chains]
  19                                     [NEX0s_base = N_base in EX0s-fits]
 0   0   1      276   2.0   1.169E+04    [Clip-Bug, RC-Crash & Burn-In warning-flags, n_censored_weights, wei_nsig_threshold & wei_limit]
    56     55.521     54.814      0.708  [idt_all, wdt_TotTime, wdt_UsrTime & wdt_SysTime (sec)]

## Synthesis Results - Best model ##

 1.64694E-04                             [chi2/Nl_eff]
    17.71328                             [adev (%)]

   129.99998                             [sum-of-x (%)]
 1.15075E-17                             [Flux_tot (units of input spectrum!)]
 8.21694E-13                             [Mini_tot (???)]
 4.08580E-13                             [Mcor_tot (???)]

-308.64                                  [v0_min  (km/s)]
 386.62                                  [vd_min  (km/s)]
-0.4314                                  [AV_min  (mag)]
 0.0000                                  [YAV_min (mag)]

# j     x_j(%)      Mini_j(%)     Mcor_j(%)     age_j(yr)     Z_j      (L/M)_j    YAV?  Mstars   component_j        a/Fe...       SSP_chi2r SSP_adev(%)   SSP_AV   SSP_x(%)
  1      0.0000     0.0000E+00    0.0000E+00    1.000000E+06  0.00400  1.094E-02    0   1.0000   age020_m42            0.0000     4.3605E-05     7.3004   1.9002   208.5901
  2      0.0000     0.0000E+00    0.0000E+00    3.160000E+06  0.00400  4.007E-02    0   0.9999   age045_m42            0.0000     4.5889E-05     7.1798   1.2734   213.9898
  3      0.0000     0.0000E+00    0.0000E+00    5.010000E+06  0.00400  2.539E-02    0   0.9488   age055_m42            0.0000     4.4345E-05     7.1494   1.5476   212.7831
  4      0.0000     0.0000E+00    0.0000E+00    6.610000E+06  0.00400  2.620E-02    0   0.9220   age061_m42            0.0000     4.5305E-05     7.1340   1.2026   214.3233
  5      0.0000     0.0000E+00    0.0000E+00    1.000000E+07  0.00400  1.322E-02    0   0.8862   age070_m42            0.0000     4.4683E-05     7.3116   0.9290   219.3626
  6      0.0000     0.0000E+00    0.0000E+00    1.445000E+07  0.00400  7.883E-03    0   0.8571   age078_m42            0.0000     4.4471E-05     7.2359   1.2283   216.0507
  7      0.0000     0.0000E+00    0.0000E+00    2.512000E+07  0.00400  5.251E-03    0   0.8174   age090_m42            0.0000     4.5004E-05     7.4471   0.8102   219.8311
  8      0.0000     0.0000E+00    0.0000E+00    4.000000E+07  0.00400  3.649E-03    0   0.7851   age104_m42            0.0000     4.4972E-05     7.4067   0.5965   220.2414
  9      0.0000     0.0000E+00    0.0000E+00    5.500000E+07  0.00400  3.098E-03    0   0.7629   age110_m42            0.0000     4.6094E-05     7.3070   0.7613   218.7083
 10      0.0000     0.0000E+00    0.0000E+00    1.015200E+08  0.00400  2.228E-03    0   0.7207   age116_m42            0.0000     4.6399E-05     7.2366   0.7893   218.0458
 11      0.0000     0.0000E+00    0.0000E+00    2.861200E+08  0.00400  1.093E-03    0   0.6648   age125_m42            0.0000     4.6380E-05     7.7302   0.2456   222.0269
 12      0.0000     0.0000E+00    0.0000E+00    5.088000E+08  0.00400  6.597E-04    0   0.6365   age130_m42            0.0000     4.6466E-05     7.4293   0.2484   222.1957
 13      0.0000     0.0000E+00    0.0000E+00    1.434000E+09  0.00400  2.132E-04    0   0.5798   age139_m42            0.0000     4.2216E-05     6.7283  -0.6989   223.9966
 14      0.0000     0.0000E+00    0.0000E+00    4.250000E+09  0.00400  5.895E-05    0   0.5377   age158_m42            0.0000     3.9160E-05     8.1706  -1.0000   210.1417
 15      0.0000     0.0000E+00    0.0000E+00    7.500000E+09  0.00400  3.510E-05    0   0.5212   age171_m42            0.0000     4.3961E-05    11.9360  -1.0000   199.9651
 16      0.0000     0.0000E+00    0.0000E+00    1.300000E+10  0.00400  2.005E-05    0   0.5034   age193_m42            0.0000     5.2314E-05    15.6543  -1.0000   191.0498
 17    108.4340     7.6599E+01    7.6516E+01    1.800000E+10  0.00400  1.525E-05    0   0.4967   age213_m42            0.0000     5.3605E-05    16.2651  -1.0000   189.2299
 18      0.0000     0.0000E+00    0.0000E+00    1.000000E+06  0.00800  1.238E-02    0   1.0000   age020_m52            0.0000     4.3592E-05     7.2978   1.8951   209.0554
 19      0.0000     0.0000E+00    0.0000E+00    3.160000E+06  0.00800  3.074E-02    0   0.9966   age045_m52            0.0000     4.3595E-05     7.2444   1.8257   210.3317
 20      0.0000     0.0000E+00    0.0000E+00    5.010000E+06  0.00800  2.668E-02    0   0.9443   age055_m52            0.0000     4.3901E-05     7.1007   1.6165   212.1113
 21      0.0000     0.0000E+00    0.0000E+00    6.610000E+06  0.00800  2.136E-02    0   0.9177   age061_m52            0.0000     4.1495E-05     6.8685   0.4166   222.7428
 22      0.0000     0.0000E+00    0.0000E+00    1.000000E+07  0.00800  1.215E-02    0   0.8827   age070_m52            0.0000     4.4760E-05     7.4516   1.0967   220.0810
 23      0.0000     0.0000E+00    0.0000E+00    1.445000E+07  0.00800  8.717E-03    0   0.8552   age078_m52            0.0000     4.4670E-05     7.2084   1.2040   218.2486
 24      0.0000     0.0000E+00    0.0000E+00    2.512000E+07  0.00800  5.592E-03    0   0.8162   age090_m52            0.0000     4.5513E-05     7.5087   0.8810   221.7548
 25      0.0000     0.0000E+00    0.0000E+00    4.000000E+07  0.00800  3.896E-03    0   0.7841   age104_m52            0.0000     4.5855E-05     7.5077   0.8071   221.7185
 26      0.0000     0.0000E+00    0.0000E+00    1.015200E+08  0.00800  2.148E-03    0   0.7226   age116_m52            0.0000     4.5533E-05     7.3211   0.7587   219.7500
 27      0.0000     0.0000E+00    0.0000E+00    2.861200E+08  0.00800  9.925E-04    0   0.6683   age125_m52            0.0000     4.5935E-05     7.3333   0.3105   224.5257
 28      0.0000     0.0000E+00    0.0000E+00    9.047900E+08  0.00800  3.141E-04    0   0.6138   age135_m52            0.0000     4.3591E-05     6.9072  -0.4498   228.8702
 29      0.0000     0.0000E+00    0.0000E+00    1.434000E+09  0.00800  1.719E-04    0   0.5853   age139_m52            0.0000     3.9232E-05     6.9176  -1.0000   224.0224
 30      0.0000     0.0000E+00    0.0000E+00    2.500000E+09  0.00800  7.872E-05    0   0.5600   age150_m52            0.0000     4.2699E-05    11.2076  -1.0000   206.0270
 31      0.0000     0.0000E+00    0.0000E+00    4.250000E+09  0.00800  4.336E-05    0   0.5426   age158_m52            0.0000     4.3186E-05    11.5617  -1.0000   203.4164
 32      0.0000     0.0000E+00    0.0000E+00    6.250000E+09  0.00800  3.159E-05    0   0.5319   age166_m52            0.0000     5.2622E-05    15.8790  -1.0000   193.3914
 33      0.0000     0.0000E+00    0.0000E+00    1.300000E+10  0.00800  1.361E-05    0   0.5073   age193_m52            0.0000     9.3588E-05    26.0572  -1.0000   168.5866
 34     21.4736     2.3400E+01    2.3483E+01    1.800000E+10  0.00800  9.886E-06    0   0.4990   age213_m52            0.0000     1.0718E-04    28.0440  -1.0000   162.0381
 35      0.0000     0.0000E+00    0.0000E+00    1.000000E+06  0.02000  1.544E-02    0   1.0000   age020_m62            0.0000     4.3558E-05     7.2987   1.8892   209.7461
 36      0.0000     0.0000E+00    0.0000E+00    3.160000E+06  0.02000  3.762E-02    0   0.9858   age045_m62            0.0000     4.3721E-05     7.3049   1.8257   211.7004
 37      0.0000     0.0000E+00    0.0000E+00    5.010000E+06  0.02000  3.296E-02    0   0.9342   age055_m62            0.0000     4.4767E-05     7.1101   1.5188   214.3023
 38      0.0000     0.0000E+00    0.0000E+00    8.710000E+06  0.02000  1.154E-02    0   0.8861   age067_m62            0.0000     4.5916E-05     9.1332   0.5342   229.8201
 39      0.0000     0.0000E+00    0.0000E+00    1.445000E+07  0.02000  7.663E-03    0   0.8472   age078_m62            0.0000     4.5029E-05     7.9932   0.7467   225.0977
 40      0.0000     0.0000E+00    0.0000E+00    2.512000E+07  0.02000  4.532E-03    0   0.8099   age090_m62            0.0000     4.5374E-05     8.2331   0.7450   223.9857
 41      0.0000     0.0000E+00    0.0000E+00    5.500000E+07  0.02000  2.733E-03    0   0.7595   age110_m62            0.0000     4.4598E-05     7.3744   0.7769   221.3854
 42      0.0000     0.0000E+00    0.0000E+00    1.609000E+08  0.02000  1.369E-03    0   0.6985   age120_m62            0.0000     4.5767E-05     7.2807   0.6490   223.6420
 43      0.0000     0.0000E+00    0.0000E+00    2.861200E+08  0.02000  9.013E-04    0   0.6714   age125_m62            0.0000     4.6627E-05     7.2052   0.4283   227.0260
 44      0.0000     0.0000E+00    0.0000E+00    5.088000E+08  0.02000  5.028E-04    0   0.6449   age130_m62            0.0000     4.6675E-05     6.9447   0.0785   229.3343
 45      0.0000     0.0000E+00    0.0000E+00    9.047900E+08  0.02000  2.428E-04    0   0.6179   age135_m62            0.0000     4.0790E-05     6.4425  -0.5217   228.0724
 46      0.0000     0.0000E+00    0.0000E+00    1.434000E+09  0.02000  1.263E-04    0   0.5908   age139_m62            0.0000     3.7014E-05     6.2171  -0.9900   226.3209
 47      0.0000     0.0000E+00    0.0000E+00    2.500000E+09  0.02000  5.985E-05    0   0.5673   age150_m62            0.0000     4.2666E-05    11.2663  -1.0000   207.2759
 48      0.0000     0.0000E+00    0.0000E+00    4.250000E+09  0.02000  3.271E-05    0   0.5468   age158_m62            0.0000     5.9632E-05    17.7739  -1.0000   190.3240
 49      0.0000     0.0000E+00    0.0000E+00    1.000000E+10  0.02000  1.360E-05    0   0.5167   age181_m62            0.0000     9.2803E-05    24.9427  -1.0000   171.3987
 50      0.0000     0.0000E+00    0.0000E+00    1.800000E+10  0.02000  7.124E-06    0   0.5013   age213_m62            0.0000     1.2134E-04    29.0186  -1.0000   159.0260
 51      0.0000     0.0000E+00    0.0000E+00    1.000000E+06  0.05000  2.592E-02    0   0.9998   age020_m72            0.0000     4.3341E-05     7.2935   1.8736   210.4167
 52      0.0000     0.0000E+00    0.0000E+00    3.160000E+06  0.05000  4.845E-02    0   0.9577   age045_m72            0.0000     4.4156E-05     7.2526   1.7325   212.3435
 53      0.0000     0.0000E+00    0.0000E+00    5.010000E+06  0.05000  3.072E-02    0   0.9147   age055_m72            0.0000     4.4547E-05     7.7791   1.2890   219.2113
 54      0.0000     0.0000E+00    0.0000E+00    6.610000E+06  0.05000  1.455E-02    0   0.8877   age061_m72            0.0000     5.1795E-05    11.8162   0.5518   233.2612
 55      0.0000     0.0000E+00    0.0000E+00    1.000000E+07  0.05000  9.074E-03    0   0.8524   age070_m72            0.0000     4.6659E-05     8.9329   1.4524   218.9081
 56      0.0000     0.0000E+00    0.0000E+00    2.512000E+07  0.05000  4.250E-03    0   0.7902   age090_m72            0.0000     4.6689E-05     8.3581   1.2068   219.1568
 57      0.0000     0.0000E+00    0.0000E+00    4.000000E+07  0.05000  3.087E-03    0   0.7618   age104_m72            0.0000     4.7375E-05     8.5657   0.9993   221.1429
 58      0.0000     0.0000E+00    0.0000E+00    1.015200E+08  0.05000  1.700E-03    0   0.7096   age116_m72            0.0000     4.6639E-05     7.6168   0.7901   223.0986
 59      0.0924     1.3477E-03    1.7978E-03    2.861200E+08  0.05000  7.384E-04    0   0.6633   age125_m72            0.0000     4.5994E-05     7.0150   0.3117   228.0486
 60      0.0000     0.0000E+00    0.0000E+00    5.088000E+08  0.05000  3.819E-04    0   0.6372   age130_m72            0.0000     4.2617E-05     6.4669  -0.1775   230.3432
 61      0.0000     0.0000E+00    0.0000E+00    9.047900E+08  0.05000  1.676E-04    0   0.6110   age135_m72            0.0000     3.7144E-05     6.2831  -0.9137   228.1943
 62      0.0000     0.0000E+00    0.0000E+00    1.434000E+09  0.05000  8.837E-05    0   0.5874   age139_m72            0.0000     4.2559E-05    11.0169  -1.0000   209.6886
 63      0.0000     0.0000E+00    0.0000E+00    2.500000E+09  0.05000  4.233E-05    0   0.5598   age150_m72            0.0000     6.0185E-05    17.6480  -1.0000   191.8223
 64      0.0000     0.0000E+00    0.0000E+00    6.250000E+09  0.05000  1.435E-05    0   0.5249   age166_m72            0.0000     1.0505E-04    26.9020  -1.0000   165.6678
 65      0.0000     0.0000E+00    0.0000E+00    1.300000E+10  0.05000  6.513E-06    0   0.5036   age193_m72            0.0000     1.4872E-04    32.2130  -1.0000   152.3562
 66      0.0000     0.0000E+00    0.0000E+00    1.800000E+10  0.05000  4.527E-06    0   0.4945   age213_m72            0.0000     1.7828E-04    34.9351  -1.0000   143.4252


## Synthesis Results - Average & Chains ##

# j      x_j: min, <> & last-chain-values for 1 ...  7 chains
  1      0.0000      0.1715      0.0092      0.0000      0.0712      0.0063      0.0969      0.0000      0.0471
  2      0.0000      0.2343      0.0300      0.0000      0.0570      0.1736      0.1003      0.1213      0.1154
  3      0.0000      0.2023      0.0767      0.1025      0.0088      0.1383      0.0634      0.0000      0.0631
  4      0.0000      0.2325      0.1829      0.0000      0.0000      0.0339      0.0000      0.0011      0.1020
  5      0.0000      0.1954      0.0333      0.0776      0.1372      0.0000      0.2633      0.1705      0.1293
  6      0.0000      0.2788      0.0463      0.3181      0.1032      0.0208      0.0509      0.0727      0.1075
  7      0.0000      0.1792      0.0479      0.1745      0.0144      0.0753      0.1155      0.0079      0.0560
  8      0.0000      0.2214      0.1186      0.1911      0.0153      0.0000      0.0000      0.0013      0.0235
  9      0.0000      0.2383      0.0449      0.0868      0.1576      0.0204      0.1620      0.0350      0.0097
 10      0.0000      0.3593      0.0605      0.0625      0.0219      0.5000      0.0000      0.0239      0.0000
 11      0.0000      0.2938      0.1577      0.0312      0.0000      0.3012      0.0297      0.0641      0.0172
 12      0.0000      0.3098      0.0091      0.0000      0.1341      0.0666      0.0000      0.1810      0.2151
 13      0.0000      0.1969      0.0212      0.1505      0.1330      0.0571      0.0011      0.0000      0.0139
 14      0.0000      0.2813      0.3437      0.1520      0.0192      0.0185      0.1020      0.1235      0.0000
 15      0.0000      0.2066      0.0373      0.0879      0.0065      0.0000      0.0996      0.0869      0.0375
 16      0.0000      0.2206      0.0612      0.0652      0.2378      0.2459      0.2050      0.1001      0.1145
 17    108.4340      0.2741      0.0257      0.0000      0.1079      0.0850      0.1043      0.2071      0.0000
 18      0.0000      0.2382      0.1306      0.2026      0.0458      0.1299      0.0295      0.0141      0.0164
 19      0.0000      0.2285      0.0630      0.0764      0.0826      0.0345      0.0000      0.1105      0.0000
 20      0.0000      0.1942      0.0335      0.0000      0.0193      0.0020      0.1154      0.0495      0.2953
 21      0.0000      0.2421      0.1558      0.1531      0.2056      0.0742      0.0000      0.0706      0.1098
 22      0.0000      0.2706      0.0700      0.0764      0.0555      0.1812      0.1685      0.0000      0.0912
 23      0.0000      0.2235      0.1073      0.0701      0.1771      0.0888      0.0445      0.1275      0.0162
 24      0.0000      0.1752      0.0097      0.2053      0.0694      0.1248      0.0513      0.0316      0.1061
 25      0.0000      0.2198      0.0279      0.0000      0.1499      0.0000      0.1245      0.0000      0.0000
 26      0.0000      0.1900      0.0000      0.1068      0.0837      0.0828      0.0822      0.0000      0.2419
 27      0.0000      0.2184      0.1054      0.0000      0.1868      0.0000      0.0000      0.0995      0.2335
 28      0.0000      0.2090      0.0029      0.0270      0.1122      0.0393      0.2439      0.0299      0.1079
 29      0.0000      0.1986      0.0000      0.0000      0.0118      0.0000      0.0000      0.0159      0.0000
 30      0.0000      0.2104      0.0161      0.0000      0.0605      0.0000      0.0000      0.0798      0.0324
 31      0.0000      0.2309      0.0494      0.0000      0.0000      0.0343      0.0000      0.0586      0.1366
 32      0.0000      0.2084      0.0269      0.0147      0.0000      0.2676      0.2445      0.0000      0.0698
 33      0.0000      0.2612      0.1257      0.3842      0.1896      0.0695      0.1658      0.0764      0.0673
 34     21.4736      0.1901      0.0997      0.0944      0.0000      0.0000      0.0000      0.2469      0.0406
 35      0.0000      0.2478      0.0449      0.0286      0.0153      0.0419      0.1023      0.0868      0.0771
 36      0.0000      0.3036      0.1983      0.0000      0.0086      0.2887      0.0794      0.1027      0.0000
 37      0.0000      0.2129      0.0383      0.0039      0.0342      0.0000      0.3186      0.0000      0.1012
 38      0.0000      0.2175      0.0000      0.0000      0.1629      0.1304      0.0000      0.0159      0.0205
 39      0.0000      0.2532      0.0000      0.0313      0.0000      0.0000      0.0950      0.0836      0.4198
 40      0.0000      0.1977      0.0000      0.0000      0.0336      0.0260      0.1082      0.0443      0.0150
 41      0.0000      0.2673      0.0754      0.0000      0.1031      0.0084      0.0305      0.1169      0.0000
 42      0.0000      0.2264      0.0486      0.0000      0.0459      0.2449      0.1251      0.0395      0.0349
 43      0.0000      0.5489      0.4460      0.1696      1.0718      0.5505      0.4718      0.3491      0.6977
 44      0.0000      0.1692      0.0000      0.0000      0.0579      0.0907      0.0733      0.0254      0.0000
 45      0.0000      0.2368      0.0053      0.0739      0.1750      0.0886      0.3296      0.1094      0.0000
 46      0.0000      0.2887      0.0161      0.0846      0.0000      0.0475      0.1011      0.1281      0.0000
