###################################################################
## OUTPUT of StarlightChains_v04.for    [Cid@UFSC - 01/Apr/2007] ##
###################################################################

## Some input info
KUG0210-078._47_43.txt                   [arq_obs]
Base.CB07.vall.4m                        [arq_base]
Masks.EmLines.NEW.gm                     [arq_masks]
StCv04.C11.config                        [arq_config]
   66                                    [N_base]
    0                                    [N_YAV_components = # of components with extra extinction!]
    0                                    [i_FitPowerLaw (1/0 = Yes/No)]
-9.99                                    [alpha_PowerLaw]
CCM                                      [red_law_option]
 1.458241                                [q_norm = A(l_norm)/A(V)]

## (Re)Sampling Parameters
 3741.00                                 [l_ini (A)]
 7218.00                                 [l_fin (A)]
    1.00                                 [dl    (A)]     (OBS: dl_cushion =    50.00 A)

## Normalization info
 4020.00                                 [l_norm (A) - for base]
 4010.00                                 [llow_norm (A) - window for f_obs]
 4060.00                                 [lupp_norm (A) - window for f_obs]
5.144428E-18                             [fobs_norm (in input units)]

## S/N
 3691.00                                 [llow_SN (A) - window for S/N]
 7268.00                                 [lupp_SN (A) - window for S/N]
   2.825                                 [S/N in S/N window]
   2.070                                 [S/N in norm. window]
   0.008                                 [S/N_err in S/N window]
   0.006                                 [S/N_err in norm. window]
  1.0000                                 [fscale_chi2]

## etc...
    -2007915                             [idum_orig]
  2383                                   [NOl_eff]
  2158                                   [Nl_eff]
   225    NSIGMA                         [Ntot_cliped & clip_method]
  6478220                                [Nglobal_steps]
   7                                     [N_chains]
  52                                     [NEX0s_base = N_base in EX0s-fits]
 0   0   1      225   2.0   3.440E+03    [Clip-Bug, RC-Crash & Burn-In warning-flags, n_censored_weights, wei_nsig_threshold & wei_limit]
   207    207.012    206.265      0.747  [idt_all, wdt_TotTime, wdt_UsrTime & wdt_SysTime (sec)]

## Synthesis Results - Best model ##

 2.23822E-05                             [chi2/Nl_eff]
    26.32563                             [adev (%)]

   130.00000                             [sum-of-x (%)]
 1.99974E-16                             [Flux_tot (units of input spectrum!)]
 1.50255E-13                             [Mini_tot (???)]
 8.65677E-14                             [Mcor_tot (???)]

-217.94                                  [v0_min  (km/s)]
   0.11                                  [vd_min  (km/s)]
 2.5299                                  [AV_min  (mag)]
 0.0000                                  [YAV_min (mag)]

# j     x_j(%)      Mini_j(%)     Mcor_j(%)     age_j(yr)     Z_j      (L/M)_j    YAV?  Mstars   component_j        a/Fe...       SSP_chi2r SSP_adev(%)   SSP_AV   SSP_x(%)
  1     26.0589     2.4386E+00    4.2327E+00    1.000000E+06  0.00400  1.094E-02    0   1.0000   age020_m42            0.0000     1.6621E-05    21.6865   2.3008   175.6774
  2     12.2476     3.1292E-01    5.4308E-01    3.160000E+06  0.00400  4.007E-02    0   0.9999   age045_m42            0.0000     1.6776E-05    22.2458   1.6548   181.3795
  3      0.0000     0.0000E+00    0.0000E+00    5.010000E+06  0.00400  2.539E-02    0   0.9488   age055_m42            0.0000     1.6683E-05    22.0515   1.9454   179.3565
  4      0.0000     0.0000E+00    0.0000E+00    6.610000E+06  0.00400  2.620E-02    0   0.9220   age061_m42            0.0000     1.6732E-05    22.3801   1.5905   181.2500
  5      0.0893     6.9128E-03    1.0633E-02    1.000000E+07  0.00400  1.322E-02    0   0.8862   age070_m42            0.0000     1.6892E-05    23.3809   1.3319   184.3650
  6      0.6872     8.9242E-02    1.3276E-01    1.445000E+07  0.00400  7.883E-03    0   0.8571   age078_m42            0.0000     1.6829E-05    23.0867   1.6325   181.5012
  7      2.3310     4.5447E-01    6.4479E-01    2.512000E+07  0.00400  5.251E-03    0   0.8174   age090_m42            0.0000     1.6962E-05    23.6504   1.2150   184.5185
  8      0.1010     2.8326E-02    3.8599E-02    4.000000E+07  0.00400  3.649E-03    0   0.7851   age104_m42            0.0000     1.6933E-05    23.6533   1.0007   185.0212
  9      2.3845     7.8798E-01    1.0434E+00    5.500000E+07  0.00400  3.098E-03    0   0.7629   age110_m42            0.0000     1.6892E-05    23.2426   1.1509   184.6833
 10      0.0000     0.0000E+00    0.0000E+00    1.015200E+08  0.00400  2.228E-03    0   0.7207   age116_m42            0.0000     1.6856E-05    23.0541   1.1766   184.4355
 11      0.0000     0.0000E+00    0.0000E+00    2.861200E+08  0.00400  1.093E-03    0   0.6648   age125_m42            0.0000     1.7044E-05    23.8892   0.6377   187.3425
 12      3.2716     5.0770E+00    5.6089E+00    5.088000E+08  0.00400  6.597E-04    0   0.6365   age130_m42            0.0000     1.6925E-05    23.4306   0.6326   188.1600
 13      0.0000     0.0000E+00    0.0000E+00    1.434000E+09  0.00400  2.132E-04    0   0.5798   age139_m42            0.0000     1.6388E-05    22.8747  -0.3179   189.9845
 14      0.0000     0.0000E+00    0.0000E+00    4.250000E+09  0.00400  5.895E-05    0   0.5377   age158_m42            0.0000     1.5880E-05    21.7176  -0.7933   184.4300
 15      0.0000     0.0000E+00    0.0000E+00    7.500000E+09  0.00400  3.510E-05    0   0.5212   age171_m42            0.0000     1.5760E-05    21.4378  -0.9888   183.2597
 16      0.0000     0.0000E+00    0.0000E+00    1.300000E+10  0.00400  2.005E-05    0   0.5034   age193_m42            0.0000     1.5795E-05    23.1509  -1.0000   176.7310
 17      0.0834     5.5966E+00    4.8250E+00    1.800000E+10  0.00400  1.525E-05    0   0.4967   age213_m42            0.0000     1.5850E-05    23.5402  -1.0000   175.1857
 18      7.5857     6.2730E-01    1.0888E+00    1.000000E+06  0.00800  1.238E-02    0   1.0000   age020_m52            0.0000     1.6639E-05    21.6335   2.2948   176.1270
 19      0.0000     0.0000E+00    0.0000E+00    3.160000E+06  0.00800  3.074E-02    0   0.9966   age045_m52            0.0000     1.6562E-05    21.5662   2.2203   177.4911
 20      6.1114     2.3451E-01    3.8436E-01    5.010000E+06  0.00800  2.668E-02    0   0.9443   age055_m52            0.0000     1.6580E-05    21.8475   2.0089   179.0206
 21      0.0000     0.0000E+00    0.0000E+00    6.610000E+06  0.00800  2.136E-02    0   0.9177   age061_m52            0.0000     1.6595E-05    22.9360   0.8226   187.0584
 22      0.7977     6.7216E-02    1.0298E-01    1.000000E+07  0.00800  1.215E-02    0   0.8827   age070_m52            0.0000     1.6913E-05    23.5810   1.4982   184.9666
 23      0.5667     6.6561E-02    9.8801E-02    1.445000E+07  0.00800  8.717E-03    0   0.8552   age078_m52            0.0000     1.6807E-05    23.1415   1.6046   183.5271
 24      0.0000     0.0000E+00    0.0000E+00    2.512000E+07  0.00800  5.592E-03    0   0.8162   age090_m52            0.0000     1.6930E-05    23.7561   1.2802   186.5169
 25      0.0000     0.0000E+00    0.0000E+00    4.000000E+07  0.00800  3.896E-03    0   0.7841   age104_m52            0.0000     1.6901E-05    23.7062   1.2040   186.7718
 26      2.9801     1.4204E+00    1.7814E+00    1.015200E+08  0.00800  2.148E-03    0   0.7226   age116_m52            0.0000     1.6805E-05    23.2761   1.1464   185.6417
 27      0.0055     5.6806E-03    6.5893E-03    2.861200E+08  0.00800  9.925E-04    0   0.6683   age125_m52            0.0000     1.6807E-05    23.3560   0.6933   190.2591
 28      0.0000     0.0000E+00    0.0000E+00    9.047900E+08  0.00800  3.141E-04    0   0.6138   age135_m52            0.0000     1.6339E-05    22.7774  -0.0898   195.7076
 29      0.0000     0.0000E+00    0.0000E+00    1.434000E+09  0.00800  1.719E-04    0   0.5853   age139_m52            0.0000     1.6017E-05    22.4777  -0.6822   192.4199
 30      0.0038     4.9687E-02    4.8295E-02    2.500000E+09  0.00800  7.872E-05    0   0.5600   age150_m52            0.0000     1.5665E-05    21.3960  -0.9799   188.7582
 31      0.0000     0.0000E+00    0.0000E+00    4.250000E+09  0.00800  4.336E-05    0   0.5426   age158_m52            0.0000     1.5624E-05    21.3381  -0.9950   186.9742
 32      0.4676     1.5153E+01    1.3989E+01    6.250000E+09  0.00800  3.159E-05    0   0.5319   age166_m52            0.0000     1.5758E-05    23.3909  -1.0000   179.3547
 33      0.0234     1.7623E+00    1.5517E+00    1.300000E+10  0.00800  1.361E-05    0   0.5073   age193_m52            0.0000     1.7674E-05    31.8346  -1.0000   159.3485
 34      0.2177     2.2548E+01    1.9529E+01    1.800000E+10  0.00800  9.886E-06    0   0.4990   age213_m52            0.0000     1.8443E-05    33.6946  -1.0000   153.9011
 35      7.0085     4.6471E-01    8.0659E-01    1.000000E+06  0.02000  1.544E-02    0   1.0000   age020_m62            0.0000     1.6640E-05    21.5720   2.2852   176.8588
 36     34.2403     9.3180E-01    1.5943E+00    3.160000E+06  0.02000  3.762E-02    0   0.9858   age045_m62            0.0000     1.6537E-05    21.5171   2.2217   178.6469
 37     11.1975     3.4780E-01    5.6396E-01    5.010000E+06  0.02000  3.296E-02    0   0.9342   age055_m62            0.0000     1.6619E-05    21.9308   1.9098   181.0794
 38      0.0000     0.0000E+00    0.0000E+00    8.710000E+06  0.02000  1.154E-02    0   0.8861   age067_m62            0.0000     1.7434E-05    25.8982   0.9587   191.2813
 39      0.0000     0.0000E+00    0.0000E+00    1.445000E+07  0.02000  7.663E-03    0   0.8472   age078_m62            0.0000     1.7047E-05    24.4716   1.1583   188.4875
 40      0.0000     0.0000E+00    0.0000E+00    2.512000E+07  0.02000  4.532E-03    0   0.8099   age090_m62            0.0000     1.7129E-05    24.7768   1.1619   187.1271
 41      0.0637     2.3863E-02    3.1458E-02    5.500000E+07  0.02000  2.733E-03    0   0.7595   age110_m62            0.0000     1.6838E-05    23.5946   1.1794   186.0017
 42      0.0000     0.0000E+00    0.0000E+00    1.609000E+08  0.02000  1.369E-03    0   0.6985   age120_m62            0.0000     1.6820E-05    23.3001   1.0377   188.9924
 43      0.0000     0.0000E+00    0.0000E+00    2.861200E+08  0.02000  9.013E-04    0   0.6714   age125_m62            0.0000     1.6881E-05    23.2380   0.8093   192.4820
 44      0.0000     0.0000E+00    0.0000E+00    5.088000E+08  0.02000  5.028E-04    0   0.6449   age130_m62            0.0000     1.6702E-05    22.6464   0.4361   196.2218
 45      0.0000     0.0000E+00    0.0000E+00    9.047900E+08  0.02000  2.428E-04    0   0.6179   age135_m62            0.0000     1.5991E-05    21.9113  -0.1641   195.1902
 46      0.2082     1.6875E+00    1.7305E+00    1.434000E+09  0.02000  1.263E-04    0   0.5908   age139_m62            0.0000     1.5779E-05    21.5029  -0.6180   192.7713
 47      0.0000     0.0000E+00    0.0000E+00    2.500000E+09  0.02000  5.985E-05    0   0.5673   age150_m62            0.0000     1.5569E-05    20.9513  -0.9995   190.9596
 48      0.9438     2.9540E+01    2.8035E+01    4.250000E+09  0.02000  3.271E-05    0   0.5468   age158_m62            0.0000     1.5938E-05    24.6010  -1.0000   177.5966
 49      0.0000     0.0000E+00    0.0000E+00    1.000000E+10  0.02000  1.360E-05    0   0.5167   age181_m62            0.0000     1.7631E-05    30.8039  -1.0000   162.2321
 50      0.0000     0.0000E+00    0.0000E+00    1.800000E+10  0.02000  7.124E-06    0   0.5013   age213_m62            0.0000     1.9406E-05    34.6419  -1.0000   151.8505
 51      0.0000     0.0000E+00    0.0000E+00    1.000000E+06  0.05000  2.592E-02    0   0.9998   age020_m72            0.0000     1.6572E-05    21.5258   2.2646   177.8446
 52      0.0000     0.0000E+00    0.0000E+00    3.160000E+06  0.05000  4.845E-02    0   0.9577   age045_m72            0.0000     1.6527E-05    21.5853   2.1294   179.0744
 53      4.5169     1.5053E-01    2.3898E-01    5.010000E+06  0.05000  3.072E-02    0   0.9147   age055_m72            0.0000     1.6840E-05    23.5884   1.6946   184.0965
 54      0.0000     0.0000E+00    0.0000E+00    6.610000E+06  0.05000  1.455E-02    0   0.8877   age061_m72            0.0000     1.8138E-05    28.1711   0.9852   193.3529
 55      0.1297     1.4635E-02    2.1653E-02    1.000000E+07  0.05000  9.074E-03    0   0.8524   age070_m72            0.0000     1.7005E-05    24.2378   1.8618   183.6834
 56      0.0000     0.0000E+00    0.0000E+00    2.512000E+07  0.05000  4.250E-03    0   0.7902   age090_m72            0.0000     1.7045E-05    24.2619   1.6128   183.8694
 57      2.3794     7.8909E-01    1.0434E+00    4.000000E+07  0.05000  3.087E-03    0   0.7618   age104_m72            0.0000     1.7129E-05    24.6433   1.4050   185.5862
 58      0.0000     0.0000E+00    0.0000E+00    1.015200E+08  0.05000  1.700E-03    0   0.7096   age116_m72            0.0000     1.6975E-05    23.7633   1.1825   188.1846
 59      0.0000     0.0000E+00    0.0000E+00    2.861200E+08  0.05000  7.384E-04    0   0.6633   age125_m72            0.0000     1.6708E-05    22.8322   0.6755   194.5832
 60      3.1572     8.4635E+00    9.3605E+00    5.088000E+08  0.05000  3.819E-04    0   0.6372   age130_m72            0.0000     1.6227E-05    21.9476   0.1788   197.3179
 61      0.1408     8.5990E-01    9.1193E-01    9.047900E+08  0.05000  1.676E-04    0   0.6110   age135_m72            0.0000     1.5891E-05    20.8635  -0.5422   194.3276
 62      0.0000     0.0000E+00    0.0000E+00    1.434000E+09  0.05000  8.837E-05    0   0.5874   age139_m72            0.0000     1.5746E-05    20.8778  -1.0000   193.0129
 63      0.0000     0.0000E+00    0.0000E+00    2.500000E+09  0.05000  4.233E-05    0   0.5598   age150_m72            0.0000     1.6016E-05    24.5352  -1.0000   179.0851
 64      0.0000     0.0000E+00    0.0000E+00    6.250000E+09  0.05000  1.435E-05    0   0.5249   age166_m72            0.0000     1.8406E-05    32.7213  -1.0000   157.4976
 65      0.0000     0.0000E+00    0.0000E+00    1.300000E+10  0.05000  6.513E-06    0   0.5036   age193_m72            0.0000     2.1290E-05    37.8191  -1.0000   146.4543
 66      0.0000     0.0000E+00    0.0000E+00    1.800000E+10  0.05000  4.527E-06    0   0.4945   age213_m72            0.0000     2.3371E-05    40.5334  -1.0000   138.7887


## Synthesis Results - Average & Chains ##

# j      x_j: min, <> & last-chain-values for 1 ...  7 chains
  1     26.0589      1.1762      2.1806      2.0522      0.4523      1.2344      0.9903      2.3203      1.1917
  2     12.2476      0.5489      1.2204      2.1698      1.2336      0.3076      0.6428      0.0000      0.7293
  3      0.0000      0.3609      0.0000      2.0638      0.0000      0.1154      0.2289      0.9892      0.2954
  4      0.0000      0.4728      0.2701      2.7951      0.5710      0.7220      0.0000      0.0000      0.2493
  5      0.0893      0.4857      0.0000      0.7972      0.4775      0.3842      0.2100      1.4349      0.3241
  6      0.6872      0.4425      1.1206      1.3305      0.6689      0.2282      0.0000      0.8480      0.3990
  7      2.3310      0.5723      0.6829      2.2153      0.0000      0.2532      0.3653      1.1151      1.8374
  8      0.1010      0.4488      1.4958      5.3043      0.7901      0.0000      0.0000      0.0000      0.5696
  9      2.3845      0.4347      0.6313      1.0251      2.4438      0.2816      0.1597      0.1343      0.4694
 10      0.0000      0.4552      0.9364      0.4374      0.4733      0.3906      0.0000      0.7457      0.7976
 11      0.0000      0.4306      0.5984      2.8285      0.7974      0.2745      0.1570      0.0068      0.0000
 12      3.2716      0.4699      0.2642      0.7451      0.9988      0.0000      0.0000      1.0561      0.3888
 13      0.0000      0.4359      0.2334      3.8293      2.6030      0.0000      0.1061      0.7165      0.0000
 14      0.0000     28.2480     26.0307     14.2059     21.9002     31.3767     31.6960     25.7182     29.3727
 15      0.0000      0.4457      0.0000      0.0000      2.0845      1.1216      0.2728      0.0000      0.1859
 16      0.0000      0.5327      1.7057      2.0205      1.5576      0.8566      0.1081      0.0000      0.0000
 17      0.0834      0.5501      0.6068      1.5394      0.0000      0.5494      0.8075      0.3914      0.4382
 18      7.5857      1.1999      0.7764      2.2497      2.3486      0.8768      1.4871      0.8379      2.0214
 19      0.0000      0.7876      1.4607      0.1684      0.0628      0.6827      0.7649      0.6690      0.8368
 20      6.1114      0.4278      0.9732      1.0436      0.3847      0.3410      0.1125      0.0000      0.4458
 21      0.0000      0.5449      0.0000      0.0000      1.0761      0.2974      0.0592      0.2538      0.2927
 22      0.7977      0.5188      0.2188      0.5666      0.0111      0.8910      1.1448      0.7263      0.0000
 23      0.5667      0.4590      0.8153      1.1675      0.0000      0.2158      0.0605      0.0000      0.5736
 24      0.0000      0.4437      0.2455      2.2068      1.8486      0.2760      0.0000      0.0000      0.0000
 25      0.0000      0.4459      0.2423      0.0000      0.0000      0.0000      0.0000      1.0932      0.0000
 26      2.9801      0.4044      0.3694      1.4212      0.4950      0.1955      0.1249      0.5978      0.4021
 27      0.0055      0.5372      0.2688      1.2997      1.7078      1.0469      0.0115      1.4246      0.5953
 28      0.0000      0.4013      1.0848      1.0658      0.6482      0.1385      0.0553      0.0870      0.4050
 29      0.0000      0.4912      0.0000      0.5336      0.0000      0.4579      0.1968      0.9544      0.1633
 30      0.0038      0.4896      0.0000      0.6642      1.2779      0.1110      0.3492      1.1860      0.8556
 31      0.0000      0.3429      0.2584      0.4643      0.0000      0.4206      0.0658      0.1809      0.8644
 32      0.4676      0.7030      0.9653      0.9524      0.0000      1.0596      0.0000      3.0746      0.7900
 33      0.0234      0.6276      0.2327      1.2496      2.4650      0.5488      0.3710      0.4973      0.0000
 34      0.2177      0.3895      0.0481      0.9076      0.0000      0.0000      0.1332      0.0000      0.0000
 35      7.0085      1.3235      2.8737      1.4681      1.9770      0.6434      1.4378      0.6171      1.6428
 36     34.2403      0.4108      0.5122      1.6116      2.2213      0.5563      0.1301      0.1887      0.0000
 37     11.1975      0.4099      0.0000      1.4300      0.3620      0.2520      0.3941      0.1118      0.5870
 38      0.0000      0.4629      0.0004      0.5686      1.8932      0.2868      0.0000      0.0421      2.2736
 39      0.0000      0.5782      0.1864      0.3937      0.4024      1.0592      0.0000      0.0000      0.8992
 40      0.0000      0.5427      0.8084      2.5212      0.4641      0.2767      0.0000      0.0000      0.7058
 41      0.0637      0.4475      0.5860      1.4263      0.0000      0.4904      0.1228      1.2573      1.1587
 42      0.0000      0.3591      0.6626      0.8373      0.0000      0.3145      0.0403      0.1339      1.4905
 43      0.0000      0.3275      0.0000      1.1181      0.5188      0.1656      0.7437      1.3863      0.3108
 44      0.0000      0.4070      0.0000      0.0537      2.2275      0.0000      0.5085      0.7084      0.5332
 45      0.0000      0.4456      0.0689      0.1814      0.8862      0.7596      0.2638      1.8549      0.1576
 46      0.2082      0.6649      0.5183      1.6072      2.0815      0.5478      0.4660      2.6947      0.2607
