###################################################################
## OUTPUT of StarlightChains_v04.for    [Cid@UFSC - 01/Apr/2007] ##
###################################################################

## Some input info
KUG0210-078._33_31.txt                   [arq_obs]
Base.CB07.vall.4m                        [arq_base]
Masks.EmLines.NEW.gm                     [arq_masks]
StCv04.C11.config                        [arq_config]
   66                                    [N_base]
    0                                    [N_YAV_components = # of components with extra extinction!]
    0                                    [i_FitPowerLaw (1/0 = Yes/No)]
-9.99                                    [alpha_PowerLaw]
CCM                                      [red_law_option]
 1.458241                                [q_norm = A(l_norm)/A(V)]

## (Re)Sampling Parameters
 3741.00                                 [l_ini (A)]
 7218.00                                 [l_fin (A)]
    1.00                                 [dl    (A)]     (OBS: dl_cushion =    50.00 A)

## Normalization info
 4020.00                                 [l_norm (A) - for base]
 4010.00                                 [llow_norm (A) - window for f_obs]
 4060.00                                 [lupp_norm (A) - window for f_obs]
9.501396E-17                             [fobs_norm (in input units)]

## S/N
 3691.00                                 [llow_SN (A) - window for S/N]
 7268.00                                 [lupp_SN (A) - window for S/N]
   5.457                                 [S/N in S/N window]
   5.194                                 [S/N in norm. window]
   0.176                                 [S/N_err in S/N window]
   0.168                                 [S/N_err in norm. window]
  1.0000                                 [fscale_chi2]

## etc...
    -2007506                             [idum_orig]
  2432                                   [NOl_eff]
  2298                                   [Nl_eff]
   134    NSIGMA                         [Ntot_cliped & clip_method]
 15000790                                [Nglobal_steps]
   7                                     [N_chains]
  10                                     [NEX0s_base = N_base in EX0s-fits]
 0   0   1      134   2.0   4.784E+04    [Clip-Bug, RC-Crash & Burn-In warning-flags, n_censored_weights, wei_nsig_threshold & wei_limit]
   106    105.694    104.758      0.937  [idt_all, wdt_TotTime, wdt_UsrTime & wdt_SysTime (sec)]

## Synthesis Results - Best model ##

 4.89736E-05                             [chi2/Nl_eff]
     2.47748                             [adev (%)]

   111.37312                             [sum-of-x (%)]
 2.76607E-17                             [Flux_tot (units of input spectrum!)]
 2.57778E-12                             [Mini_tot (???)]
 1.31560E-12                             [Mcor_tot (???)]

 -41.99                                  [v0_min  (km/s)]
 209.12                                  [vd_min  (km/s)]
-0.9990                                  [AV_min  (mag)]
 0.0000                                  [YAV_min (mag)]

# j     x_j(%)      Mini_j(%)     Mcor_j(%)     age_j(yr)     Z_j      (L/M)_j    YAV?  Mstars   component_j        a/Fe...       SSP_chi2r SSP_adev(%)   SSP_AV   SSP_x(%)
  1      0.0000     0.0000E+00    0.0000E+00    1.000000E+06  0.00400  1.094E-02    0   1.0000   age020_m42            0.0000     8.8365E-04     9.3101   3.3030    90.3236
  2      0.0000     0.0000E+00    0.0000E+00    3.160000E+06  0.00400  4.007E-02    0   0.9999   age045_m42            0.0000     8.2759E-04     9.5585   2.6150    94.8737
  3      0.0000     0.0000E+00    0.0000E+00    5.010000E+06  0.00400  2.539E-02    0   0.9488   age055_m42            0.0000     8.8357E-04     9.6167   2.9298    92.8024
  4      0.0000     0.0000E+00    0.0000E+00    6.610000E+06  0.00400  2.620E-02    0   0.9220   age061_m42            0.0000     8.6314E-04     9.8337   2.5557    94.4835
  5      0.0000     0.0000E+00    0.0000E+00    1.000000E+07  0.00400  1.322E-02    0   0.8862   age070_m42            0.0000     1.0186E-03    11.3173   2.3016    95.3878
  6      0.0000     0.0000E+00    0.0000E+00    1.445000E+07  0.00400  7.883E-03    0   0.8571   age078_m42            0.0000     1.0241E-03    11.0829   2.6141    93.5599
  7      0.0000     0.0000E+00    0.0000E+00    2.512000E+07  0.00400  5.251E-03    0   0.8174   age090_m42            0.0000     1.0513E-03    11.6833   2.1788    95.6313
  8      0.0000     0.0000E+00    0.0000E+00    4.000000E+07  0.00400  3.649E-03    0   0.7851   age104_m42            0.0000     1.0017E-03    11.4852   1.9513    96.4437
  9      0.0000     0.0000E+00    0.0000E+00    5.500000E+07  0.00400  3.098E-03    0   0.7629   age110_m42            0.0000     9.3958E-04    10.9165   2.1020    96.5210
 10      0.0000     0.0000E+00    0.0000E+00    1.015200E+08  0.00400  2.228E-03    0   0.7207   age116_m42            0.0000     9.0103E-04    10.5737   2.1226    96.6521
 11      0.0000     0.0000E+00    0.0000E+00    2.861200E+08  0.00400  1.093E-03    0   0.6648   age125_m42            0.0000     8.9429E-04    11.0381   1.5521    99.4134
 12      0.0000     0.0000E+00    0.0000E+00    5.088000E+08  0.00400  6.597E-04    0   0.6365   age130_m42            0.0000     7.8519E-04    10.2228   1.5324   100.6861
 13      0.0000     0.0000E+00    0.0000E+00    1.434000E+09  0.00400  2.132E-04    0   0.5798   age139_m42            0.0000     5.2056E-04     8.9336   0.5251   104.5513
 14      0.0000     0.0000E+00    0.0000E+00    4.250000E+09  0.00400  5.895E-05    0   0.5377   age158_m42            0.0000     2.9117E-04     6.4963   0.0129   103.7094
 15      0.0000     0.0000E+00    0.0000E+00    7.500000E+09  0.00400  3.510E-05    0   0.5212   age171_m42            0.0000     2.2301E-04     5.6634  -0.1995   104.0522
 16      0.0000     0.0000E+00    0.0000E+00    1.300000E+10  0.00400  2.005E-05    0   0.5034   age193_m42            0.0000     1.7237E-04     5.0010  -0.3889   104.4933
 17      0.0000     0.0000E+00    0.0000E+00    1.800000E+10  0.00400  1.525E-05    0   0.4967   age213_m42            0.0000     1.7768E-04     5.0839  -0.4123   104.0642
 18      0.0000     0.0000E+00    0.0000E+00    1.000000E+06  0.00800  1.238E-02    0   1.0000   age020_m52            0.0000     8.8373E-04     9.2879   3.2993    90.4941
 19      0.0000     0.0000E+00    0.0000E+00    3.160000E+06  0.00800  3.074E-02    0   0.9966   age045_m52            0.0000     8.8132E-04     9.3044   3.2290    91.0811
 20      0.0000     0.0000E+00    0.0000E+00    5.010000E+06  0.00800  2.668E-02    0   0.9443   age055_m52            0.0000     8.9594E-04     9.6212   3.0097    92.0947
 21      0.0000     0.0000E+00    0.0000E+00    6.610000E+06  0.00800  2.136E-02    0   0.9177   age061_m52            0.0000     8.3119E-04    10.3449   1.7681    98.0507
 22      0.0000     0.0000E+00    0.0000E+00    1.000000E+07  0.00800  1.215E-02    0   0.8827   age070_m52            0.0000     1.0748E-03    11.6995   2.4775    95.2860
 23      0.0000     0.0000E+00    0.0000E+00    1.445000E+07  0.00800  8.717E-03    0   0.8552   age078_m52            0.0000     1.0181E-03    11.1473   2.5839    94.6785
 24      0.0000     0.0000E+00    0.0000E+00    2.512000E+07  0.00800  5.592E-03    0   0.8162   age090_m52            0.0000     1.0576E-03    11.8134   2.2455    96.6196
 25      0.0000     0.0000E+00    0.0000E+00    4.000000E+07  0.00800  3.896E-03    0   0.7841   age104_m52            0.0000     1.0019E-03    11.4945   2.1545    97.4297
 26      0.0000     0.0000E+00    0.0000E+00    1.015200E+08  0.00800  2.148E-03    0   0.7226   age116_m52            0.0000     9.0345E-04    10.7835   2.0888    97.4501
 27      0.0000     0.0000E+00    0.0000E+00    2.861200E+08  0.00800  9.925E-04    0   0.6683   age125_m52            0.0000     7.9343E-04    10.3055   1.6060   101.2418
 28      0.0000     0.0000E+00    0.0000E+00    9.047900E+08  0.00800  3.141E-04    0   0.6138   age135_m52            0.0000     4.4899E-04     8.3145   0.7408   108.5980
 29      0.0000     0.0000E+00    0.0000E+00    1.434000E+09  0.00800  1.719E-04    0   0.5853   age139_m52            0.0000     3.5379E-04     7.3814   0.1349   107.5856
 30      0.0000     0.0000E+00    0.0000E+00    2.500000E+09  0.00800  7.872E-05    0   0.5600   age150_m52            0.0000     2.0755E-04     5.5060  -0.1749   106.6754
 31      0.0000     0.0000E+00    0.0000E+00    4.250000E+09  0.00800  4.336E-05    0   0.5426   age158_m52            0.0000     1.8868E-04     5.2567  -0.2037   106.2998
 32     11.7174     3.5737E+00    3.7245E+00    6.250000E+09  0.00800  3.159E-05    0   0.5319   age166_m52            0.0000     1.2772E-04     4.4169  -0.4327   107.4517
 33      0.0000     0.0000E+00    0.0000E+00    1.300000E+10  0.00800  1.361E-05    0   0.5073   age193_m52            0.0000     7.9459E-05     3.4859  -0.9307   108.0297
 34      0.0000     0.0000E+00    0.0000E+00    1.800000E+10  0.00800  9.886E-06    0   0.4990   age213_m52            0.0000     7.0588E-05     3.5226  -1.0000   106.6469
 35      0.0000     0.0000E+00    0.0000E+00    1.000000E+06  0.02000  1.544E-02    0   1.0000   age020_m62            0.0000     8.8400E-04     9.2866   3.2956    90.7177
 36      0.0000     0.0000E+00    0.0000E+00    3.160000E+06  0.02000  3.762E-02    0   0.9858   age045_m62            0.0000     8.9153E-04     9.2999   3.2381    91.3674
 37      0.0000     0.0000E+00    0.0000E+00    5.010000E+06  0.02000  3.296E-02    0   0.9342   age055_m62            0.0000     8.7327E-04     9.5519   2.9010    93.4672
 38      0.0000     0.0000E+00    0.0000E+00    8.710000E+06  0.02000  1.154E-02    0   0.8861   age067_m62            0.0000     1.4862E-03    14.9033   1.9468    97.1128
 39      0.0000     0.0000E+00    0.0000E+00    1.445000E+07  0.02000  7.663E-03    0   0.8472   age078_m62            0.0000     1.1537E-03    12.5564   2.1258    97.2807
 40      0.0000     0.0000E+00    0.0000E+00    2.512000E+07  0.02000  4.532E-03    0   0.8099   age090_m62            0.0000     1.2178E-03    12.9767   2.1294    96.4384
 41      0.0000     0.0000E+00    0.0000E+00    5.500000E+07  0.02000  2.733E-03    0   0.7595   age110_m62            0.0000     1.0041E-03    11.4477   2.1390    96.6790
 42      0.0000     0.0000E+00    0.0000E+00    1.609000E+08  0.02000  1.369E-03    0   0.6985   age120_m62            0.0000     9.0053E-04    10.8146   1.9846    98.9856
 43      0.0000     0.0000E+00    0.0000E+00    2.861200E+08  0.02000  9.013E-04    0   0.6714   age125_m62            0.0000     8.1463E-04    10.4356   1.7330   101.8883
 44      0.0000     0.0000E+00    0.0000E+00    5.088000E+08  0.02000  5.028E-04    0   0.6449   age130_m62            0.0000     5.7194E-04     8.8840   1.3082   106.7605
 45      0.0000     0.0000E+00    0.0000E+00    9.047900E+08  0.02000  2.428E-04    0   0.6179   age135_m62            0.0000     3.3460E-04     7.0849   0.6610   109.0087
 46      0.0000     0.0000E+00    0.0000E+00    1.434000E+09  0.02000  1.263E-04    0   0.5908   age139_m62            0.0000     2.3660E-04     5.9630   0.1850   108.9264
 47      0.0000     0.0000E+00    0.0000E+00    2.500000E+09  0.02000  5.985E-05    0   0.5673   age150_m62            0.0000     1.4021E-04     4.5324  -0.2200   109.1901
 48      0.0000     0.0000E+00    0.0000E+00    4.250000E+09  0.02000  3.271E-05    0   0.5468   age158_m62            0.0000     7.3354E-05     3.3132  -0.5619   109.8686
 49      0.0000     0.0000E+00    0.0000E+00    1.000000E+10  0.02000  1.360E-05    0   0.5167   age181_m62            0.0000     5.3274E-05     2.4721  -0.9519   111.1830
 50     21.2341     2.8718E+01    2.8208E+01    1.800000E+10  0.02000  7.124E-06    0   0.5013   age213_m62            0.0000     1.2552E-04     4.4461  -1.0000   105.6350
 51      3.7240     1.3842E-03    2.7117E-03    1.000000E+06  0.05000  2.592E-02    0   0.9998   age020_m72            0.0000     8.8583E-04     9.2751   3.2824    90.9559
 52      0.0000     0.0000E+00    0.0000E+00    3.160000E+06  0.05000  4.845E-02    0   0.9577   age045_m72            0.0000     8.8969E-04     9.3693   3.1391    91.8254
 53      0.0000     0.0000E+00    0.0000E+00    5.010000E+06  0.05000  3.072E-02    0   0.9147   age055_m72            0.0000     1.0651E-03    11.3371   2.6799    94.7371
 54      0.0000     0.0000E+00    0.0000E+00    6.610000E+06  0.05000  1.455E-02    0   0.8877   age061_m72            0.0000     1.8528E-03    17.0365   1.9764    97.6833
 55      0.0000     0.0000E+00    0.0000E+00    1.000000E+07  0.05000  9.074E-03    0   0.8524   age070_m72            0.0000     1.1623E-03    11.7999   2.8507    94.4054
 56      0.0000     0.0000E+00    0.0000E+00    2.512000E+07  0.05000  4.250E-03    0   0.7902   age090_m72            0.0000     1.1383E-03    12.0058   2.5876    94.9641
 57      0.0000     0.0000E+00    0.0000E+00    4.000000E+07  0.05000  3.087E-03    0   0.7618   age104_m72            0.0000     1.1662E-03    12.4037   2.3725    96.0071
 58      0.0000     0.0000E+00    0.0000E+00    1.015200E+08  0.05000  1.700E-03    0   0.7096   age116_m72            0.0000     9.9376E-04    11.4078   2.1331    98.2061
 59      0.0000     0.0000E+00    0.0000E+00    2.861200E+08  0.05000  7.384E-04    0   0.6633   age125_m72            0.0000     6.9073E-04     9.6740   1.5809   104.2101
 60      0.0000     0.0000E+00    0.0000E+00    5.088000E+08  0.05000  3.819E-04    0   0.6372   age130_m72            0.0000     4.1459E-04     7.7736   1.0250   108.9707
 61      0.0000     0.0000E+00    0.0000E+00    9.047900E+08  0.05000  1.676E-04    0   0.6110   age135_m72            0.0000     1.7262E-04     5.0423   0.2498   110.7684
 62      0.0000     0.0000E+00    0.0000E+00    1.434000E+09  0.05000  8.837E-05    0   0.5874   age139_m72            0.0000     1.2530E-04     4.3752  -0.2355   111.4554
 63     12.0311     2.7384E+00    3.0037E+00    2.500000E+09  0.05000  4.233E-05    0   0.5598   age150_m72            0.0000     6.2472E-05     2.9908  -0.5784   111.5067
 64     34.7866     2.3356E+01    2.4021E+01    6.250000E+09  0.05000  1.435E-05    0   0.5249   age166_m72            0.0000     5.9786E-05     2.8624  -1.0000   109.4175
 65     27.3089     4.0398E+01    3.9863E+01    1.300000E+10  0.05000  6.513E-06    0   0.5036   age193_m72            0.0000     3.0536E-04     7.4248  -1.0000   101.8082
 66      0.5709     1.2151E+00    1.1773E+00    1.800000E+10  0.05000  4.527E-06    0   0.4945   age213_m72            0.0000     5.9594E-04    10.4173  -1.0000    96.4320


## Synthesis Results - Average & Chains ##

# j      x_j: min, <> & last-chain-values for 1 ...  7 chains
  1      0.0000      1.2216      0.9451      0.8806      1.5743      1.5597      1.2361      1.5094      1.2762
  2      0.0000      0.3206      0.0091      0.0025      0.0377      0.1898      0.0047      0.0232      0.0050
  3      0.0000      0.2430      0.0249      0.0026      0.0000      0.5263      0.0163      0.0748      0.0000
  4      0.0000      0.3125      0.0275      0.0031      0.0118      0.0130      0.0000      0.0260      0.0063
  5      0.0000      0.1983      0.0240      0.0013      0.0343      0.0000      0.0819      0.0080      0.0000
  6      0.0000      0.3117      0.0224      0.0016      0.1158      0.5224      0.0320      0.0753      0.0041
  7      0.0000      0.2444      0.0501      0.0040      0.0000      0.3129      0.0000      0.0569      0.0000
  8      0.0000      0.3014      0.0052      0.0015      0.0476      0.0000      0.0000      0.1300      0.0001
  9      0.0000      0.2858      0.0118      0.0007      0.0773      1.3783      0.0236      0.0285      0.0000
 10      0.0000      0.2417      0.0167      0.0024      0.0659      1.3843      0.0000      0.0420      0.0000
 11      0.0000      0.2860      0.0210      0.0013      0.0241      0.0000      0.0191      0.0533      0.0032
 12      0.0000      0.3047      0.0339      0.0031      0.0071      0.1030      0.0000      0.0000      0.0004
 13      0.0000      0.3272      0.0148      0.0016      0.0456      1.1939      0.0025      0.0121      0.0024
 14      0.0000      0.2432      0.0000      0.0017      0.0036      0.2481      0.0196      0.0176      0.0000
 15      0.0000      0.3596      0.0169      0.0027      0.0671      3.2765      0.0260      0.0505      0.0017
 16      0.0000      0.3234      0.0038      0.0037      0.0538      0.0000      0.0000      0.0315      0.0131
 17      0.0000      0.2285      0.0061      0.0026      0.0286      0.5180      0.0234      0.0079      0.0151
 18      0.0000      0.7106      0.0985      0.0138      0.7248      0.0000      0.7885      0.8433      1.8157
 19      0.0000      0.4574      0.0305      0.0073      0.2390      1.5083      0.8089      0.3385      0.1366
 20      0.0000      0.2782      0.0032      0.0019      0.0380      0.0938      0.0176      0.0494      0.0067
 21      0.0000      0.2418      0.0000      0.0022      0.0000      0.0000      0.0067      0.1084      0.0253
 22      0.0000      0.2030      0.0000      0.0018      0.0825      0.3511      0.0000      0.0000      0.0006
 23      0.0000      0.2354      0.0283      0.0021      0.0343      0.9058      0.0051      0.1014      0.0003
 24      0.0000      0.3391      0.0000      0.0006      0.0763      0.5403      0.0012      0.0005      0.0086
 25      0.0000      0.3134      0.0343      0.0025      0.0402      0.4715      0.0036      0.0000      0.0012
 26      0.0000      0.2134      0.0091      0.0005      0.0913      0.0000      0.0064      0.0319      0.0106
 27      0.0000      0.2280      0.0056      0.0038      0.0576      0.7751      0.0047      0.1200      0.0055
 28      0.0000      0.3178      0.0025      0.0010      0.0275      0.4561      0.0200      0.0693      0.0000
 29      0.0000      0.2437      0.0086      0.0031      0.0000      0.0000      0.0763      0.1481      0.0023
 30      0.0000      0.2065      0.0304      0.0033      0.0000      0.0000      0.0177      0.0007      0.0067
 31      0.0000      0.2675      0.0266      0.0112      0.1483      1.0301      0.1832      0.1358      0.2156
 32     11.7174     11.7239     13.5221     13.7809      9.4446     12.1372     21.0377      9.7720     13.0747
 33      0.0000      0.2813      0.0420      0.0087      0.1079      0.8384      0.0841      0.1569      0.0441
 34      0.0000      0.2751      0.0000      0.0106      0.1932      0.0000      0.0646      0.3140      0.0300
 35      0.0000      1.9322      2.3568      2.4227      1.9629      1.1670      1.5773      2.1182      1.6759
 36      0.0000      0.5231      0.0232      0.0032      0.6151      0.1960      0.0589      0.6084      0.5724
 37      0.0000      0.2074      0.0389      0.0030      0.1175      0.0000      0.0205      0.0148      0.0000
 38      0.0000      0.2196      0.0187      0.0048      0.0497      0.3386      0.0041      0.0000      0.0000
 39      0.0000      0.2592      0.0000      0.0017      0.0717      0.8783      0.0000      0.0836      0.0082
 40      0.0000      0.2858      0.0000      0.0014      0.0027      1.3763      0.0065      0.0000      0.0000
 41      0.0000      0.2469      0.0229      0.0022      0.0357      0.0000      0.0235      0.1025      0.0034
 42      0.0000      0.2671      0.0020      0.0019      0.2663      0.6504      0.0435      0.0000      0.0071
 43      0.0000      0.2866      0.0125      0.0023      0.0000      0.0000      0.0340      0.0337      0.0183
 44      0.0000      0.2971      0.0147      0.0019      0.0000      0.2970      0.0289      0.0000      0.0000
 45      0.0000      0.3384      0.0142      0.0026      0.0292      0.0000      0.0258      0.0751      0.0000
 46      0.0000      0.2381      0.0402      0.0039      0.0070      0.0000      0.0000      0.0000      0.0000
