###################################################################
## OUTPUT of StarlightChains_v04.for    [Cid@UFSC - 01/Apr/2007] ##
###################################################################

## Some input info
KUG0210-078._28_36.txt                   [arq_obs]
Base.CB07.vall.4m                        [arq_base]
Masks.EmLines.NEW.gm                     [arq_masks]
StCv04.C11.config                        [arq_config]
   66                                    [N_base]
    0                                    [N_YAV_components = # of components with extra extinction!]
    0                                    [i_FitPowerLaw (1/0 = Yes/No)]
-9.99                                    [alpha_PowerLaw]
CCM                                      [red_law_option]
 1.458241                                [q_norm = A(l_norm)/A(V)]

## (Re)Sampling Parameters
 3741.00                                 [l_ini (A)]
 7218.00                                 [l_fin (A)]
    1.00                                 [dl    (A)]     (OBS: dl_cushion =    50.00 A)

## Normalization info
 4020.00                                 [l_norm (A) - for base]
 4010.00                                 [llow_norm (A) - window for f_obs]
 4060.00                                 [lupp_norm (A) - window for f_obs]
1.295393E-16                             [fobs_norm (in input units)]

## S/N
 3691.00                                 [llow_SN (A) - window for S/N]
 7268.00                                 [lupp_SN (A) - window for S/N]
   5.991                                 [S/N in S/N window]
   4.690                                 [S/N in norm. window]
   0.323                                 [S/N_err in S/N window]
   0.253                                 [S/N_err in norm. window]
  1.0000                                 [fscale_chi2]

## etc...
    -2007384                             [idum_orig]
  2432                                   [NOl_eff]
  2378                                   [Nl_eff]
    54    NSIGMA                         [Ntot_cliped & clip_method]
 16274580                                [Nglobal_steps]
   7                                     [N_chains]
  45                                     [NEX0s_base = N_base in EX0s-fits]
 0   0   1       54   2.0   4.041E+04    [Clip-Bug, RC-Crash & Burn-In warning-flags, n_censored_weights, wei_nsig_threshold & wei_limit]
   464    145.319    144.224      1.095  [idt_all, wdt_TotTime, wdt_UsrTime & wdt_SysTime (sec)]

## Synthesis Results - Best model ##

 6.37218E-04                             [chi2/Nl_eff]
     4.86915                             [adev (%)]

    97.21430                             [sum-of-x (%)]
 9.11755E-15                             [Flux_tot (units of input spectrum!)]
 1.49678E-11                             [Mini_tot (???)]
 8.19539E-12                             [Mcor_tot (???)]

 323.68                                  [v0_min  (km/s)]
 149.82                                  [vd_min  (km/s)]
 3.1883                                  [AV_min  (mag)]
 0.0000                                  [YAV_min (mag)]

# j     x_j(%)      Mini_j(%)     Mcor_j(%)     age_j(yr)     Z_j      (L/M)_j    YAV?  Mstars   component_j        a/Fe...       SSP_chi2r SSP_adev(%)   SSP_AV   SSP_x(%)
  1     14.0296     8.0356E-01    1.4676E+00    1.000000E+06  0.00400  1.094E-02    0   1.0000   age020_m42            0.0000     6.8001E-04     5.1300   3.6700    93.4995
  2      0.0000     0.0000E+00    0.0000E+00    3.160000E+06  0.00400  4.007E-02    0   0.9999   age045_m42            0.0000     1.1541E-03     6.0161   2.9380   100.2576
  3      0.0000     0.0000E+00    0.0000E+00    5.010000E+06  0.00400  2.539E-02    0   0.9488   age055_m42            0.0000     9.1660E-04     5.4596   3.2623    97.5992
  4      0.0000     0.0000E+00    0.0000E+00    6.610000E+06  0.00400  2.620E-02    0   0.9220   age061_m42            0.0000     1.2217E-03     5.9747   2.8676   100.3592
  5      0.0000     0.0000E+00    0.0000E+00    1.000000E+07  0.00400  1.322E-02    0   0.8862   age070_m42            0.0000     1.0846E-03     5.7445   2.5972   102.0512
  6      0.0000     0.0000E+00    0.0000E+00    1.445000E+07  0.00400  7.883E-03    0   0.8571   age078_m42            0.0000     9.2965E-04     5.3801   2.9238    99.4432
  7      0.0000     0.0000E+00    0.0000E+00    2.512000E+07  0.00400  5.251E-03    0   0.8174   age090_m42            0.0000     1.1204E-03     5.8815   2.4693   102.5805
  8      0.0000     0.0000E+00    0.0000E+00    4.000000E+07  0.00400  3.649E-03    0   0.7851   age104_m42            0.0000     1.2252E-03     6.0892   2.2395   103.5880
  9      0.0000     0.0000E+00    0.0000E+00    5.500000E+07  0.00400  3.098E-03    0   0.7629   age110_m42            0.0000     1.4415E-03     6.3528   2.3880   103.7666
 10      0.0000     0.0000E+00    0.0000E+00    1.015200E+08  0.00400  2.228E-03    0   0.7207   age116_m42            0.0000     1.6733E-03     6.5945   2.4072   103.9912
 11      0.0000     0.0000E+00    0.0000E+00    2.861200E+08  0.00400  1.093E-03    0   0.6648   age125_m42            0.0000     1.9606E-03     7.4267   1.8367   107.0723
 12      0.0000     0.0000E+00    0.0000E+00    5.088000E+08  0.00400  6.597E-04    0   0.6365   age130_m42            0.0000     2.2860E-03     7.6880   1.8243   108.1037
 13      0.1389     4.0837E-01    4.3244E-01    1.434000E+09  0.00400  2.132E-04    0   0.5798   age139_m42            0.0000     2.3650E-03     7.8927   0.8486   110.8015
 14      0.0000     0.0000E+00    0.0000E+00    4.250000E+09  0.00400  5.895E-05    0   0.5377   age158_m42            0.0000     2.1378E-03     7.9229   0.3932   107.2948
 15      0.0000     0.0000E+00    0.0000E+00    7.500000E+09  0.00400  3.510E-05    0   0.5212   age171_m42            0.0000     2.3269E-03     8.3990   0.2004   106.7720
 16      0.0000     0.0000E+00    0.0000E+00    1.300000E+10  0.00400  2.005E-05    0   0.5034   age193_m42            0.0000     2.5266E-03     8.8504   0.0322   106.2884
 17      0.0000     0.0000E+00    0.0000E+00    1.800000E+10  0.00400  1.525E-05    0   0.4967   age213_m42            0.0000     2.4536E-03     8.7227   0.0100   105.8055
 18     42.3265     2.1423E+00    3.9126E+00    1.000000E+06  0.00800  1.238E-02    0   1.0000   age020_m52            0.0000     6.8091E-04     5.1326   3.6671    93.6578
 19     24.3862     4.9709E-01    9.0477E-01    3.160000E+06  0.00800  3.074E-02    0   0.9966   age045_m52            0.0000     7.0821E-04     5.1222   3.5912    94.4894
 20      0.0000     0.0000E+00    0.0000E+00    5.010000E+06  0.00800  2.668E-02    0   0.9443   age055_m52            0.0000     8.4023E-04     5.2563   3.3459    96.6897
 21      1.5870     4.6555E-02    7.8028E-02    6.610000E+06  0.00800  2.136E-02    0   0.9177   age061_m52            0.0000     9.3484E-04     5.4944   2.0961   103.4205
 22      0.0000     0.0000E+00    0.0000E+00    1.000000E+07  0.00800  1.215E-02    0   0.8827   age070_m52            0.0000     9.9249E-04     5.7419   2.7790   101.6637
 23      0.0000     0.0000E+00    0.0000E+00    1.445000E+07  0.00800  8.717E-03    0   0.8552   age078_m52            0.0000     9.7658E-04     5.5058   2.8891   100.8518
 24      0.0000     0.0000E+00    0.0000E+00    2.512000E+07  0.00800  5.592E-03    0   0.8162   age090_m52            0.0000     1.1774E-03     6.1413   2.5314   103.8439
 25      0.0000     0.0000E+00    0.0000E+00    4.000000E+07  0.00800  3.896E-03    0   0.7841   age104_m52            0.0000     1.3388E-03     6.4671   2.4397   104.8147
 26      0.0000     0.0000E+00    0.0000E+00    1.015200E+08  0.00800  2.148E-03    0   0.7226   age116_m52            0.0000     1.5761E-03     6.6475   2.3733   104.8740
 27      0.0000     0.0000E+00    0.0000E+00    2.861200E+08  0.00800  9.925E-04    0   0.6683   age125_m52            0.0000     2.3156E-03     7.7889   1.8878   109.1641
 28      0.0000     0.0000E+00    0.0000E+00    9.047900E+08  0.00800  3.141E-04    0   0.6138   age135_m52            0.0000     2.8232E-03     8.8718   1.0770   114.4628
 29      0.0000     0.0000E+00    0.0000E+00    1.434000E+09  0.00800  1.719E-04    0   0.5853   age139_m52            0.0000     2.4421E-03     8.6429   0.4876   112.6973
 30      0.0000     0.0000E+00    0.0000E+00    2.500000E+09  0.00800  7.872E-05    0   0.5600   age150_m52            0.0000     2.6107E-03     8.9717   0.2137   110.0217
 31      0.0000     0.0000E+00    0.0000E+00    4.250000E+09  0.00800  4.336E-05    0   0.5426   age158_m52            0.0000     2.6003E-03     8.9618   0.1985   109.0000
 32      0.0000     0.0000E+00    0.0000E+00    6.250000E+09  0.00800  3.159E-05    0   0.5319   age166_m52            0.0000     3.0030E-03     9.6409  -0.0071   109.1416
 33      0.0000     0.0000E+00    0.0000E+00    1.300000E+10  0.00800  1.361E-05    0   0.5073   age193_m52            0.0000     3.6022E-03    10.4816  -0.4772   108.5710
 34      0.0000     0.0000E+00    0.0000E+00    1.800000E+10  0.00800  9.886E-06    0   0.4990   age213_m52            0.0000     4.0943E-03    11.1822  -0.5886   108.1551
 35      9.1846     3.7274E-01    6.8076E-01    1.000000E+06  0.02000  1.544E-02    0   1.0000   age020_m62            0.0000     6.7710E-04     5.1164   3.6642    93.8332
 36      0.9272     1.5444E-02    2.7806E-02    3.160000E+06  0.02000  3.762E-02    0   0.9858   age045_m62            0.0000     6.9396E-04     5.1271   3.6031    94.6650
 37      0.0000     0.0000E+00    0.0000E+00    5.010000E+06  0.02000  3.296E-02    0   0.9342   age055_m62            0.0000     1.0573E-03     5.7254   3.2203    98.8993
 38      0.0000     0.0000E+00    0.0000E+00    8.710000E+06  0.02000  1.154E-02    0   0.8861   age067_m62            0.0000     1.1323E-03     7.4324   2.2514   103.5205
 39      0.0000     0.0000E+00    0.0000E+00    1.445000E+07  0.02000  7.663E-03    0   0.8472   age078_m62            0.0000     1.0224E-03     6.3863   2.4273   103.8715
 40      0.0000     0.0000E+00    0.0000E+00    2.512000E+07  0.02000  4.532E-03    0   0.8099   age090_m62            0.0000     1.1207E-03     6.6950   2.4199   103.5374
 41      0.0000     0.0000E+00    0.0000E+00    5.500000E+07  0.02000  2.733E-03    0   0.7595   age110_m62            0.0000     1.2877E-03     6.2947   2.4241   104.0047
 42      0.0000     0.0000E+00    0.0000E+00    1.609000E+08  0.02000  1.369E-03    0   0.6985   age120_m62            0.0000     1.9564E-03     7.0916   2.2578   107.0646
 43      0.0000     0.0000E+00    0.0000E+00    2.861200E+08  0.02000  9.013E-04    0   0.6714   age125_m62            0.0000     2.5194E-03     7.7409   2.0075   110.1868
 44      0.0722     8.9958E-02    1.0595E-01    5.088000E+08  0.02000  5.028E-04    0   0.6449   age130_m62            0.0000     3.0023E-03     8.6240   1.6201   113.6230
 45      0.0000     0.0000E+00    0.0000E+00    9.047900E+08  0.02000  2.428E-04    0   0.6179   age135_m62            0.0000     2.7858E-03     8.8685   1.0157   113.9637
 46      0.0000     0.0000E+00    0.0000E+00    1.434000E+09  0.02000  1.263E-04    0   0.5908   age139_m62            0.0000     2.6771E-03     8.9044   0.5659   112.6690
 47      0.0000     0.0000E+00    0.0000E+00    2.500000E+09  0.02000  5.985E-05    0   0.5673   age150_m62            0.0000     2.9600E-03     9.5671   0.1937   111.4444
 48      0.6004     1.1501E+01    1.1486E+01    4.250000E+09  0.02000  3.271E-05    0   0.5468   age158_m62            0.0000     3.5717E-03    10.5575  -0.1155   110.6980
 49      1.1758     5.4171E+01    5.1120E+01    1.000000E+10  0.02000  1.360E-05    0   0.5167   age181_m62            0.0000     4.5177E-03    11.7791  -0.4676   110.4023
 50      0.0730     6.4244E+00    5.8819E+00    1.800000E+10  0.02000  7.124E-06    0   0.5013   age213_m62            0.0000     5.2590E-03    12.6916  -0.6795   109.5721
 51      0.0000     0.0000E+00    0.0000E+00    1.000000E+06  0.05000  2.592E-02    0   0.9998   age020_m72            0.0000     6.4801E-04     5.0225   3.6576    93.7874
 52      0.0000     0.0000E+00    0.0000E+00    3.160000E+06  0.05000  4.845E-02    0   0.9577   age045_m72            0.0000     8.2315E-04     5.3497   3.4834    96.0612
 53      0.0000     0.0000E+00    0.0000E+00    5.010000E+06  0.05000  3.072E-02    0   0.9147   age055_m72            0.0000     9.1533E-04     5.9044   3.0051   100.0563
 54      0.0000     0.0000E+00    0.0000E+00    6.610000E+06  0.05000  1.455E-02    0   0.8877   age061_m72            0.0000     1.8178E-03     9.6990   2.2861   104.1738
 55      0.0000     0.0000E+00    0.0000E+00    1.000000E+07  0.05000  9.074E-03    0   0.8524   age070_m72            0.0000     1.1370E-03     6.8718   3.1745    99.9525
 56      0.0000     0.0000E+00    0.0000E+00    2.512000E+07  0.05000  4.250E-03    0   0.7902   age090_m72            0.0000     1.2572E-03     6.8300   2.8795   101.8999
 57      0.0000     0.0000E+00    0.0000E+00    4.000000E+07  0.05000  3.087E-03    0   0.7618   age104_m72            0.0000     1.4273E-03     7.2174   2.6534   103.5756
 58      0.0000     0.0000E+00    0.0000E+00    1.015200E+08  0.05000  1.700E-03    0   0.7096   age116_m72            0.0000     1.8509E-03     7.1454   2.3999   106.5610
 59      0.0000     0.0000E+00    0.0000E+00    2.861200E+08  0.05000  7.384E-04    0   0.6633   age125_m72            0.0000     2.8010E-03     8.2426   1.8691   112.0371
 60      0.0000     0.0000E+00    0.0000E+00    5.088000E+08  0.05000  3.819E-04    0   0.6372   age130_m72            0.0000     2.8696E-03     8.6708   1.3621   114.7502
 61      2.2204     8.3015E+00    9.2637E+00    9.047900E+08  0.05000  1.676E-04    0   0.6110   age135_m72            0.0000     2.9706E-03     9.5047   0.6481   113.7444
 62      0.0000     0.0000E+00    0.0000E+00    1.434000E+09  0.05000  8.837E-05    0   0.5874   age139_m72            0.0000     3.1642E-03     9.9385   0.1858   113.4433
 63      0.3637     5.3839E+00    5.5045E+00    2.500000E+09  0.05000  4.233E-05    0   0.5598   age150_m72            0.0000     3.7940E-03    10.9514  -0.1226   111.9508
 64      0.0481     2.1022E+00    2.0153E+00    6.250000E+09  0.05000  1.435E-05    0   0.5249   age166_m72            0.0000     4.6675E-03    12.1657  -0.5716   110.2900
 65      0.0804     7.7397E+00    7.1186E+00    1.300000E+10  0.05000  6.513E-06    0   0.5036   age193_m72            0.0000     5.6318E-03    13.2954  -0.8517   111.2388
 66      0.0000     0.0000E+00    0.0000E+00    1.800000E+10  0.05000  4.527E-06    0   0.4945   age213_m72            0.0000     6.2117E-03    13.9328  -1.0000   110.4648


## Synthesis Results - Average & Chains ##

# j      x_j: min, <> & last-chain-values for 1 ...  7 chains
  1     14.0296      0.4558      2.3410      2.4554      0.3453      0.6307      0.2349      0.0000      1.4533
  2      0.0000      0.3755      2.4222      0.0000      0.0000      0.0000      0.0000      0.0000      0.0000
  3      0.0000      0.3326      0.2867      0.6084      0.0000      0.0000      0.7534      0.0000      0.0000
  4      0.0000      0.4687      2.9383      3.4367      0.0000      0.0000      0.2688      0.0000      2.1266
  5      0.0000      0.4111      1.4927      1.6965      2.0261      0.3797      1.2829      1.3388      0.9987
  6      0.0000      0.5359      1.5517      2.9065      0.7269      1.9194      0.2965      0.0000      3.8227
  7      0.0000      0.5058      0.9396      0.3710      1.1063      1.3084      0.4731      2.3784      4.0007
  8      0.0000      0.3791      0.0000      0.0000      0.0000      1.2783      0.7114      0.7927      1.4398
  9      0.0000      0.4879      0.7782      0.0000      1.7209      0.7893      2.5823      0.0000      0.4100
 10      0.0000      0.3996      2.0373      4.0331      0.5116      0.0000      0.0000      0.0000      1.3358
 11      0.0000      0.3193      0.0000      0.0000      0.9372      1.5531      0.0000      2.2078      0.9676
 12      0.0000      0.4481      0.0000      0.0000      2.4338      0.0000      1.4400      0.4758      0.6320
 13      0.1389      0.4827      0.0000      0.0000      2.4803      0.3401      0.4103      0.0000      2.5669
 14      0.0000      0.5414      1.4133      0.0000      0.0000      2.4848      0.0000      0.8611      3.1448
 15      0.0000      0.6194      0.0000      0.0000      0.0000      0.1573      0.5665      0.0000      0.0636
 16      0.0000      0.4501      0.3874      2.4980      0.8985      0.0000      1.1357      1.8453      2.1009
 17      0.0000      0.4756      0.5410      0.0000      0.2352      0.0000      1.6200      2.7605      0.2654
 18     42.3265      0.7218      1.0126      0.5366      5.9757      2.1815      3.3838      0.3862      1.3137
 19     24.3862      0.6272      0.6592      0.0000      0.2525      2.9507      0.0000      0.1952      0.5460
 20      0.0000      0.4627      4.2307      1.3569      0.0000      1.8242      3.9622      0.0000      2.0545
 21      1.5870      0.5753      2.3298      1.8294      0.7317      0.8515      1.9490      1.6006      1.3928
 22      0.0000      0.4460      0.0000      1.8040      0.3870      2.7173      3.0566      4.8870      0.0000
 23      0.0000      0.5271      0.9161      1.8562      0.2978      1.9171      3.2477      0.9355      5.2556
 24      0.0000      0.4540      0.0000      0.0000      0.0000      2.1388      2.1859      3.0806      1.0766
 25      0.0000      0.3972      0.0000      0.5098      0.7051      0.0000      0.7890      1.8622      0.1666
 26      0.0000      0.4410      1.0271      0.5558      0.0000      1.2813      1.1510      3.8207      0.5038
 27      0.0000      0.4919      0.1308      0.2347      0.9372      0.0000      0.0000      0.6835      0.0000
 28      0.0000      0.4069      2.5984      1.3403      0.0000      0.7073      1.9070      0.0000      0.3754
 29      0.0000      0.4186      0.0000      0.0000      0.0000      0.0000      1.3219      0.0000      0.4968
 30      0.0000      0.6316      0.6906      0.4925      2.8273      0.6392      0.2707      0.5595      0.1375
 31      0.0000      0.4723      0.0000      1.3546      0.0000      2.1201      2.7114      0.8821      0.0000
 32      0.0000      0.5650      1.1684      0.0000      1.0426      0.8595      1.7650      0.0000      0.2540
 33      0.0000      0.4939      2.9094      1.6621      1.2929      0.5112      0.0000      0.3565      0.5885
 34      0.0000      0.6157      3.8983      0.0000      0.0000      0.0000      0.0000      0.0000      0.2899
 35      9.1846      0.3689      0.0000      1.5700      2.2434      0.0000      3.5860      3.1988      1.1975
 36      0.9272      0.5426      1.1461      1.5112      0.0000      0.0000      1.0930      4.1361      1.3630
 37      0.0000      0.3742      0.6039      0.0000      3.0629      0.3758      0.0000      1.1435      3.9135
 38      0.0000      0.5184      0.0000      1.6852      0.4683      8.0062      6.3685      1.7076      6.2302
 39      0.0000      0.4231      0.8358      1.3766      0.0000      0.0000      0.8700      0.5415      0.2597
 40      0.0000      0.4653      0.2744      1.9055      0.9599      0.0000      1.2238      0.0000      0.0165
 41      0.0000      0.4714      0.0000      2.3960      1.4376      0.0000      3.4036      0.0000      1.2229
 42      0.0000      0.4294      1.3908      0.0000      0.6406      0.0000      0.5583      0.0000      0.0000
 43      0.0000      0.3857      0.0000      0.9071      2.3895      6.9288      0.0393      0.9301      0.0000
 44      0.0722      0.4670      0.0000      1.6972      0.0000      0.4761      0.0000      0.4857      0.9918
 45      0.0000      0.4388      0.3258      1.0320      0.4306      1.5887      0.4692      1.3093      0.4317
 46      0.0000      0.4954      1.4133      0.6594      3.8991      0.7741      0.3416      0.1599      3.1267
