###################################################################
## OUTPUT of StarlightChains_v04.for    [Cid@UFSC - 01/Apr/2007] ##
###################################################################

## Some input info
KUG0210-078._27_30.txt                   [arq_obs]
Base.CB07.vall.4m                        [arq_base]
Masks.EmLines.NEW.gm                     [arq_masks]
StCv04.C11.config                        [arq_config]
   66                                    [N_base]
    0                                    [N_YAV_components = # of components with extra extinction!]
    0                                    [i_FitPowerLaw (1/0 = Yes/No)]
-9.99                                    [alpha_PowerLaw]
CCM                                      [red_law_option]
 1.458241                                [q_norm = A(l_norm)/A(V)]

## (Re)Sampling Parameters
 3741.00                                 [l_ini (A)]
 7218.00                                 [l_fin (A)]
    1.00                                 [dl    (A)]     (OBS: dl_cushion =    50.00 A)

## Normalization info
 4020.00                                 [l_norm (A) - for base]
 4010.00                                 [llow_norm (A) - window for f_obs]
 4060.00                                 [lupp_norm (A) - window for f_obs]
3.910051E-17                             [fobs_norm (in input units)]

## S/N
 3691.00                                 [llow_SN (A) - window for S/N]
 7268.00                                 [lupp_SN (A) - window for S/N]
   6.251                                 [S/N in S/N window]
   8.945                                 [S/N in norm. window]
   0.041                                 [S/N_err in S/N window]
   0.059                                 [S/N_err in norm. window]
  1.0000                                 [fscale_chi2]

## etc...
    -2007350                             [idum_orig]
  2432                                   [NOl_eff]
  1818                                   [Nl_eff]
   614    NSIGMA                         [Ntot_cliped & clip_method]
 15824060                                [Nglobal_steps]
   7                                     [N_chains]
  38                                     [NEX0s_base = N_base in EX0s-fits]
 0   0   1        0   2.0   4.316E+04    [Clip-Bug, RC-Crash & Burn-In warning-flags, n_censored_weights, wei_nsig_threshold & wei_limit]
   109    108.426    108.006      0.421  [idt_all, wdt_TotTime, wdt_UsrTime & wdt_SysTime (sec)]

## Synthesis Results - Best model ##

 8.76154E-06                             [chi2/Nl_eff]
     8.79128                             [adev (%)]

    82.12106                             [sum-of-x (%)]
 6.10479E-17                             [Flux_tot (units of input spectrum!)]
 1.34938E-12                             [Mini_tot (???)]
 6.80163E-13                             [Mcor_tot (???)]

 369.93                                  [v0_min  (km/s)]
 100.94                                  [vd_min  (km/s)]
 0.4784                                  [AV_min  (mag)]
 0.0000                                  [YAV_min (mag)]

# j     x_j(%)      Mini_j(%)     Mcor_j(%)     age_j(yr)     Z_j      (L/M)_j    YAV?  Mstars   component_j        a/Fe...       SSP_chi2r SSP_adev(%)   SSP_AV   SSP_x(%)
  1     16.1699     8.1428E-02    1.6155E-01    1.000000E+06  0.00400  1.094E-02    0   1.0000   age020_m42            0.0000     1.6802E-05    11.6930   2.8123    68.6631
  2      0.0000     0.0000E+00    0.0000E+00    3.160000E+06  0.00400  4.007E-02    0   0.9999   age045_m42            0.0000     1.5892E-05    11.0742   2.1404    71.6494
  3      0.0000     0.0000E+00    0.0000E+00    5.010000E+06  0.00400  2.539E-02    0   0.9488   age055_m42            0.0000     1.5663E-05    11.2639   2.4360    70.5546
  4      0.0267     5.6113E-05    1.0264E-04    6.610000E+06  0.00400  2.620E-02    0   0.9220   age061_m42            0.0000     1.5053E-05    10.8852   2.0568    72.0559
  5      0.0000     0.0000E+00    0.0000E+00    1.000000E+07  0.00400  1.322E-02    0   0.8862   age070_m42            0.0000     1.2271E-05     9.8367   1.7362    74.9449
  6     27.5474     1.9252E-01    3.2736E-01    1.445000E+07  0.00400  7.883E-03    0   0.8571   age078_m42            0.0000     1.2872E-05    10.1615   2.0577    73.1445
  7      0.0000     0.0000E+00    0.0000E+00    2.512000E+07  0.00400  5.251E-03    0   0.8174   age090_m42            0.0000     1.1918E-05     9.6149   1.6083    75.3278
  8      0.0000     0.0000E+00    0.0000E+00    4.000000E+07  0.00400  3.649E-03    0   0.7851   age104_m42            0.0000     1.1839E-05     9.6253   1.3830    75.9001
  9      0.0000     0.0000E+00    0.0000E+00    5.500000E+07  0.00400  3.098E-03    0   0.7629   age110_m42            0.0000     1.3189E-05     9.9881   1.5608    74.9828
 10      0.0000     0.0000E+00    0.0000E+00    1.015200E+08  0.00400  2.228E-03    0   0.7207   age116_m42            0.0000     1.3852E-05    10.1522   1.5987    74.5335
 11      0.0000     0.0000E+00    0.0000E+00    2.861200E+08  0.00400  1.093E-03    0   0.6648   age125_m42            0.0000     1.2357E-05     9.5454   1.0191    77.1271
 12      0.0000     0.0000E+00    0.0000E+00    5.088000E+08  0.00400  6.597E-04    0   0.6365   age130_m42            0.0000     1.3148E-05     9.8161   1.0335    76.9874
 13      0.2828     7.3082E-02    8.4064E-02    1.434000E+09  0.00400  2.132E-04    0   0.5798   age139_m42            0.0000     1.1768E-05     9.7896   0.0310    80.0040
 14      0.6050     5.6539E-01    6.0312E-01    4.250000E+09  0.00400  5.895E-05    0   0.5377   age158_m42            0.0000     1.4366E-05    10.5618  -0.4138    76.9857
 15      0.0000     0.0000E+00    0.0000E+00    7.500000E+09  0.00400  3.510E-05    0   0.5212   age171_m42            0.0000     1.6667E-05    10.9375  -0.6111    76.7108
 16      0.0000     0.0000E+00    0.0000E+00    1.300000E+10  0.00400  2.005E-05    0   0.5034   age193_m42            0.0000     1.9939E-05    11.4202  -0.7972    76.9037
 17      0.0000     0.0000E+00    0.0000E+00    1.800000E+10  0.00400  1.525E-05    0   0.4967   age213_m42            0.0000     1.9206E-05    11.2645  -0.8115    76.3561
 18      0.0000     0.0000E+00    0.0000E+00    1.000000E+06  0.00800  1.238E-02    0   1.0000   age020_m52            0.0000     1.6802E-05    11.6984   2.8078    68.8247
 19      0.0000     0.0000E+00    0.0000E+00    3.160000E+06  0.00800  3.074E-02    0   0.9966   age045_m52            0.0000     1.6614E-05    11.6605   2.7347    69.3349
 20      0.0000     0.0000E+00    0.0000E+00    5.010000E+06  0.00800  2.668E-02    0   0.9443   age055_m52            0.0000     1.5486E-05    11.3056   2.5004    70.5237
 21      0.0000     0.0000E+00    0.0000E+00    6.610000E+06  0.00800  2.136E-02    0   0.9177   age061_m52            0.0000     1.1250E-05     9.9594   1.1995    77.1781
 22      0.0000     0.0000E+00    0.0000E+00    1.000000E+07  0.00800  1.215E-02    0   0.8827   age070_m52            0.0000     1.1805E-05     9.6216   1.9002    75.2605
 23      0.0000     0.0000E+00    0.0000E+00    1.445000E+07  0.00800  8.717E-03    0   0.8552   age078_m52            0.0000     1.2572E-05     9.9939   2.0235    74.1630
 24      0.0000     0.0000E+00    0.0000E+00    2.512000E+07  0.00800  5.592E-03    0   0.8162   age090_m52            0.0000     1.1745E-05     9.4287   1.6726    76.1883
 25      0.0000     0.0000E+00    0.0000E+00    4.000000E+07  0.00800  3.896E-03    0   0.7841   age104_m52            0.0000     1.2046E-05     9.4980   1.6037    76.0696
 26      0.0408     1.0470E-03    1.5010E-03    1.015200E+08  0.00800  2.148E-03    0   0.7226   age116_m52            0.0000     1.2682E-05     9.8658   1.5603    75.3264
 27      0.0000     0.0000E+00    0.0000E+00    2.861200E+08  0.00800  9.925E-04    0   0.6683   age125_m52            0.0000     1.3001E-05     9.8530   1.0866    78.1110
 28      2.6001     4.5604E-01    5.5532E-01    9.047900E+08  0.00800  3.141E-04    0   0.6138   age135_m52            0.0000     1.2739E-05     9.9739   0.3187    80.4019
 29      0.7165     2.2964E-01    2.6665E-01    1.434000E+09  0.00800  1.719E-04    0   0.5853   age139_m52            0.0000     1.3138E-05    10.1548  -0.2967    80.1565
 30      0.0007     4.6073E-04    5.1186E-04    2.500000E+09  0.00800  7.872E-05    0   0.5600   age150_m52            0.0000     1.6716E-05    10.9473  -0.5661    77.8829
 31      0.0000     0.0000E+00    0.0000E+00    4.250000E+09  0.00800  4.336E-05    0   0.5426   age158_m52            0.0000     1.7096E-05    10.9719  -0.5788    77.0675
 32      0.0000     0.0000E+00    0.0000E+00    6.250000E+09  0.00800  3.159E-05    0   0.5319   age166_m52            0.0000     2.1109E-05    11.4669  -0.7876    77.2531
 33      0.0000     0.0000E+00    0.0000E+00    1.300000E+10  0.00800  1.361E-05    0   0.5073   age193_m52            0.0000     3.2069E-05    12.0273  -1.0000    70.8533
 34     10.9061     6.0776E+01    6.0166E+01    1.800000E+10  0.00800  9.886E-06    0   0.4990   age213_m52            0.0000     4.0268E-05    12.6827  -1.0000    67.9229
 35      0.9191     3.2796E-03    6.5064E-03    1.000000E+06  0.02000  1.544E-02    0   1.0000   age020_m62            0.0000     1.6889E-05    11.7155   2.8019    69.0768
 36      0.0000     0.0000E+00    0.0000E+00    3.160000E+06  0.02000  3.762E-02    0   0.9858   age045_m62            0.0000     1.6742E-05    11.7721   2.7302    69.9181
 37      0.1762     2.9452E-04    5.4585E-04    5.010000E+06  0.02000  3.296E-02    0   0.9342   age055_m62            0.0000     1.5892E-05    11.3179   2.3917    71.5632
 38     16.7023     7.9736E-02    1.4017E-01    8.710000E+06  0.02000  1.154E-02    0   0.8861   age067_m62            0.0000     9.2146E-06     8.4268   1.2556    81.1863
 39      0.2394     1.7214E-03    2.8932E-03    1.445000E+07  0.02000  7.663E-03    0   0.8472   age078_m62            0.0000     1.0551E-05     9.0885   1.5210    77.9941
 40      0.0000     0.0000E+00    0.0000E+00    2.512000E+07  0.02000  4.532E-03    0   0.8099   age090_m62            0.0000     1.0447E-05     8.9688   1.5174    77.6224
 41      0.0000     0.0000E+00    0.0000E+00    5.500000E+07  0.02000  2.733E-03    0   0.7595   age110_m62            0.0000     1.1482E-05     9.5098   1.5721    76.0624
 42      0.0000     0.0000E+00    0.0000E+00    1.609000E+08  0.02000  1.369E-03    0   0.6985   age120_m62            0.0000     1.2863E-05     9.8184   1.4397    77.1161
 43      0.0000     0.0000E+00    0.0000E+00    2.861200E+08  0.02000  9.013E-04    0   0.6714   age125_m62            0.0000     1.3638E-05     9.8817   1.2017    78.9045
 44      0.0000     0.0000E+00    0.0000E+00    5.088000E+08  0.02000  5.028E-04    0   0.6449   age130_m62            0.0000     1.4541E-05    10.2931   0.8582    79.7752
 45      0.0000     0.0000E+00    0.0000E+00    9.047900E+08  0.02000  2.428E-04    0   0.6179   age135_m62            0.0000     1.3027E-05    10.3656   0.2808    79.1061
 46      0.0000     0.0000E+00    0.0000E+00    1.434000E+09  0.02000  1.263E-04    0   0.5908   age139_m62            0.0000     1.4307E-05    10.6533  -0.1830    78.6277
 47      0.0000     0.0000E+00    0.0000E+00    2.500000E+09  0.02000  5.985E-05    0   0.5673   age150_m62            0.0000     1.8796E-05    11.2989  -0.5568    77.7420
 48      0.0000     0.0000E+00    0.0000E+00    4.250000E+09  0.02000  3.271E-05    0   0.5468   age158_m62            0.0000     2.7871E-05    12.1514  -0.8804    77.7105
 49      0.0000     0.0000E+00    0.0000E+00    1.000000E+10  0.02000  1.360E-05    0   0.5167   age181_m62            0.0000     4.0544E-05    12.5566  -1.0000    71.8423
 50      0.0000     0.0000E+00    0.0000E+00    1.800000E+10  0.02000  7.124E-06    0   0.5013   age213_m62            0.0000     5.3631E-05    13.2953  -1.0000    66.2366
 51      0.0000     0.0000E+00    0.0000E+00    1.000000E+06  0.05000  2.592E-02    0   0.9998   age020_m72            0.0000     1.6882E-05    11.6969   2.7937    69.1679
 52      0.0000     0.0000E+00    0.0000E+00    3.160000E+06  0.05000  4.845E-02    0   0.9577   age045_m72            0.0000     1.6513E-05    11.6614   2.6356    70.1208
 53      0.0000     0.0000E+00    0.0000E+00    5.010000E+06  0.05000  3.072E-02    0   0.9147   age055_m72            0.0000     1.2407E-05    10.0268   2.1294    74.1374
 54      0.0000     0.0000E+00    0.0000E+00    6.610000E+06  0.05000  1.455E-02    0   0.8877   age061_m72            0.0000     1.1956E-05     9.6261   1.2912    82.4743
 55      0.0000     0.0000E+00    0.0000E+00    1.000000E+07  0.05000  9.074E-03    0   0.8524   age070_m72            0.0000     1.3820E-05    10.6423   2.3245    73.6555
 56      0.0000     0.0000E+00    0.0000E+00    2.512000E+07  0.05000  4.250E-03    0   0.7902   age090_m72            0.0000     1.2873E-05     9.9008   2.0422    74.2884
 57      0.0000     0.0000E+00    0.0000E+00    4.000000E+07  0.05000  3.087E-03    0   0.7618   age104_m72            0.0000     1.2546E-05     9.5873   1.8197    75.4296
 58      0.1016     3.2916E-03    4.6338E-03    1.015200E+08  0.05000  1.700E-03    0   0.7096   age116_m72            0.0000     1.2734E-05     9.5751   1.5817    76.7863
 59      0.0000     0.0000E+00    0.0000E+00    2.861200E+08  0.05000  7.384E-04    0   0.6633   age125_m72            0.0000     1.3805E-05     9.9496   1.1012    78.7888
 60      0.0000     0.0000E+00    0.0000E+00    5.088000E+08  0.05000  3.819E-04    0   0.6372   age130_m72            0.0000     1.3265E-05    10.3402   0.6303    79.4088
 61      0.0000     0.0000E+00    0.0000E+00    9.047900E+08  0.05000  1.676E-04    0   0.6110   age135_m72            0.0000     1.5762E-05    11.1110  -0.0650    77.9785
 62      0.0000     0.0000E+00    0.0000E+00    1.434000E+09  0.05000  8.837E-05    0   0.5874   age139_m72            0.0000     1.9641E-05    11.3910  -0.5449    78.4823
 63      0.0000     0.0000E+00    0.0000E+00    2.500000E+09  0.05000  4.233E-05    0   0.5598   age150_m72            0.0000     2.8883E-05    12.2961  -0.8637    77.7130
 64      1.3302     5.1068E+00    5.3180E+00    6.250000E+09  0.05000  1.435E-05    0   0.5249   age166_m72            0.0000     4.4752E-05    12.8902  -1.0000    69.2107
 65      3.5794     3.0277E+01    3.0249E+01    1.300000E+10  0.05000  6.513E-06    0   0.5036   age193_m72            0.0000     6.8177E-05    14.3556  -1.0000    63.2342
 66      0.1768     2.1520E+00    2.1112E+00    1.800000E+10  0.05000  4.527E-06    0   0.4945   age213_m72            0.0000     8.3021E-05    15.3759  -1.0000    59.3457


## Synthesis Results - Average & Chains ##

# j      x_j: min, <> & last-chain-values for 1 ...  7 chains
  1     16.1699      2.0128      1.8027      1.9264      2.4892      2.9831      1.0360      2.2608      3.3885
  2      0.0000      0.3427      0.9003      1.1369      0.0000      0.0000      0.1396      0.3662      5.9811
  3      0.0000      0.2859      0.0000      0.0000      0.6317      0.2972      0.0000      0.0000      0.4728
  4      0.0267      0.3127      0.0000      0.0785      0.0000      0.4516      1.9152      0.5753      0.4820
  5      0.0000      0.3091      0.0000      1.4828      0.7666      0.3157      0.8815      1.4417      1.1006
  6     27.5474      0.3777      0.0000      3.0286      0.3375      0.5651      1.9033      1.3967      1.2730
  7      0.0000      0.2948      0.0000      0.1554      0.4278      0.0000      0.3518      2.6426      0.0000
  8      0.0000      0.3947      0.0000      0.0000      0.4705      0.4356      0.0000      0.0000      0.0000
  9      0.0000      0.3382      0.0000      0.2959      0.9784      0.9787      0.0000      0.0000      0.7513
 10      0.0000      0.3152      0.7992      0.9641      0.3235      0.0879      0.0000      1.4035      0.1483
 11      0.0000      0.3710      0.4619      0.0000      0.0000      0.2919      2.3977      2.7377      0.0000
 12      0.0000      0.2600      0.7099      0.2453      0.2731      0.5532      0.0000      0.9157      0.4290
 13      0.2828      0.3282      1.3693      0.0000      0.0000      0.2197      1.0575      1.4621      2.7236
 14      0.6050      3.2237      2.3910      1.9131      3.1108      3.1659      3.5509      5.0530      1.6203
 15      0.0000      0.9479      1.2658      1.9826      0.7305      0.3669      0.0000      0.0760      0.0000
 16      0.0000      1.0187      1.5341      0.8516      0.8449      1.7921      2.4917      0.0000      0.0000
 17      0.0000      4.4737      4.2398      4.9020      4.6180      4.1708      0.0000      0.0000      0.8349
 18      0.0000      0.5977      1.0418      3.0888      0.0000      0.5699      1.5355      0.0000      1.7452
 19      0.0000      1.9229      3.4627      0.8822      1.6422      2.4557      2.2288      0.8055      0.0000
 20      0.0000      7.0388      6.6738      3.3487      7.1626      6.7303      5.2605      5.4380      5.4506
 21      0.0000     14.4438     12.9826     13.7434     10.2360      9.9731     13.4398     13.9889     14.3820
 22      0.0000      0.3959      0.1121      0.3448      0.0000      0.0000      4.5229      0.0000      0.9723
 23      0.0000      0.3398      0.2105      0.0000      0.0000      0.4071      0.0000      0.7741      0.0000
 24      0.0000      0.3439      0.2359      0.9642      1.2213      0.0000      4.3700      0.0000      2.4480
 25      0.0000      0.3721      0.3946      0.7073      0.1033      0.2157      1.8546      1.3726      0.0000
 26      0.0408      0.2851      0.0000      0.0000      0.9585      0.0000      0.6072      0.1845      0.0131
 27      0.0000      0.3504      1.7741      2.9840      0.0000      0.0000      0.2889      1.4009      0.0000
 28      2.6001      0.3746      0.3403      1.4217      0.0681      0.5634      1.2579      0.0000      0.0000
 29      0.7165      0.3135      0.6539      0.0000      0.0000      0.9140      1.1403      1.2920      1.3033
 30      0.0007      0.2873      0.4777      0.0000      1.2894      0.0000      0.8170      0.0586      0.1623
 31      0.0000      0.4140      0.8946      0.0000      0.2207      1.3735      0.5711      1.2290      0.3118
 32      0.0000      0.4091      0.2237      1.4628      0.6891      0.0000      0.0000      0.9591      0.0000
 33      0.0000      4.5831      3.7289      3.4309      5.8237      4.0547      0.0000      3.5000      2.2568
 34     10.9061      6.0355      6.7931      3.6543      5.8292      5.6443      5.7400      0.1032      5.7528
 35      0.9191      0.6077      1.2216      0.1122      0.2431      0.4776      1.2648      0.0000      2.3676
 36      0.0000      4.7272      4.1022      4.8587      4.8553      5.6591      3.8473      3.7650      3.0967
 37      0.1762      1.8651      1.7685      1.6958      1.0062      1.5931      4.9157      0.0000      2.6717
 38     16.7023      0.3099      0.0000      0.0000      0.0036      0.6173      0.7509      0.1725      6.4138
 39      0.2394      0.3259      0.0000      0.6781      0.5495      0.0451      0.5641      0.0000      0.1910
 40      0.0000      0.4297      1.3818      0.0000      0.1516      1.0466      1.3370      0.0000      0.9746
 41      0.0000      0.2781      2.1618      0.6512      0.1040      0.0000      0.0000      1.1841      0.8616
 42      0.0000      0.2503      0.0671      0.0000      0.0629      0.0220      0.0000      0.0000      0.0000
 43      0.0000      0.2797      0.0460      0.9049      0.5004      0.9222      0.0000      1.6693      0.0000
 44      0.0000      0.2962      0.0000      2.1749      0.3515      0.3322      0.0000      2.8259      0.8577
 45      0.0000      0.3261      0.0000      0.2307      0.5487      0.8685      0.1729      0.8542      0.0000
 46      0.0000      0.2784      0.5911      1.1453      0.2004      0.1590      0.1506      0.1286      0.0000
