###################################################################
## OUTPUT of StarlightChains_v04.for    [Cid@UFSC - 01/Apr/2007] ##
###################################################################

## Some input info
KUG0210-078._34_22.txt                   [arq_obs]
Base.CB07.vall.4m                        [arq_base]
Masks.EmLines.NEW.gm                     [arq_masks]
StCv04.C11.config                        [arq_config]
   66                                    [N_base]
    0                                    [N_YAV_components = # of components with extra extinction!]
    0                                    [i_FitPowerLaw (1/0 = Yes/No)]
-9.99                                    [alpha_PowerLaw]
CCM                                      [red_law_option]
 1.458241                                [q_norm = A(l_norm)/A(V)]

## (Re)Sampling Parameters
 3741.00                                 [l_ini (A)]
 7218.00                                 [l_fin (A)]
    1.00                                 [dl    (A)]     (OBS: dl_cushion =    50.00 A)

## Normalization info
 4020.00                                 [l_norm (A) - for base]
 4010.00                                 [llow_norm (A) - window for f_obs]
 4060.00                                 [lupp_norm (A) - window for f_obs]
8.890584E-18                             [fobs_norm (in input units)]

## S/N
 3691.00                                 [llow_SN (A) - window for S/N]
 7268.00                                 [lupp_SN (A) - window for S/N]
   3.627                                 [S/N in S/N window]
   4.489                                 [S/N in norm. window]
   0.009                                 [S/N_err in S/N window]
   0.011                                 [S/N_err in norm. window]
  1.0000                                 [fscale_chi2]

## etc...
    -2007527                             [idum_orig]
  2357                                   [NOl_eff]
  2013                                   [Nl_eff]
   344    NSIGMA                         [Ntot_cliped & clip_method]
 10448130                                [Nglobal_steps]
   7                                     [N_chains]
  35                                     [NEX0s_base = N_base in EX0s-fits]
 0   0   1      344   2.0   7.458E+03    [Clip-Bug, RC-Crash & Burn-In warning-flags, n_censored_weights, wei_nsig_threshold & wei_limit]
    78     77.258     76.443      0.815  [idt_all, wdt_TotTime, wdt_UsrTime & wdt_SysTime (sec)]

## Synthesis Results - Best model ##

 2.75354E-06                             [chi2/Nl_eff]
    11.91960                             [adev (%)]

    97.73257                             [sum-of-x (%)]
 3.28433E-18                             [Flux_tot (units of input spectrum!)]
 2.15355E-13                             [Mini_tot (???)]
 1.08577E-13                             [Mcor_tot (???)]

-113.72                                  [v0_min  (km/s)]
 218.79                                  [vd_min  (km/s)]
-0.7244                                  [AV_min  (mag)]
 0.0000                                  [YAV_min (mag)]

# j     x_j(%)      Mini_j(%)     Mcor_j(%)     age_j(yr)     Z_j      (L/M)_j    YAV?  Mstars   component_j        a/Fe...       SSP_chi2r SSP_adev(%)   SSP_AV   SSP_x(%)
  1      0.0000     0.0000E+00    0.0000E+00    1.000000E+06  0.00400  1.094E-02    0   1.0000   age020_m42            0.0000     3.2427E-06    12.5601   2.5707    90.2197
  2      0.0000     0.0000E+00    0.0000E+00    3.160000E+06  0.00400  4.007E-02    0   0.9999   age045_m42            0.0000     3.1973E-06    12.5375   1.9075    94.0088
  3      0.0000     0.0000E+00    0.0000E+00    5.010000E+06  0.00400  2.539E-02    0   0.9488   age055_m42            0.0000     3.2042E-06    12.5120   2.2003    92.7747
  4      0.0000     0.0000E+00    0.0000E+00    6.610000E+06  0.00400  2.620E-02    0   0.9220   age061_m42            0.0000     3.1719E-06    12.5300   1.8344    94.2971
  5      0.0000     0.0000E+00    0.0000E+00    1.000000E+07  0.00400  1.322E-02    0   0.8862   age070_m42            0.0000     3.1386E-06    12.6913   1.5315    97.8460
  6      0.0000     0.0000E+00    0.0000E+00    1.445000E+07  0.00400  7.883E-03    0   0.8571   age078_m42            0.0000     3.1683E-06    12.6746   1.8449    95.7690
  7      1.1952     3.5518E-03    5.7584E-03    2.512000E+07  0.00400  5.251E-03    0   0.8174   age090_m42            0.0000     3.1399E-06    12.7643   1.4022    98.5069
  8      0.0000     0.0000E+00    0.0000E+00    4.000000E+07  0.00400  3.649E-03    0   0.7851   age104_m42            0.0000     3.1078E-06    12.7150   1.1885    98.7265
  9      0.0000     0.0000E+00    0.0000E+00    5.500000E+07  0.00400  3.098E-03    0   0.7629   age110_m42            0.0000     3.1158E-06    12.6289   1.3615    97.6272
 10      0.0000     0.0000E+00    0.0000E+00    1.015200E+08  0.00400  2.228E-03    0   0.7207   age116_m42            0.0000     3.1173E-06    12.5671   1.3940    97.1244
 11      1.4204     2.0278E-02    2.6739E-02    2.861200E+08  0.00400  1.093E-03    0   0.6648   age125_m42            0.0000     3.1275E-06    12.9439   0.8257   100.1075
 12      0.0000     0.0000E+00    0.0000E+00    5.088000E+08  0.00400  6.597E-04    0   0.6365   age130_m42            0.0000     3.0810E-06    12.7122   0.8367    99.8098
 13      0.0000     0.0000E+00    0.0000E+00    1.434000E+09  0.00400  2.132E-04    0   0.5798   age139_m42            0.0000     2.8692E-06    12.2381  -0.0978   100.2010
 14      0.0000     0.0000E+00    0.0000E+00    4.250000E+09  0.00400  5.895E-05    0   0.5377   age158_m42            0.0000     2.8387E-06    12.0021  -0.5236    95.2309
 15      0.0000     0.0000E+00    0.0000E+00    7.500000E+09  0.00400  3.510E-05    0   0.5212   age171_m42            0.0000     2.8276E-06    11.9653  -0.7013    94.0057
 16      0.0000     0.0000E+00    0.0000E+00    1.300000E+10  0.00400  2.005E-05    0   0.5034   age193_m42            0.0000     2.8353E-06    11.9699  -0.8634    93.1932
 17      0.0000     0.0000E+00    0.0000E+00    1.800000E+10  0.00400  1.525E-05    0   0.4967   age213_m42            0.0000     2.8381E-06    11.9856  -0.8881    92.8749
 18      3.3015     4.1615E-03    8.2540E-03    1.000000E+06  0.00800  1.238E-02    0   1.0000   age020_m52            0.0000     3.2406E-06    12.5541   2.5675    90.3709
 19      1.0182     5.1687E-04    1.0217E-03    3.160000E+06  0.00800  3.074E-02    0   0.9966   age045_m52            0.0000     3.2326E-06    12.5193   2.4981    90.9156
 20      0.0000     0.0000E+00    0.0000E+00    5.010000E+06  0.00800  2.668E-02    0   0.9443   age055_m52            0.0000     3.1926E-06    12.4919   2.2742    92.2886
 21      0.0000     0.0000E+00    0.0000E+00    6.610000E+06  0.00800  2.136E-02    0   0.9177   age061_m52            0.0000     3.0093E-06    12.4146   1.0295    98.9679
 22      0.0000     0.0000E+00    0.0000E+00    1.000000E+07  0.00800  1.215E-02    0   0.8827   age070_m52            0.0000     3.1645E-06    12.8461   1.6946    98.3894
 23      0.0000     0.0000E+00    0.0000E+00    1.445000E+07  0.00800  8.717E-03    0   0.8552   age078_m52            0.0000     3.1498E-06    12.6633   1.8152    96.9498
 24      0.0000     0.0000E+00    0.0000E+00    2.512000E+07  0.00800  5.592E-03    0   0.8162   age090_m52            0.0000     3.1338E-06    12.8380   1.4730    99.4237
 25      1.6436     6.5832E-03    1.0238E-02    4.000000E+07  0.00800  3.896E-03    0   0.7841   age104_m52            0.0000     3.1331E-06    12.8527   1.4045    99.2319
 26      0.0000     0.0000E+00    0.0000E+00    1.015200E+08  0.00800  2.148E-03    0   0.7226   age116_m52            0.0000     3.1184E-06    12.7077   1.3615    98.0188
 27      0.0000     0.0000E+00    0.0000E+00    2.861200E+08  0.00800  9.925E-04    0   0.6683   age125_m52            0.0000     3.0525E-06    12.6932   0.9067   100.5548
 28      0.0000     0.0000E+00    0.0000E+00    9.047900E+08  0.00800  3.141E-04    0   0.6138   age135_m52            0.0000     2.9254E-06    12.4668   0.1781   101.3068
 29      0.0000     0.0000E+00    0.0000E+00    1.434000E+09  0.00800  1.719E-04    0   0.5853   age139_m52            0.0000     2.8646E-06    12.3605  -0.4083    99.3313
 30      0.0000     0.0000E+00    0.0000E+00    2.500000E+09  0.00800  7.872E-05    0   0.5600   age150_m52            0.0000     2.8033E-06    11.9873  -0.6506    95.3004
 31      0.0000     0.0000E+00    0.0000E+00    4.250000E+09  0.00800  4.336E-05    0   0.5426   age158_m52            0.0000     2.8189E-06    11.9948  -0.6671    94.4074
 32     10.4870     5.1803E+00    5.4651E+00    6.250000E+09  0.00800  3.159E-05    0   0.5319   age166_m52            0.0000     2.8109E-06    11.9443  -0.8526    93.5355
 33      0.0000     0.0000E+00    0.0000E+00    1.300000E+10  0.00800  1.361E-05    0   0.5073   age193_m52            0.0000     3.0159E-06    12.8910  -1.0000    83.3225
 34      0.8996     1.4199E+00    1.4053E+00    1.800000E+10  0.00800  9.886E-06    0   0.4990   age213_m52            0.0000     3.1781E-06    13.3908  -1.0000    79.6278
 35      0.0000     0.0000E+00    0.0000E+00    1.000000E+06  0.02000  1.544E-02    0   1.0000   age020_m62            0.0000     3.2428E-06    12.5524   2.5625    90.6322
 36      0.0000     0.0000E+00    0.0000E+00    3.160000E+06  0.02000  3.762E-02    0   0.9858   age045_m62            0.0000     3.2318E-06    12.5457   2.4990    91.4991
 37      0.0000     0.0000E+00    0.0000E+00    5.010000E+06  0.02000  3.296E-02    0   0.9342   age055_m62            0.0000     3.1750E-06    12.4717   2.1701    93.4934
 38      0.0000     0.0000E+00    0.0000E+00    8.710000E+06  0.02000  1.154E-02    0   0.8861   age067_m62            0.0000     3.2688E-06    13.8207   1.0766   105.6146
 39      0.0000     0.0000E+00    0.0000E+00    1.445000E+07  0.02000  7.663E-03    0   0.8472   age078_m62            0.0000     3.1643E-06    13.1976   1.3251   101.6579
 40      0.0000     0.0000E+00    0.0000E+00    2.512000E+07  0.02000  4.532E-03    0   0.8099   age090_m62            0.0000     3.1904E-06    13.3501   1.3200   101.3373
 41      0.0000     0.0000E+00    0.0000E+00    5.500000E+07  0.02000  2.733E-03    0   0.7595   age110_m62            0.0000     3.0959E-06    12.7780   1.3785    98.8734
 42      9.8503     1.1228E-01    1.5555E-01    1.609000E+08  0.02000  1.369E-03    0   0.6985   age120_m62            0.0000     3.0766E-06    12.6727   1.2534    99.7431
 43      0.0000     0.0000E+00    0.0000E+00    2.861200E+08  0.02000  9.013E-04    0   0.6714   age125_m62            0.0000     3.0321E-06    12.5569   1.0304   101.3475
 44      6.9106     2.1447E-01    2.7434E-01    5.088000E+08  0.02000  5.028E-04    0   0.6449   age130_m62            0.0000     2.9819E-06    12.3732   0.7012   101.5203
 45      2.6837     1.7248E-01    2.1139E-01    9.047900E+08  0.02000  2.428E-04    0   0.6179   age135_m62            0.0000     2.8648E-06    12.1914   0.1484    99.2140
 46      0.0000     0.0000E+00    0.0000E+00    1.434000E+09  0.02000  1.263E-04    0   0.5908   age139_m62            0.0000     2.8007E-06    12.0246  -0.2856    97.1909
 47      0.0000     0.0000E+00    0.0000E+00    2.500000E+09  0.02000  5.985E-05    0   0.5673   age150_m62            0.0000     2.7905E-06    11.8976  -0.6331    94.7826
 48      0.8600     4.1027E-01    4.4495E-01    4.250000E+09  0.02000  3.271E-05    0   0.5468   age158_m62            0.0000     2.7904E-06    11.8005  -0.9129    92.7226
 49      0.0754     8.6553E-02    8.8703E-02    1.000000E+10  0.02000  1.360E-05    0   0.5167   age181_m62            0.0000     2.9361E-06    12.2906  -1.0000    84.2445
 50     21.7049     4.7543E+01    4.7272E+01    1.800000E+10  0.02000  7.124E-06    0   0.5013   age213_m62            0.0000     3.2243E-06    13.2940  -1.0000    77.4435
 51      0.0000     0.0000E+00    0.0000E+00    1.000000E+06  0.05000  2.592E-02    0   0.9998   age020_m72            0.0000     3.2605E-06    12.5548   2.5506    90.8026
 52      0.0000     0.0000E+00    0.0000E+00    3.160000E+06  0.05000  4.845E-02    0   0.9577   age045_m72            0.0000     3.2114E-06    12.5143   2.4035    91.8714
 53      0.0342     1.7389E-05    3.1548E-05    5.010000E+06  0.05000  3.072E-02    0   0.9147   age055_m72            0.0000     3.2250E-06    13.1814   1.9070    97.2597
 54      0.0000     0.0000E+00    0.0000E+00    6.610000E+06  0.05000  1.455E-02    0   0.8877   age061_m72            0.0000     3.7321E-06    15.8390   1.0684   108.9385
 55      0.0000     0.0000E+00    0.0000E+00    1.000000E+07  0.05000  9.074E-03    0   0.8524   age070_m72            0.0000     3.3969E-06    14.0940   2.0701    97.3325
 56      0.0000     0.0000E+00    0.0000E+00    2.512000E+07  0.05000  4.250E-03    0   0.7902   age090_m72            0.0000     3.2898E-06    13.5866   1.8101    97.9416
 57      0.0000     0.0000E+00    0.0000E+00    4.000000E+07  0.05000  3.087E-03    0   0.7618   age104_m72            0.0000     3.2930E-06    13.6733   1.5905    99.4062
 58      0.3821     3.5071E-03    4.9361E-03    1.015200E+08  0.05000  1.700E-03    0   0.7096   age116_m72            0.0000     3.1465E-06    12.9232   1.3813   100.0615
 59      7.5007     1.5851E-01    2.0854E-01    2.861200E+08  0.05000  7.384E-04    0   0.6633   age125_m72            0.0000     3.0052E-06    12.4866   0.9350   100.9412
 60      0.0000     0.0000E+00    0.0000E+00    5.088000E+08  0.05000  3.819E-04    0   0.6372   age130_m72            0.0000     2.8792E-06    12.1564   0.4890   100.2515
 61     12.2636     1.1418E+00    1.3837E+00    9.047900E+08  0.05000  1.676E-04    0   0.6110   age135_m72            0.0000     2.7893E-06    11.8688  -0.1623    96.1859
 62      0.0000     0.0000E+00    0.0000E+00    1.434000E+09  0.05000  8.837E-05    0   0.5874   age139_m72            0.0000     2.7803E-06    11.9150  -0.6149    95.3951
 63      0.0000     0.0000E+00    0.0000E+00    2.500000E+09  0.05000  4.233E-05    0   0.5598   age150_m72            0.0000     2.7983E-06    11.8221  -0.8948    92.6735
 64      1.9296     2.0983E+00    2.1846E+00    6.250000E+09  0.05000  1.435E-05    0   0.5249   age166_m72            0.0000     3.0526E-06    12.7184  -1.0000    81.0531
 65      5.0991     1.2217E+01    1.2203E+01    1.300000E+10  0.05000  6.513E-06    0   0.5036   age193_m72            0.0000     3.5705E-06    14.5318  -1.0000    73.7907
 66      8.4730     2.9206E+01    2.8646E+01    1.800000E+10  0.05000  4.527E-06    0   0.4945   age213_m72            0.0000     3.9871E-06    15.8023  -1.0000    69.2281


## Synthesis Results - Average & Chains ##

# j      x_j: min, <> & last-chain-values for 1 ...  7 chains
  1      0.0000      0.2054      1.2574      0.0000      0.0000      0.0873      0.1095      0.3212      0.1594
  2      0.0000      0.1753      0.2667      0.2839      0.0432      0.0000      0.0000      0.7540      0.0589
  3      0.0000      0.1986      0.0000      0.0000      0.0000      0.0772      1.1832      0.3333      0.0000
  4      0.0000      0.1713      0.0630      0.0735      0.2999      0.2271      0.7921      0.0258      0.2649
  5      0.0000      0.1481      0.1001      0.0000      0.0000      0.3920      0.4907      0.1457      0.1482
  6      0.0000      0.1753      0.5925      0.4385      0.4708      0.3271      0.0368      0.4459      0.0000
  7      1.1952      0.3888      0.2055      1.8551      0.4521      0.3911      0.1889      0.9895      0.2050
  8      0.0000      0.1965      0.0424      0.1874      0.1471      0.6303      0.1949      0.4276      0.0435
  9      0.0000      0.2076      0.0421      0.2685      0.0118      0.8664      0.0000      0.6224      0.3210
 10      0.0000      0.2661      0.0788      0.2857      0.5478      1.1136      0.3638      0.5988      0.3966
 11      1.4204      0.1800      0.2468      0.4203      0.8353      0.2305      0.0000      1.0846      0.1447
 12      0.0000      0.2672      0.0000      1.6347      0.2867      0.7633      0.3606      0.2495      0.1501
 13      0.0000      0.1159      0.6632      0.7747      0.0000      0.4627      0.2322      0.9014      0.0000
 14      0.0000      0.2267      0.1304      0.1958      0.3929      0.6854      0.5285      0.4260      0.2990
 15      0.0000      0.1716      0.9777      0.4177      0.0000      0.2768      0.1774      0.0000      0.0000
 16      0.0000      0.1893      0.0949      0.1959      0.9781      0.8374      0.0000      0.1917      0.3723
 17      0.0000      0.1290      0.0000      0.1822      0.1037      0.0000      0.4584      0.4016      0.3412
 18      3.3015      0.1859      0.6005      0.0957      0.6844      0.1264      0.3256      0.4800      0.3814
 19      1.0182      0.1791      0.1959      0.2587      0.2832      0.1909      0.0933      0.4352      0.2233
 20      0.0000      0.1907      0.2449      0.2522      0.8274      0.4633      0.0000      0.0000      0.0000
 21      0.0000      0.2458      0.0000      0.2703      0.1837      0.5950      0.1230      1.5592      0.0000
 22      0.0000      0.1555      0.4127      0.3467      0.0539      1.0142      0.3111      0.2951      0.3423
 23      0.0000      0.2332      0.3601      0.0442      0.2428      0.2120      0.2394      0.2102      0.3643
 24      0.0000      0.1654      0.0000      0.0000      0.3614      0.5830      0.8707      0.6265      0.3217
 25      1.6436      0.2177      0.0000      0.2138      1.0045      0.0177      0.5758      0.5896      0.1799
 26      0.0000      0.1664      0.3941      0.0000      0.5737      0.1350      0.1053      0.0000      0.0990
 27      0.0000      0.1918      0.0000      0.0000      0.0883      0.2811      0.3100      0.0000      0.0000
 28      0.0000      0.1545      0.0892      0.2555      0.3401      0.2022      0.0175      0.0000      0.2338
 29      0.0000      0.1927      0.5016      0.3259      0.0000      0.0000      0.2429      0.3128      0.0000
 30      0.0000      0.2036      0.4009      0.5599      0.1651      0.5607      0.0000      0.3784      0.1041
 31      0.0000      0.2292      0.1452      0.1752      0.0000      0.5324      0.0759      0.9696      0.1440
 32     10.4870      0.1583      0.2068      0.1189      0.2628      0.0044      0.2211      1.0211      0.0328
 33      0.0000      0.1471      0.0576      0.0598      0.2123      0.4765      0.2923      0.6494      0.3145
 34      0.8996      0.1722      0.4146      0.0000      0.8204      0.6115      0.7968      0.1244      0.2413
 35      0.0000      0.2154      0.6103      0.2334      0.3031      0.9770      0.0889      0.6166      0.1814
 36      0.0000      0.2193      0.3717      0.2733      0.7591      0.0000      0.1852      0.1268      0.0549
 37      0.0000      0.1846      0.1327      0.6495      0.0283      0.2169      0.0730      0.1159      0.4561
 38      0.0000      0.2092      0.5364      0.0000      0.0712      0.2672      0.4083      0.0424      0.1800
 39      0.0000      0.1554      0.0000      0.5332      0.1610      0.8841      0.0592      0.0000      0.0000
 40      0.0000      0.1725      0.2082      0.5526      0.0218      0.0000      0.0000      0.1323      0.3932
 41      0.0000      0.1758      0.0000      0.1557      0.1861      0.7740      0.3756      0.2655      0.0351
 42      9.8503      0.2007      0.0000      0.2549      1.3129      0.2916      0.6299      0.2659      0.0000
 43      0.0000      0.1180      0.0000      0.2462      0.0000      0.4159      0.6119      0.0000      0.1339
 44      6.9106      1.0567      0.7895      0.1047      1.3292      0.9771      1.1210      0.2682      0.8517
 45      2.6837      0.1656      0.1490      0.4477      0.2495      0.0000      0.4249      0.0799      0.1179
 46      0.0000      0.1644      0.0000      0.6423      0.4421      0.1223      0.0000      0.0439      0.0365
