###################################################################
## OUTPUT of StarlightChains_v04.for    [Cid@UFSC - 01/Apr/2007] ##
###################################################################

## Some input info
KUG0210-078._40_46.txt                   [arq_obs]
Base.CB07.vall.4m                        [arq_base]
Masks.EmLines.NEW.gm                     [arq_masks]
StCv04.C11.config                        [arq_config]
   66                                    [N_base]
    0                                    [N_YAV_components = # of components with extra extinction!]
    0                                    [i_FitPowerLaw (1/0 = Yes/No)]
-9.99                                    [alpha_PowerLaw]
CCM                                      [red_law_option]
 1.458241                                [q_norm = A(l_norm)/A(V)]

## (Re)Sampling Parameters
 3741.00                                 [l_ini (A)]
 7218.00                                 [l_fin (A)]
    1.00                                 [dl    (A)]     (OBS: dl_cushion =    50.00 A)

## Normalization info
 4020.00                                 [l_norm (A) - for base]
 4010.00                                 [llow_norm (A) - window for f_obs]
 4060.00                                 [lupp_norm (A) - window for f_obs]
6.344414E-19                             [fobs_norm (in input units)]

## S/N
 3691.00                                 [llow_SN (A) - window for S/N]
 7268.00                                 [lupp_SN (A) - window for S/N]
   3.802                                 [S/N in S/N window]
   0.325                                 [S/N in norm. window]
   0.008                                 [S/N_err in S/N window]
   0.001                                 [S/N_err in norm. window]
  1.0000                                 [fscale_chi2]

## etc...
    -2007731                             [idum_orig]
  2271                                   [NOl_eff]
  2110                                   [Nl_eff]
   161    NSIGMA                         [Ntot_cliped & clip_method]
  1312220                                [Nglobal_steps]
   7                                     [N_chains]
  35                                     [NEX0s_base = N_base in EX0s-fits]
 0   0   1      161   2.0   3.649E+02    [Clip-Bug, RC-Crash & Burn-In warning-flags, n_censored_weights, wei_nsig_threshold & wei_limit]
    37     36.922     36.073      0.849  [idt_all, wdt_TotTime, wdt_UsrTime & wdt_SysTime (sec)]

## Synthesis Results - Best model ##

 2.26994E-05                             [chi2/Nl_eff]
    38.82822                             [adev (%)]

   129.86256                             [sum-of-x (%)]
 7.52926E-17                             [Flux_tot (units of input spectrum!)]
 9.40001E-12                             [Mini_tot (???)]
 4.67402E-12                             [Mcor_tot (???)]

-436.05                                  [v0_min  (km/s)]
 403.03                                  [vd_min  (km/s)]
 3.3617                                  [AV_min  (mag)]
 0.0000                                  [YAV_min (mag)]

# j     x_j(%)      Mini_j(%)     Mcor_j(%)     age_j(yr)     Z_j      (L/M)_j    YAV?  Mstars   component_j        a/Fe...       SSP_chi2r SSP_adev(%)   SSP_AV   SSP_x(%)
  1      2.6195     1.4768E-03    2.9701E-03    1.000000E+06  0.00400  1.094E-02    0   1.0000   age020_m42            0.0000     2.8893E-06    14.6888   3.7849   824.2474
  2      0.0000     0.0000E+00    0.0000E+00    3.160000E+06  0.00400  4.007E-02    0   0.9999   age045_m42            0.0000     2.9365E-06    14.9773   3.1208   856.0139
  3      0.0000     0.0000E+00    0.0000E+00    5.010000E+06  0.00400  2.539E-02    0   0.9488   age055_m42            0.0000     2.9091E-06    14.8311   3.4103   847.1040
  4      0.4445     1.0465E-04    1.9406E-04    6.610000E+06  0.00400  2.620E-02    0   0.9220   age061_m42            0.0000     2.9382E-06    15.0395   3.0422   859.8323
  5      0.0000     0.0000E+00    0.0000E+00    1.000000E+07  0.00400  1.322E-02    0   0.8862   age070_m42            0.0000     2.9907E-06    15.5165   2.7206   895.0452
  6      0.0000     0.0000E+00    0.0000E+00    1.445000E+07  0.00400  7.883E-03    0   0.8571   age078_m42            0.0000     2.9716E-06    15.3808   3.0356   877.0297
  7      0.0000     0.0000E+00    0.0000E+00    2.512000E+07  0.00400  5.251E-03    0   0.8174   age090_m42            0.0000     3.0201E-06    15.6664   2.5890   900.9376
  8      0.0000     0.0000E+00    0.0000E+00    4.000000E+07  0.00400  3.649E-03    0   0.7851   age104_m42            0.0000     3.0114E-06    15.6449   2.3770   901.9108
  9      0.2736     5.4478E-04    8.3584E-04    5.500000E+07  0.00400  3.098E-03    0   0.7629   age110_m42            0.0000     3.0004E-06    15.4938   2.5565   890.8130
 10      0.0000     0.0000E+00    0.0000E+00    1.015200E+08  0.00400  2.228E-03    0   0.7207   age116_m42            0.0000     2.9948E-06    15.4087   2.5935   885.3499
 11      0.0000     0.0000E+00    0.0000E+00    2.861200E+08  0.00400  1.093E-03    0   0.6648   age125_m42            0.0000     3.0644E-06    15.9555   2.0193   911.6526
 12      0.0000     0.0000E+00    0.0000E+00    5.088000E+08  0.00400  6.597E-04    0   0.6365   age130_m42            0.0000     3.0142E-06    15.6639   2.0391   906.7909
 13      0.0000     0.0000E+00    0.0000E+00    1.434000E+09  0.00400  2.132E-04    0   0.5798   age139_m42            0.0000     2.9013E-06    15.2948   1.1044   909.4520
 14      0.4399     4.6024E-02    4.9770E-02    4.250000E+09  0.00400  5.895E-05    0   0.5377   age158_m42            0.0000     2.7553E-06    14.6040   0.6778   868.0568
 15      0.0000     0.0000E+00    0.0000E+00    7.500000E+09  0.00400  3.510E-05    0   0.5212   age171_m42            0.0000     2.7259E-06    14.4764   0.5014   857.1093
 16      0.9938     3.0571E-01    3.0950E-01    1.300000E+10  0.00400  2.005E-05    0   0.5034   age193_m42            0.0000     2.7054E-06    14.3938   0.3432   849.1170
 17      2.5315     1.0239E+00    1.0228E+00    1.800000E+10  0.00400  1.525E-05    0   0.4967   age213_m42            0.0000     2.7140E-06    14.4162   0.3178   846.2513
 18      2.3144     1.1531E-03    2.3189E-03    1.000000E+06  0.00800  1.238E-02    0   1.0000   age020_m52            0.0000     2.8863E-06    14.6784   3.7812   825.8316
 19      0.0000     0.0000E+00    0.0000E+00    3.160000E+06  0.00800  3.074E-02    0   0.9966   age045_m52            0.0000     2.8821E-06    14.6528   3.7118   830.6349
 20      0.3299     7.6266E-05    1.4484E-04    5.010000E+06  0.00800  2.668E-02    0   0.9443   age055_m52            0.0000     2.8943E-06    14.7740   3.4834   843.2686
 21      0.0000     0.0000E+00    0.0000E+00    6.610000E+06  0.00800  2.136E-02    0   0.9177   age061_m52            0.0000     2.8841E-06    15.1745   2.2231   903.9705
 22      0.0000     0.0000E+00    0.0000E+00    1.000000E+07  0.00800  1.215E-02    0   0.8827   age070_m52            0.0000     3.0202E-06    15.7071   2.8804   900.9186
 23      0.0000     0.0000E+00    0.0000E+00    1.445000E+07  0.00800  8.717E-03    0   0.8552   age078_m52            0.0000     2.9750E-06    15.4129   3.0051   887.6899
 24      0.0000     0.0000E+00    0.0000E+00    2.512000E+07  0.00800  5.592E-03    0   0.8162   age090_m52            0.0000     3.0450E-06    15.7912   2.6534   910.9800
 25      0.0000     0.0000E+00    0.0000E+00    4.000000E+07  0.00800  3.896E-03    0   0.7841   age104_m52            0.0000     3.0457E-06    15.7977   2.5876   908.4642
 26      0.0000     0.0000E+00    0.0000E+00    1.015200E+08  0.00800  2.148E-03    0   0.7226   age116_m52            0.0000     3.0051E-06    15.5544   2.5515   896.0775
 27      0.4571     2.8406E-03    3.8178E-03    2.861200E+08  0.00800  9.925E-04    0   0.6683   age125_m52            0.0000     3.0092E-06    15.6349   2.1034   915.7617
 28      0.0000     0.0000E+00    0.0000E+00    9.047900E+08  0.00800  3.141E-04    0   0.6138   age135_m52            0.0000     2.9184E-06    15.3367   1.3680   925.1407
 29      0.0000     0.0000E+00    0.0000E+00    1.434000E+09  0.00800  1.719E-04    0   0.5853   age139_m52            0.0000     2.8454E-06    15.1475   0.7746   910.3401
 30      0.0000     0.0000E+00    0.0000E+00    2.500000E+09  0.00800  7.872E-05    0   0.5600   age150_m52            0.0000     2.7300E-06    14.4826   0.5366   874.7259
 31     11.5074     1.6369E+00    1.7863E+00    4.250000E+09  0.00800  4.336E-05    0   0.5426   age158_m52            0.0000     2.7207E-06    14.4241   0.5220   866.2008
 32      0.3249     6.3440E-02    6.7863E-02    6.250000E+09  0.00800  3.159E-05    0   0.5319   age166_m52            0.0000     2.6963E-06    14.2598   0.3390   858.3467
 33      2.1669     9.8204E-01    1.0019E+00    1.300000E+10  0.00800  1.361E-05    0   0.5073   age193_m52            0.0000     2.6928E-06    14.0633  -0.1062   843.3909
 34     54.8939     3.4249E+01    3.4370E+01    1.800000E+10  0.00800  9.886E-06    0   0.4990   age213_m52            0.0000     2.6996E-06    13.9600  -0.1956   831.9431
 35      0.0000     0.0000E+00    0.0000E+00    1.000000E+06  0.02000  1.544E-02    0   1.0000   age020_m62            0.0000     2.8833E-06    14.6677   3.7775   827.7847
 36      0.0000     0.0000E+00    0.0000E+00    3.160000E+06  0.02000  3.762E-02    0   0.9858   age045_m62            0.0000     2.8784E-06    14.6449   3.7154   835.1913
 37      0.0000     0.0000E+00    0.0000E+00    5.010000E+06  0.02000  3.296E-02    0   0.9342   age055_m62            0.0000     2.9051E-06    14.8149   3.3829   852.6628
 38      2.0501     1.0958E-03    1.9527E-03    8.710000E+06  0.02000  1.154E-02    0   0.8861   age067_m62            0.0000     3.3077E-06    17.1553   2.2350   969.3777
 39      0.0000     0.0000E+00    0.0000E+00    1.445000E+07  0.02000  7.663E-03    0   0.8472   age078_m62            0.0000     3.1005E-06    16.2277   2.5012   931.3602
 40      0.0000     0.0000E+00    0.0000E+00    2.512000E+07  0.02000  4.532E-03    0   0.8099   age090_m62            0.0000     3.1448E-06    16.4330   2.4899   930.0300
 41      0.0000     0.0000E+00    0.0000E+00    5.500000E+07  0.02000  2.733E-03    0   0.7595   age110_m62            0.0000     3.0142E-06    15.6927   2.5602   905.9950
 42      0.8991     4.0508E-03    5.6904E-03    1.609000E+08  0.02000  1.369E-03    0   0.6985   age120_m62            0.0000     3.0089E-06    15.5728   2.4428   911.7394
 43      0.0000     0.0000E+00    0.0000E+00    2.861200E+08  0.02000  9.013E-04    0   0.6714   age125_m62            0.0000     3.0039E-06    15.5266   2.2254   923.9688
 44      0.3508     4.3034E-03    5.5814E-03    5.088000E+08  0.02000  5.028E-04    0   0.6449   age130_m62            0.0000     2.9411E-06    15.2232   1.8988   925.5745
 45      0.4548     1.1553E-02    1.4356E-02    9.047900E+08  0.02000  2.428E-04    0   0.6179   age135_m62            0.0000     2.8287E-06    14.8670   1.3342   909.9567
 46      0.0000     0.0000E+00    0.0000E+00    1.434000E+09  0.02000  1.263E-04    0   0.5908   age139_m62            0.0000     2.7572E-06    14.5653   0.8929   894.8651
 47      0.0000     0.0000E+00    0.0000E+00    2.500000E+09  0.02000  5.985E-05    0   0.5673   age150_m62            0.0000     2.7050E-06    14.2050   0.5443   875.1733
 48      0.0000     0.0000E+00    0.0000E+00    4.250000E+09  0.02000  3.271E-05    0   0.5468   age158_m62            0.0000     2.6922E-06    13.9583   0.2653   857.1638
 49      0.0000     0.0000E+00    0.0000E+00    1.000000E+10  0.02000  1.360E-05    0   0.5167   age181_m62            0.0000     2.7274E-06    13.8309  -0.0464   839.2075
 50      0.0000     0.0000E+00    0.0000E+00    1.800000E+10  0.02000  7.124E-06    0   0.5013   age213_m62            0.0000     2.7803E-06    13.7762  -0.2330   823.3007
 51      0.0000     0.0000E+00    0.0000E+00    1.000000E+06  0.05000  2.592E-02    0   0.9998   age020_m72            0.0000     2.8810E-06    14.6631   3.7634   830.0946
 52      0.3674     4.6767E-05    9.0076E-05    3.160000E+06  0.05000  4.845E-02    0   0.9577   age045_m72            0.0000     2.8884E-06    14.6821   3.6172   839.0778
 53      0.0000     0.0000E+00    0.0000E+00    5.010000E+06  0.05000  3.072E-02    0   0.9147   age055_m72            0.0000     3.0237E-06    15.8573   3.0883   893.4387
 54      0.0000     0.0000E+00    0.0000E+00    6.610000E+06  0.05000  1.455E-02    0   0.8877   age061_m72            0.0000     3.7814E-06    19.3966   2.2121  1001.9068
 55      0.0000     0.0000E+00    0.0000E+00    1.000000E+07  0.05000  9.074E-03    0   0.8524   age070_m72            0.0000     3.1747E-06    16.6224   3.2477   895.3837
 56      0.0000     0.0000E+00    0.0000E+00    2.512000E+07  0.05000  4.250E-03    0   0.7902   age090_m72            0.0000     3.1404E-06    16.3958   2.9859   900.0471
 57      0.0000     0.0000E+00    0.0000E+00    4.000000E+07  0.05000  3.087E-03    0   0.7618   age104_m72            0.0000     3.1936E-06    16.6460   2.7635   912.8869
 58      0.4426     1.6058E-03    2.2917E-03    1.015200E+08  0.05000  1.700E-03    0   0.7096   age116_m72            0.0000     3.0728E-06    15.8839   2.5670   915.0991
 59      0.0000     0.0000E+00    0.0000E+00    2.861200E+08  0.05000  7.384E-04    0   0.6633   age125_m72            0.0000     2.9794E-06    15.3924   2.1235   923.2484
 60      0.0000     0.0000E+00    0.0000E+00    5.088000E+08  0.05000  3.819E-04    0   0.6372   age130_m72            0.0000     2.8656E-06    14.8921   1.6735   920.0495
 61      0.0000     0.0000E+00    0.0000E+00    9.047900E+08  0.05000  1.676E-04    0   0.6110   age135_m72            0.0000     2.7308E-06    14.2454   1.0112   889.5623
 62      0.2945     2.0554E-02    2.4281E-02    1.434000E+09  0.05000  8.837E-05    0   0.5874   age139_m72            0.0000     2.7194E-06    14.2369   0.5553   883.0755
 63      0.0000     0.0000E+00    0.0000E+00    2.500000E+09  0.05000  4.233E-05    0   0.5598   age150_m72            0.0000     2.7027E-06    13.9195   0.2752   860.3378
 64      0.3057     1.3142E-01    1.3873E-01    6.250000E+09  0.05000  1.435E-05    0   0.5249   age166_m72            0.0000     2.7550E-06    13.8464  -0.1361   832.6774
 65      0.8290     7.8513E-01    7.9517E-01    1.300000E+10  0.05000  6.513E-06    0   0.5036   age193_m72            0.0000     2.8428E-06    13.8179  -0.3920   830.4719
 66     44.5713     6.0727E+01    6.0393E+01    1.800000E+10  0.05000  4.527E-06    0   0.4945   age213_m72            0.0000     2.9257E-06    13.8647  -0.5344   821.2304


## Synthesis Results - Average & Chains ##

# j      x_j: min, <> & last-chain-values for 1 ...  7 chains
  1      2.6195      3.0946      2.8884      2.5530      3.7316      3.0753      4.7081      3.4257      2.9495
  2      0.0000      1.2470      0.0000      0.0000      0.0000      0.0000      0.0480      0.0000      0.8413
  3      0.0000      0.8413      0.0000      0.1262      0.3926      0.0093      0.1043      1.5093      0.0000
  4      0.4445      0.5557      0.0000      0.4333      1.0909      0.0000      0.1103      0.0000      0.6968
  5      0.0000      0.8996      0.0000      0.0549      0.5275      0.1400      0.3381      0.2408      0.0000
  6      0.0000      0.9141      0.0799      0.4284      0.1831      0.1716      0.0685      0.0000      0.0420
  7      0.0000      1.1384      0.6743      0.0000      0.0000      0.0000      0.0000      0.4553      0.0000
  8      0.0000      0.8942      0.0000      0.1492      0.5671      0.1924      0.0000      1.0715      0.1453
  9      0.2736      1.5085      0.8193      0.2667      0.0000      0.7750      0.0000      0.0000      0.0502
 10      0.0000      1.1900      0.0000      0.0000      0.7154      0.0000      0.0000      0.2572      0.4560
 11      0.0000      1.0034      1.7922      0.0855      0.0000      0.0000      0.0000      1.4007      0.0000
 12      0.0000      1.2724      0.0161      0.3630      1.4484      0.2659      0.5371      0.0000      0.2919
 13      0.0000      0.8958      0.7477      0.0000      0.0000      0.4187      0.2315      0.3377      0.4614
 14      0.4399      1.0930      1.1044      0.4287      0.2086      0.5568      0.1025      0.8718      0.3528
 15      0.0000      1.0690      2.0502      0.0000      0.6756      0.7205      0.0000      0.3778      0.1205
 16      0.9938      1.2028      0.0845      1.6954      2.1352      0.5407      1.1242      1.5636      1.4339
 17      2.5315      1.2977      2.1901      2.4673      3.0815      2.4624      2.1956      0.7068      1.4500
 18      2.3144      1.9163      3.3926      2.2557      2.7165      2.1639      0.5692      2.2772      2.3627
 19      0.0000      2.9743      2.4151      3.1317      3.0823      3.1762      1.8148      5.0904      3.3832
 20      0.3299      1.5967      1.0273      0.3215      0.0000      0.4970      1.5945      0.0000      0.0000
 21      0.0000      1.3031      0.0724      0.0887      0.0000      0.7868      0.1774      0.0000      0.6348
 22      0.0000      0.9444      0.4283      0.8724      0.5496      0.3205      1.4046      0.0000      0.2810
 23      0.0000      0.9852      0.1232      0.3035      0.2413      0.4422      0.2084      0.0000      0.6425
 24      0.0000      0.9658      0.2753      0.1944      0.0000      0.0000      0.0651      0.0000      0.6195
 25      0.0000      0.9533      0.1588      0.0000      0.3542      2.1423      1.1135      0.0000      0.1863
 26      0.0000      0.9151      0.3292      0.0423      0.0000      1.1007      0.6033      0.1433      0.6752
 27      0.4571      1.1621      2.1435      0.4455      0.2063      0.4144      0.1413      1.0365      0.5598
 28      0.0000      1.0873      0.9886      0.2013      0.0000      0.9391      0.0000      0.0000      0.5468
 29      0.0000      1.1421      0.3894      0.0882      0.0000      0.0795      0.3388      0.0000      0.3900
 30      0.0000      1.3890      0.0000      0.0503      0.7903      0.1779      0.5655      1.4920      0.3549
 31     11.5074      1.3336      1.0118      0.9479      1.3966      0.0000      1.3056      0.0000      0.0641
 32      0.3249      1.1664      0.0000      0.3167      0.3125      0.0008      0.6484      1.3159      0.2710
 33      2.1669      2.3153      3.3484      2.1120      1.5340      2.0876      2.0703      0.7559      2.1222
 34     54.8939     27.3058     43.3232     53.5021     47.2203     51.7810     48.5229     50.0091     51.1280
 35      0.0000      1.9559      2.4625      3.0753      3.6870      2.4452      1.6798      1.5874      2.9351
 36      0.0000      1.6153      2.3752      1.6294      2.6417      1.4406      1.1641      2.2758      0.8398
 37      0.0000      1.1294      0.4404      0.2750      0.0761      0.5951      0.0000      0.4450      0.0000
 38      2.0501      1.9453      2.8499      1.9981      1.4163      3.9855      3.3754      1.4853      0.5400
 39      0.0000      0.8892      0.1201      0.3224      0.5332      0.6190      1.2725      0.3033      1.1461
 40      0.0000      1.0916      0.0000      0.1935      0.4074      0.0000      0.0469      0.0000      0.6211
 41      0.0000      1.7353      0.3412      0.0000      0.7722      0.6959      0.9113      0.0513      0.8268
 42      0.8991      1.0943      0.0000      0.8763      0.0000      0.0000      0.0000      0.0000      0.2219
 43      0.0000      1.3899      1.8343      0.0000      0.5382      0.0000      0.0567      0.6134      1.1383
 44      0.3508      0.9853      0.0000      0.3419      0.0000      0.3102      0.1400      0.0000      0.3604
 45      0.4548      1.2562      0.0000      0.4432      0.0000      1.2405      0.2020      0.8917      0.0000
 46      0.0000      1.2366      1.5979      0.2112      0.4067      0.2817      1.3294      0.0821      0.2775
