###################################################################
## OUTPUT of StarlightChains_v04.for    [Cid@UFSC - 01/Apr/2007] ##
###################################################################

## Some input info
KUG0210-078._28_41.txt                   [arq_obs]
Base.CB07.vall.4m                        [arq_base]
Masks.EmLines.NEW.gm                     [arq_masks]
StCv04.C11.config                        [arq_config]
   66                                    [N_base]
    0                                    [N_YAV_components = # of components with extra extinction!]
    0                                    [i_FitPowerLaw (1/0 = Yes/No)]
-9.99                                    [alpha_PowerLaw]
CCM                                      [red_law_option]
 1.458241                                [q_norm = A(l_norm)/A(V)]

## (Re)Sampling Parameters
 3741.00                                 [l_ini (A)]
 7218.00                                 [l_fin (A)]
    1.00                                 [dl    (A)]     (OBS: dl_cushion =    50.00 A)

## Normalization info
 4020.00                                 [l_norm (A) - for base]
 4010.00                                 [llow_norm (A) - window for f_obs]
 4060.00                                 [lupp_norm (A) - window for f_obs]
1.190712E-17                             [fobs_norm (in input units)]

## S/N
 3691.00                                 [llow_SN (A) - window for S/N]
 7268.00                                 [lupp_SN (A) - window for S/N]
   4.333                                 [S/N in S/N window]
   4.783                                 [S/N in norm. window]
   0.015                                 [S/N_err in S/N window]
   0.017                                 [S/N_err in norm. window]
  1.0000                                 [fscale_chi2]

## etc...
    -2007389                             [idum_orig]
  2430                                   [NOl_eff]
  1939                                   [Nl_eff]
   491    NSIGMA                         [Ntot_cliped & clip_method]
 15053290                                [Nglobal_steps]
   7                                     [N_chains]
  10                                     [NEX0s_base = N_base in EX0s-fits]
 0   1   1        0   2.0   1.181E+04    [Clip-Bug, RC-Crash & Burn-In warning-flags, n_censored_weights, wei_nsig_threshold & wei_limit]
   284    282.802    281.707      1.095  [idt_all, wdt_TotTime, wdt_UsrTime & wdt_SysTime (sec)]

## Synthesis Results - Best model ##

 4.34054E-03                             [chi2/Nl_eff]
    19.17637                             [adev (%)]

   125.17603                             [sum-of-x (%)]
 5.76364E-18                             [Flux_tot (units of input spectrum!)]
 1.70952E-13                             [Mini_tot (???)]
 9.07764E-14                             [Mcor_tot (???)]

 -66.38                                  [v0_min  (km/s)]
 148.64                                  [vd_min  (km/s)]
-0.7074                                  [AV_min  (mag)]
 0.0000                                  [YAV_min (mag)]

# j     x_j(%)      Mini_j(%)     Mcor_j(%)     age_j(yr)     Z_j      (L/M)_j    YAV?  Mstars   component_j        a/Fe...       SSP_chi2r SSP_adev(%)   SSP_AV   SSP_x(%)
  1      0.0000     0.0000E+00    0.0000E+00    1.000000E+06  0.00400  1.094E-02    0   1.0000   age020_m42            0.0000     9.5083E+00   228.1267  -1.0000  1169.5087
  2      0.0000     0.0000E+00    0.0000E+00    3.160000E+06  0.00400  4.007E-02    0   0.9999   age045_m42            0.0000     9.3564E+00   157.7108  -1.0000   773.8782
  3      0.0000     0.0000E+00    0.0000E+00    5.010000E+06  0.00400  2.539E-02    0   0.9488   age055_m42            0.0000     8.1993E+00   185.9878  -1.0000   932.4993
  4      0.0000     0.0000E+00    0.0000E+00    6.610000E+06  0.00400  2.620E-02    0   0.9220   age061_m42            0.0000     1.0420E+01   150.2037  -1.0000   735.6796
  5      0.0000     0.0000E+00    0.0000E+00    1.000000E+07  0.00400  1.322E-02    0   0.8862   age070_m42            0.0000     4.0083E+00   119.0569  -1.0000   603.1053
  6      0.0000     0.0000E+00    0.0000E+00    1.445000E+07  0.00400  7.883E-03    0   0.8571   age078_m42            0.0000     4.1071E+00   143.8960  -1.0000   730.4559
  7      0.0000     0.0000E+00    0.0000E+00    2.512000E+07  0.00400  5.251E-03    0   0.8174   age090_m42            0.0000     2.9276E+00   109.7872  -1.0000   556.0925
  8      0.0000     0.0000E+00    0.0000E+00    4.000000E+07  0.00400  3.649E-03    0   0.7851   age104_m42            0.0000     2.3365E+00    96.6615  -1.0000   484.9173
  9      0.0000     0.0000E+00    0.0000E+00    5.500000E+07  0.00400  3.098E-03    0   0.7629   age110_m42            0.0000     4.1977E+00   109.2402  -1.0000   542.0509
 10      0.0000     0.0000E+00    0.0000E+00    1.015200E+08  0.00400  2.228E-03    0   0.7207   age116_m42            0.0000     5.5402E+00   112.7559  -1.0000   554.6901
 11      0.0000     0.0000E+00    0.0000E+00    2.861200E+08  0.00400  1.093E-03    0   0.6648   age125_m42            0.0000     8.2061E+00    72.0310  -1.0000   378.4557
 12      0.0000     0.0000E+00    0.0000E+00    5.088000E+08  0.00400  6.597E-04    0   0.6365   age130_m42            0.0000     5.8327E+00    75.1463  -1.0000   385.7305
 13      0.0000     0.0000E+00    0.0000E+00    1.434000E+09  0.00400  2.132E-04    0   0.5798   age139_m42            0.0000     5.4690E+00    38.4918  -1.0000   215.1502
 14      0.0000     0.0000E+00    0.0000E+00    4.250000E+09  0.00400  5.895E-05    0   0.5377   age158_m42            0.0000     4.1061E+00    29.0669  -1.0000   160.9974
 15      0.0000     0.0000E+00    0.0000E+00    7.500000E+09  0.00400  3.510E-05    0   0.5212   age171_m42            0.0000     2.6350E+00    24.6309  -1.0000   142.3350
 16      0.0000     0.0000E+00    0.0000E+00    1.300000E+10  0.00400  2.005E-05    0   0.5034   age193_m42            0.0000     2.5763E+00    20.8793  -1.0000   127.3837
 17      0.0000     0.0000E+00    0.0000E+00    1.800000E+10  0.00400  1.525E-05    0   0.4967   age213_m42            0.0000     3.3088E+00    20.2873  -1.0000   124.8605
 18      0.0000     0.0000E+00    0.0000E+00    1.000000E+06  0.00800  1.238E-02    0   1.0000   age020_m52            0.0000     9.6859E+00   227.8898  -1.0000  1169.4919
 19      0.0000     0.0000E+00    0.0000E+00    3.160000E+06  0.00800  3.074E-02    0   0.9966   age045_m52            0.0000     9.3807E+00   221.0257  -1.0000  1127.3060
 20      0.0000     0.0000E+00    0.0000E+00    5.010000E+06  0.00800  2.668E-02    0   0.9443   age055_m52            0.0000     8.3479E+00   193.3548  -1.0000   974.1348
 21      0.0000     0.0000E+00    0.0000E+00    6.610000E+06  0.00800  2.136E-02    0   0.9177   age061_m52            0.0000     3.6826E+00    92.3091  -1.0000   449.7577
 22      0.0000     0.0000E+00    0.0000E+00    1.000000E+07  0.00800  1.215E-02    0   0.8827   age070_m52            0.0000     2.3126E+00   126.4446  -1.0000   662.5441
 23      0.0000     0.0000E+00    0.0000E+00    1.445000E+07  0.00800  8.717E-03    0   0.8552   age078_m52            0.0000     2.4116E+00   140.5692  -1.0000   721.9653
 24      0.0000     0.0000E+00    0.0000E+00    2.512000E+07  0.00800  5.592E-03    0   0.8162   age090_m52            0.0000     1.1508E+00   110.9256  -1.0000   578.1794
 25      0.0000     0.0000E+00    0.0000E+00    4.000000E+07  0.00800  3.896E-03    0   0.7841   age104_m52            0.0000     1.6746E+00   106.1212  -1.0000   550.9442
 26      0.0000     0.0000E+00    0.0000E+00    1.015200E+08  0.00800  2.148E-03    0   0.7226   age116_m52            0.0000     4.3252E+00   106.6900  -1.0000   537.7947
 27      0.0000     0.0000E+00    0.0000E+00    2.861200E+08  0.00800  9.925E-04    0   0.6683   age125_m52            0.0000     3.3246E+00    77.4797  -1.0000   403.7629
 28      7.4435     6.3828E-01    7.3780E-01    9.047900E+08  0.00800  3.141E-04    0   0.6138   age135_m52            0.0000     6.5602E+00    45.1409  -1.0000   253.8113
 29      0.0000     0.0000E+00    0.0000E+00    1.434000E+09  0.00800  1.719E-04    0   0.5853   age139_m52            0.0000     2.9067E+00    25.9519  -1.0000   171.5186
 30      0.0000     0.0000E+00    0.0000E+00    2.500000E+09  0.00800  7.872E-05    0   0.5600   age150_m52            0.0000     6.4934E-01    24.6407  -1.0000   147.4253
 31      0.0000     0.0000E+00    0.0000E+00    4.250000E+09  0.00800  4.336E-05    0   0.5426   age158_m52            0.0000     6.4716E-01    24.7565  -1.0000   145.2212
 32      7.9187     6.7516E+00    6.7630E+00    6.250000E+09  0.00800  3.159E-05    0   0.5319   age166_m52            0.0000     2.4054E-01    21.1918  -1.0000   128.8576
 33      0.0000     0.0000E+00    0.0000E+00    1.300000E+10  0.00800  1.361E-05    0   0.5073   age193_m52            0.0000     7.3517E-03    14.4475  -1.0000    96.2852
 34      0.0000     0.0000E+00    0.0000E+00    1.800000E+10  0.00800  9.886E-06    0   0.4990   age213_m52            0.0000     7.7622E-04    13.9707  -1.0000    90.3653
 35      0.0000     0.0000E+00    0.0000E+00    1.000000E+06  0.02000  1.544E-02    0   1.0000   age020_m62            0.0000     9.6700E+00   227.5322  -1.0000  1169.8002
 36      0.0000     0.0000E+00    0.0000E+00    3.160000E+06  0.02000  3.762E-02    0   0.9858   age045_m62            0.0000     9.7947E+00   221.2632  -1.0000  1135.7690
 37      0.0000     0.0000E+00    0.0000E+00    5.010000E+06  0.02000  3.296E-02    0   0.9342   age055_m62            0.0000     8.8751E+00   183.1883  -1.0000   921.1830
 38      0.0000     0.0000E+00    0.0000E+00    8.710000E+06  0.02000  1.154E-02    0   0.8861   age067_m62            0.0000     6.6625E-02    74.6439  -1.0000   443.1647
 39      0.0000     0.0000E+00    0.0000E+00    1.445000E+07  0.02000  7.663E-03    0   0.8472   age078_m62            0.0000     1.2141E+00    94.9378  -1.0000   519.6801
 40      0.0000     0.0000E+00    0.0000E+00    2.512000E+07  0.02000  4.532E-03    0   0.8099   age090_m62            0.0000     1.0145E+00    92.1275  -1.0000   509.8179
 41      0.0000     0.0000E+00    0.0000E+00    5.500000E+07  0.02000  2.733E-03    0   0.7595   age110_m62            0.0000     1.1322E+00   105.5936  -1.0000   542.8432
 42      0.0000     0.0000E+00    0.0000E+00    1.609000E+08  0.02000  1.369E-03    0   0.6985   age120_m62            0.0000     2.3519E+00    99.6942  -1.0000   509.3299
 43      0.0000     0.0000E+00    0.0000E+00    2.861200E+08  0.02000  9.013E-04    0   0.6714   age125_m62            0.0000     1.9637E+00    87.9214  -1.0000   449.9803
 44     10.3070     5.5213E-01    6.7055E-01    5.088000E+08  0.02000  5.028E-04    0   0.6449   age130_m62            0.0000     2.5229E+00    72.7114  -1.0000   367.9757
 45     34.7034     3.8497E+00    4.4797E+00    9.047900E+08  0.02000  2.428E-04    0   0.6179   age135_m62            0.0000     1.0511E+00    49.0945  -1.0000   252.7440
 46      0.0000     0.0000E+00    0.0000E+00    1.434000E+09  0.02000  1.263E-04    0   0.5908   age139_m62            0.0000     3.9312E-01    35.2395  -1.0000   189.7992
 47      0.0000     0.0000E+00    0.0000E+00    2.500000E+09  0.02000  5.985E-05    0   0.5673   age150_m62            0.0000     2.3159E-05    23.2755  -0.8409   136.5264
 48     14.9098     1.2277E+01    1.2642E+01    4.250000E+09  0.02000  3.271E-05    0   0.5468   age158_m62            0.0000     5.2529E-05    17.3141   0.5007    47.7495
 49     15.2646     3.0231E+01    2.9416E+01    1.000000E+10  0.02000  1.360E-05    0   0.5167   age181_m62            0.0000     7.6266E-05    23.4942   0.7252    33.3831
 50      4.9711     1.8794E+01    1.7743E+01    1.800000E+10  0.02000  7.124E-06    0   0.5013   age213_m62            0.0000     1.1811E-04    34.6302   1.5388    17.2217
 51      0.0000     0.0000E+00    0.0000E+00    1.000000E+06  0.05000  2.592E-02    0   0.9998   age020_m72            0.0000     9.6702E+00   226.3061  -1.0000  1163.6069
 52      0.0000     0.0000E+00    0.0000E+00    3.160000E+06  0.05000  4.845E-02    0   0.9577   age045_m72            0.0000     9.7019E+00   210.0214  -1.0000  1067.9398
 53      0.0000     0.0000E+00    0.0000E+00    5.010000E+06  0.05000  3.072E-02    0   0.9147   age055_m72            0.0000     8.5052E+00   133.5548  -1.0000   726.4013
 54      0.0000     0.0000E+00    0.0000E+00    6.610000E+06  0.05000  1.455E-02    0   0.8877   age061_m72            0.0000     7.8350E+00    54.0600  -1.0000   401.7482
 55      0.0000     0.0000E+00    0.0000E+00    1.000000E+07  0.05000  9.074E-03    0   0.8524   age070_m72            0.0000     4.1511E+01   129.4915  -1.0000   754.4661
 56      0.0000     0.0000E+00    0.0000E+00    2.512000E+07  0.05000  4.250E-03    0   0.7902   age090_m72            0.0000     1.2144E+01   118.2342  -1.0000   662.1875
 57      0.0000     0.0000E+00    0.0000E+00    4.000000E+07  0.05000  3.087E-03    0   0.7618   age104_m72            0.0000     1.0942E+01   102.4757  -1.0000   579.1330
 58      0.0000     0.0000E+00    0.0000E+00    1.015200E+08  0.05000  1.700E-03    0   0.7096   age116_m72            0.0000     3.3811E+00   102.1141  -1.0000   540.6973
 59      0.0000     0.0000E+00    0.0000E+00    2.861200E+08  0.05000  7.384E-04    0   0.6633   age125_m72            0.0000     7.5676E-01    83.7614  -1.0000   423.7106
 60      0.0000     0.0000E+00    0.0000E+00    5.088000E+08  0.05000  3.819E-04    0   0.6372   age130_m72            0.0000     3.3906E-03    66.3063  -1.0000   323.6433
 61      0.5961     9.5788E-02    1.1022E-01    9.047900E+08  0.05000  1.676E-04    0   0.6110   age135_m72            0.0000     5.6924E-05    18.9980   1.3474    46.1745
 62      0.0000     0.0000E+00    0.0000E+00    1.434000E+09  0.05000  8.837E-05    0   0.5874   age139_m72            0.0000     1.9504E-05    20.9682  -0.7462   130.1049
 63     22.3567     1.4225E+01    1.4997E+01    2.500000E+09  0.05000  4.233E-05    0   0.5598   age150_m72            0.0000     1.0820E-04    32.2480   1.7658    21.3102
 64      6.7052     1.2585E+01    1.2441E+01    6.250000E+09  0.05000  1.435E-05    0   0.5249   age166_m72            0.0000     1.3025E-04    37.9650   1.9586    14.0935
 65      0.0000     0.0000E+00    0.0000E+00    1.300000E+10  0.05000  6.513E-06    0   0.5036   age193_m72            0.0000     5.2901E-05    16.7713  -0.1175    45.9945
 66      0.0000     0.0000E+00    0.0000E+00    1.800000E+10  0.05000  4.527E-06    0   0.4945   age213_m72            0.0000     3.6492E-05    13.1409  -0.6539    58.7927


## Synthesis Results - Average & Chains ##

# j      x_j: min, <> & last-chain-values for 1 ...  7 chains
  1      0.0000      0.0158      0.0000      0.0390      0.0000      0.0000      0.0000      0.0120      0.0023
  2      0.0000      0.0170      0.0049      0.0000      0.0177      0.0000      0.0000      0.0483      0.0148
  3      0.0000      0.0153      0.0000      0.0797      0.0000      0.0024      0.0000      0.0165      0.0000
  4      0.0000      0.0145      0.0000      0.0972      0.0000      0.0083      0.0000      0.0526      0.0000
  5      0.0000      0.0340      0.0000      0.0000      0.0000      0.0035      0.0614      0.0000      0.0000
  6      0.0000      0.0131      0.0000      0.0514      0.0000      0.0130      0.0458      0.0144      0.0000
  7      0.0000      0.0221      0.0000      0.0384      0.0000      0.0360      0.0000      0.0162      0.0000
  8      0.0000      0.0170      0.0000      0.0000      0.0000      0.0000      0.0000      0.0115      0.0000
  9      0.0000      0.0201      0.0000      0.0005      0.0066      0.0000      0.0000      0.0000      0.0187
 10      0.0000      0.0181      0.0000      0.0088      0.0013      0.0000      0.0048      0.0042      0.0000
 11      0.0000      0.0216      0.0449      0.0000      0.0113      0.0006      0.0000      0.0618      0.0000
 12      0.0000      0.0209      0.0323      0.0957      0.0000      0.0000      0.0000      0.0153      0.0000
 13      0.0000      0.0469      0.0356      0.0121      0.0000      0.0168      0.0000      0.0000      0.0000
 14      0.0000      0.0738      0.0000      0.0000      0.0011      0.0000      0.0000      0.0000      0.0000
 15      0.0000      0.0690      0.0235      0.0000      0.0000      0.0391      0.0139      0.0625      0.0110
 16      0.0000      0.0396      0.0000      0.0235      0.0000      0.0000      0.0000      0.0000      0.0243
 17      0.0000      0.0403      0.0000      0.0000      0.0000      0.0000      0.0122      0.0000      0.0000
 18      0.0000      0.0151      0.0000      0.0000      0.0000      0.1686      0.0204      0.0000      0.0087
 19      0.0000      0.0301      0.0000      0.1731      0.0000      0.0144      0.1429      0.0000      0.0459
 20      0.0000      0.0391      0.0000      0.0629      0.0000      0.0743      0.0000      0.0000      0.0113
 21      0.0000      0.0311      0.0402      0.0072      0.0000      0.0289      0.0000      0.1095      0.1004
 22      0.0000      0.0147      0.0204      0.0000      0.0333      0.0000      0.0000      0.0558      0.0000
 23      0.0000      0.0167      0.0000      0.0000      0.0861      0.0000      0.0000      0.0000      0.0000
 24      0.0000      0.0186      0.0000      0.0000      0.0394      0.0541      0.0000      0.0474      0.0070
 25      0.0000      0.0181      0.0009      0.0000      0.0000      0.0000      0.0000      0.0000      0.0328
 26      0.0000      0.0215      0.0000      0.0308      0.0000      0.0080      0.1146      0.0000      0.0494
 27      0.0000      0.0267      0.0366      0.0000      0.0000      0.0072      0.0000      0.0248      0.0000
 28      7.4435      6.1954      7.4500      5.9567      6.1472      6.0337      6.1773      6.1773      6.0236
 29      0.0000      0.0890      0.0110      0.0000      0.0000      0.0415      0.0228      0.0000      0.0228
 30      0.0000      0.1352      0.0000      0.2064      0.0000      0.0447      0.0060      0.0576      0.0000
 31      0.0000      0.1175      0.3501      0.0001      0.0356      0.0000      0.0000      0.0000      0.1141
 32      7.9187      8.0380      8.2326      7.9843      7.8435      7.9474      8.0427      8.0420      8.0875
 33      0.0000      0.0196      0.0345      0.0000      0.0000      0.0469      0.0000      0.0289      0.0000
 34      0.0000      0.2749      0.2807      0.2925      0.2754      0.3739      0.2302      0.2747      0.1926
 35      0.0000      0.0143      0.0000      0.0459      0.0729      0.0000      0.0000      0.0000      0.0000
 36      0.0000      0.0126      0.0000      0.0000      0.0326      0.0225      0.0419      0.0000      0.0152
 37      0.0000      0.0121      0.0000      0.0411      0.0679      0.0000      0.0439      0.0000      0.0000
 38      0.0000      0.0365      0.0000      0.0190      0.0000      0.0264      0.0657      0.0457      0.0052
 39      0.0000      0.0223      0.0012      0.0317      0.1326      0.0732      0.0729      0.0833      0.0000
 40      0.0000      0.0212      0.0000      0.0000      0.0000      0.0000      0.0000      0.0000      0.0190
 41      0.0000      0.0176      0.0000      0.0000      0.0000      0.0729      0.0000      0.1327      0.0815
 42      0.0000      0.0289      0.0000      0.0000      0.0191      0.0672      0.0000      0.0000      0.0578
 43      0.0000      0.0255      0.0000      0.0000      0.0751      0.0000      0.0000      0.0202      0.2459
 44     10.3070      5.9438     10.1860      5.9225      6.0356      5.9109      5.9441      5.8704      6.0069
 45     34.7034     48.4079     33.4682     48.2718     48.5794     48.4541     48.7299     48.0760     48.1924
 46      0.0000      0.1976      0.2494      0.1565      0.1041      0.1849      0.3810      0.2636      0.2040
