###################################################################
## OUTPUT of StarlightChains_v04.for    [Cid@UFSC - 01/Apr/2007] ##
###################################################################

## Some input info
KUG0210-078._34_34.txt                   [arq_obs]
Base.CB07.vall.4m                        [arq_base]
Masks.EmLines.NEW.gm                     [arq_masks]
StCv04.C11.config                        [arq_config]
   66                                    [N_base]
    0                                    [N_YAV_components = # of components with extra extinction!]
    0                                    [i_FitPowerLaw (1/0 = Yes/No)]
-9.99                                    [alpha_PowerLaw]
CCM                                      [red_law_option]
 1.458241                                [q_norm = A(l_norm)/A(V)]

## (Re)Sampling Parameters
 3741.00                                 [l_ini (A)]
 7218.00                                 [l_fin (A)]
    1.00                                 [dl    (A)]     (OBS: dl_cushion =    50.00 A)

## Normalization info
 4020.00                                 [l_norm (A) - for base]
 4010.00                                 [llow_norm (A) - window for f_obs]
 4060.00                                 [lupp_norm (A) - window for f_obs]
5.445101E-17                             [fobs_norm (in input units)]

## S/N
 3691.00                                 [llow_SN (A) - window for S/N]
 7268.00                                 [lupp_SN (A) - window for S/N]
   4.215                                 [S/N in S/N window]
   2.949                                 [S/N in norm. window]
   0.110                                 [S/N_err in S/N window]
   0.077                                 [S/N_err in norm. window]
  1.0000                                 [fscale_chi2]

## etc...
    -2007539                             [idum_orig]
  2432                                   [NOl_eff]
  2423                                   [Nl_eff]
     9    NSIGMA                         [Ntot_cliped & clip_method]
  9742600                                [Nglobal_steps]
   7                                     [N_chains]
  28                                     [NEX0s_base = N_base in EX0s-fits]
 0   1   1       10   2.0   7.081E+03    [Clip-Bug, RC-Crash & Burn-In warning-flags, n_censored_weights, wei_nsig_threshold & wei_limit]
   203    202.414    201.675      0.739  [idt_all, wdt_TotTime, wdt_UsrTime & wdt_SysTime (sec)]

## Synthesis Results - Best model ##

 1.85353E-04                             [chi2/Nl_eff]
     8.78251                             [adev (%)]

   102.96718                             [sum-of-x (%)]
 8.34065E-17                             [Flux_tot (units of input spectrum!)]
 4.89662E-12                             [Mini_tot (???)]
 2.50768E-12                             [Mcor_tot (???)]

 -27.19                                  [v0_min  (km/s)]
 123.81                                  [vd_min  (km/s)]
 0.2957                                  [AV_min  (mag)]
 0.0000                                  [YAV_min (mag)]

# j     x_j(%)      Mini_j(%)     Mcor_j(%)     age_j(yr)     Z_j      (L/M)_j    YAV?  Mstars   component_j        a/Fe...       SSP_chi2r SSP_adev(%)   SSP_AV   SSP_x(%)
  1      0.0000     0.0000E+00    0.0000E+00    1.000000E+06  0.00400  1.094E-02    0   1.0000   age020_m42            0.0000     4.5366E-04    14.8399   4.0000    97.0842
  2      0.0000     0.0000E+00    0.0000E+00    3.160000E+06  0.00400  4.007E-02    0   0.9999   age045_m42            0.0000     3.8082E-04    14.7465   3.3651   100.9522
  3      0.0000     0.0000E+00    0.0000E+00    5.010000E+06  0.00400  2.539E-02    0   0.9488   age055_m42            0.0000     4.1074E-04    14.8973   3.6901    97.5645
  4      0.0000     0.0000E+00    0.0000E+00    6.610000E+06  0.00400  2.620E-02    0   0.9220   age061_m42            0.0000     3.9155E-04    14.9291   3.2956   101.1645
  5      0.0000     0.0000E+00    0.0000E+00    1.000000E+07  0.00400  1.322E-02    0   0.8862   age070_m42            0.0000     4.9171E-04    17.1379   3.0492   103.0954
  6      0.0000     0.0000E+00    0.0000E+00    1.445000E+07  0.00400  7.883E-03    0   0.8571   age078_m42            0.0000     5.0052E-04    17.1051   3.3769   100.1328
  7      0.0000     0.0000E+00    0.0000E+00    2.512000E+07  0.00400  5.251E-03    0   0.8174   age090_m42            0.0000     5.1181E-04    17.6427   2.9256   103.8325
  8      0.0000     0.0000E+00    0.0000E+00    4.000000E+07  0.00400  3.649E-03    0   0.7851   age104_m42            0.0000     4.8243E-04    17.1894   2.6904   104.9225
  9      0.0000     0.0000E+00    0.0000E+00    5.500000E+07  0.00400  3.098E-03    0   0.7629   age110_m42            0.0000     4.2779E-04    16.0379   2.8242   105.2298
 10      0.6075     4.5107E-03    6.3478E-03    1.015200E+08  0.00400  2.228E-03    0   0.7207   age116_m42            0.0000     3.9581E-04    15.3202   2.8307   105.7202
 11      0.0000     0.0000E+00    0.0000E+00    2.861200E+08  0.00400  1.093E-03    0   0.6648   age125_m42            0.0000     4.3140E-04    16.0249   2.2660   109.5865
 12      0.0000     0.0000E+00    0.0000E+00    5.088000E+08  0.00400  6.597E-04    0   0.6365   age130_m42            0.0000     3.6245E-04    14.6300   2.2313   110.8120
 13      1.5164     1.1766E-01    1.3321E-01    1.434000E+09  0.00400  2.132E-04    0   0.5798   age139_m42            0.0000     2.6683E-04    12.8721   1.2373   113.2199
 14      1.2063     3.3850E-01    3.5541E-01    4.250000E+09  0.00400  5.895E-05    0   0.5377   age158_m42            0.0000     1.9388E-04    10.6881   0.7704   108.4849
 15      5.2091     2.4551E+00    2.4986E+00    7.500000E+09  0.00400  3.510E-05    0   0.5212   age171_m42            0.0000     1.6752E-04     9.8064   0.5663   107.9656
 16      4.8105     3.9690E+00    3.9014E+00    1.300000E+10  0.00400  2.005E-05    0   0.5034   age193_m42            0.0000     1.5121E-04     9.1391   0.3909   107.5050
 17      2.9794     3.2319E+00    3.1346E+00    1.800000E+10  0.00400  1.525E-05    0   0.4967   age213_m42            0.0000     1.5718E-04     9.3192   0.3709   106.9686
 18      0.0000     0.0000E+00    0.0000E+00    1.000000E+06  0.00800  1.238E-02    0   1.0000   age020_m52            0.0000     4.5090E-04    14.8206   4.0000    97.0882
 19      0.0000     0.0000E+00    0.0000E+00    3.160000E+06  0.00800  3.074E-02    0   0.9966   age045_m52            0.0000     4.3434E-04    15.0068   4.0000    94.8115
 20      0.0000     0.0000E+00    0.0000E+00    5.010000E+06  0.00800  2.668E-02    0   0.9443   age055_m52            0.0000     4.2217E-04    15.1097   3.7753    96.6348
 21      0.0000     0.0000E+00    0.0000E+00    6.610000E+06  0.00800  2.136E-02    0   0.9177   age061_m52            0.0000     4.5197E-04    16.5756   2.5484   104.1354
 22      0.6070     8.2644E-04    1.4245E-03    1.000000E+07  0.00800  1.215E-02    0   0.8827   age070_m52            0.0000     5.4010E-04    17.9569   3.2381   102.7988
 23      0.0000     0.0000E+00    0.0000E+00    1.445000E+07  0.00800  8.717E-03    0   0.8552   age078_m52            0.0000     4.9564E-04    17.1033   3.3422   101.6232
 24      0.0000     0.0000E+00    0.0000E+00    2.512000E+07  0.00800  5.592E-03    0   0.8162   age090_m52            0.0000     5.1495E-04    17.6905   2.9859   105.2198
 25      0.0000     0.0000E+00    0.0000E+00    4.000000E+07  0.00800  3.896E-03    0   0.7841   age104_m52            0.0000     4.8362E-04    17.1720   2.8900   106.4487
 26      0.0000     0.0000E+00    0.0000E+00    1.015200E+08  0.00800  2.148E-03    0   0.7226   age116_m52            0.0000     4.2189E-04    15.9830   2.8092   106.6842
 27      0.0000     0.0000E+00    0.0000E+00    2.861200E+08  0.00800  9.925E-04    0   0.6683   age125_m52            0.0000     3.6313E-04    14.7844   2.2971   112.0093
 28      0.0000     0.0000E+00    0.0000E+00    9.047900E+08  0.00800  3.141E-04    0   0.6138   age135_m52            0.0000     2.4704E-04    12.2658   1.4603   117.6078
 29      0.9660     9.2959E-02    1.0624E-01    1.434000E+09  0.00800  1.719E-04    0   0.5853   age139_m52            0.0000     2.1672E-04    11.2840   0.8697   114.6643
 30      2.4793     5.2101E-01    5.6972E-01    2.500000E+09  0.00800  7.872E-05    0   0.5600   age150_m52            0.0000     1.4618E-04     9.1598   0.5708   111.5626
 31      2.0359     7.7673E-01    8.2295E-01    4.250000E+09  0.00800  4.336E-05    0   0.5426   age158_m52            0.0000     1.4759E-04     9.2490   0.5614   110.5547
 32      7.5855     3.9723E+00    4.1257E+00    6.250000E+09  0.00800  3.159E-05    0   0.5319   age166_m52            0.0000     1.1665E-04     8.1410   0.3381   111.0923
 33     22.0797     2.6837E+01    2.6585E+01    1.300000E+10  0.00800  1.361E-05    0   0.5073   age193_m52            0.0000     8.5164E-05     6.7585  -0.1592   110.9603
 34      7.8315     1.3105E+01    1.2769E+01    1.800000E+10  0.00800  9.886E-06    0   0.4990   age213_m52            0.0000     6.7529E-05     5.7797  -0.2903   111.0637
 35      0.0000     0.0000E+00    0.0000E+00    1.000000E+06  0.02000  1.544E-02    0   1.0000   age020_m62            0.0000     4.5182E-04    14.8319   4.0000    97.1109
 36      0.0000     0.0000E+00    0.0000E+00    3.160000E+06  0.02000  3.762E-02    0   0.9858   age045_m62            0.0000     4.4260E-04    14.9676   4.0000    95.3468
 37      0.6750     3.3879E-04    6.1800E-04    5.010000E+06  0.02000  3.296E-02    0   0.9342   age055_m62            0.0000     3.8876E-04    14.5427   3.6423    99.1962
 38      0.0000     0.0000E+00    0.0000E+00    8.710000E+06  0.02000  1.154E-02    0   0.8861   age067_m62            0.0000     8.5855E-04    23.0234   2.7502   105.5579
 39      0.0000     0.0000E+00    0.0000E+00    1.445000E+07  0.02000  7.663E-03    0   0.8472   age078_m62            0.0000     6.2298E-04    19.3720   2.9010   105.3333
 40      0.0000     0.0000E+00    0.0000E+00    2.512000E+07  0.02000  4.532E-03    0   0.8099   age090_m62            0.0000     6.4292E-04    19.6243   2.8936   105.1951
 41      0.4082     2.4711E-03    3.6647E-03    5.500000E+07  0.02000  2.733E-03    0   0.7595   age110_m62            0.0000     4.8280E-04    17.0264   2.8722   105.4486
 42      0.0000     0.0000E+00    0.0000E+00    1.609000E+08  0.02000  1.369E-03    0   0.6985   age120_m62            0.0000     4.0191E-04    15.5123   2.6785   109.4047
 43      0.0000     0.0000E+00    0.0000E+00    2.861200E+08  0.02000  9.013E-04    0   0.6714   age125_m62            0.0000     3.5460E-04    14.7034   2.4072   113.3144
 44      0.0000     0.0000E+00    0.0000E+00    5.088000E+08  0.02000  5.028E-04    0   0.6449   age130_m62            0.0000     2.6244E-04    12.6512   1.9947   117.1739
 45      0.0000     0.0000E+00    0.0000E+00    9.047900E+08  0.02000  2.428E-04    0   0.6179   age135_m62            0.0000     1.9105E-04    10.7844   1.3881   116.5269
 46      0.5514     7.2223E-02    8.3319E-02    1.434000E+09  0.02000  1.263E-04    0   0.5908   age139_m62            0.0000     1.5781E-04     9.6992   0.9276   114.5488
 47      4.5490     1.2573E+00    1.3928E+00    2.500000E+09  0.02000  5.985E-05    0   0.5673   age150_m62            0.0000     1.1587E-04     8.1529   0.5398   113.3324
 48      1.9631     9.9282E-01    1.0600E+00    4.250000E+09  0.02000  3.271E-05    0   0.5468   age158_m62            0.0000     7.7520E-05     6.4081   0.1967   113.0729
 49      2.0768     2.5262E+00    2.5487E+00    1.000000E+10  0.02000  1.360E-05    0   0.5167   age181_m62            0.0000     5.4839E-05     4.9943  -0.1916   113.7850
 50      4.6674     1.0838E+01    1.0609E+01    1.800000E+10  0.02000  7.124E-06    0   0.5013   age213_m62            0.0000     4.9441E-05     4.2933  -0.4353   113.8013
 51      1.2192     7.7813E-04    1.5191E-03    1.000000E+06  0.05000  2.592E-02    0   0.9998   age020_m72            0.0000     4.5940E-04    14.9987   4.0000    96.7843
 52      0.0000     0.0000E+00    0.0000E+00    3.160000E+06  0.05000  4.845E-02    0   0.9577   age045_m72            0.0000     4.1497E-04    14.6903   3.9054    95.7624
 53      0.0000     0.0000E+00    0.0000E+00    5.010000E+06  0.05000  3.072E-02    0   0.9147   age055_m72            0.0000     5.6846E-04    17.8685   3.4656   100.9724
 54      0.5878     6.6828E-04    1.1584E-03    6.610000E+06  0.05000  1.455E-02    0   0.8877   age061_m72            0.0000     1.1867E-03    25.5707   2.8041   108.3947
 55      0.0000     0.0000E+00    0.0000E+00    1.000000E+07  0.05000  9.074E-03    0   0.8524   age070_m72            0.0000     6.4072E-04    18.3433   3.6393   101.5779
 56      0.0000     0.0000E+00    0.0000E+00    2.512000E+07  0.05000  4.250E-03    0   0.7902   age090_m72            0.0000     5.7812E-04    17.9770   3.3386   103.5855
 57      0.0000     0.0000E+00    0.0000E+00    4.000000E+07  0.05000  3.087E-03    0   0.7618   age104_m72            0.0000     5.8841E-04    18.2301   3.1113   105.6773
 58      0.0000     0.0000E+00    0.0000E+00    1.015200E+08  0.05000  1.700E-03    0   0.7096   age116_m72            0.0000     4.5384E-04    16.5156   2.8329   109.0056
 59      0.0000     0.0000E+00    0.0000E+00    2.861200E+08  0.05000  7.384E-04    0   0.6633   age125_m72            0.0000     3.0674E-04    13.7665   2.2587   115.4867
 60      0.0000     0.0000E+00    0.0000E+00    5.088000E+08  0.05000  3.819E-04    0   0.6372   age130_m72            0.0000     2.0883E-04    11.4240   1.7339   117.6885
 61      0.1263     1.2462E-02    1.4868E-02    9.047900E+08  0.05000  1.676E-04    0   0.6110   age135_m72            0.0000     1.2334E-04     8.6800   1.0025   115.8991
 62      4.8097     9.0036E-01    1.0327E+00    1.434000E+09  0.05000  8.837E-05    0   0.5874   age139_m72            0.0000     1.0898E-04     7.9104   0.5258   115.4154
 63      5.0907     1.9895E+00    2.1747E+00    2.500000E+09  0.05000  4.233E-05    0   0.5598   age150_m72            0.0000     6.7898E-05     5.9198   0.1823   114.4856
 64     11.7526     1.3548E+01    1.3886E+01    6.250000E+09  0.05000  1.435E-05    0   0.5249   age166_m72            0.0000     4.9979E-05     4.5519  -0.3070   113.6357
 65      3.8460     9.7687E+00    9.6061E+00    1.300000E+10  0.05000  6.513E-06    0   0.5036   age193_m72            0.0000     5.3024E-05     4.2076  -0.6254   115.7563
 66      0.7299     2.6671E+00    2.5753E+00    1.800000E+10  0.05000  4.527E-06    0   0.4945   age213_m72            0.0000     6.1609E-05     4.5444  -0.8115   116.1565


## Synthesis Results - Average & Chains ##

# j      x_j: min, <> & last-chain-values for 1 ...  7 chains
  1      0.0000      0.0256      0.0000      0.0000      0.0000      0.0019      0.0589      0.0240      0.0000
  2      0.0000      0.2335      0.2127      0.2128      0.2330      0.1320      0.2141      0.2467      0.1989
  3      0.0000      0.0397      0.0693      0.0000      0.0438      0.0000      0.0990      0.0433      0.0000
  4      0.0000      0.1268      0.2592      0.1173      0.1029      0.0847      0.1566      0.0828      0.2391
  5      0.0000      0.0143      0.0000      0.0000      0.0000      0.0647      0.0171      0.0000      0.0000
  6      0.0000      0.0219      0.0000      0.0000      0.0000      0.0361      0.0711      0.0549      0.0000
  7      0.0000      0.0319      0.0384      0.0330      0.0412      0.0992      0.0438      0.0417      0.0000
  8      0.0000      0.0147      0.0000      0.0000      0.0000      0.0213      0.0000      0.0000      0.0423
  9      0.0000      0.0294      0.0238      0.0000      0.0575      0.0912      0.0000      0.0000      0.0000
 10      0.6075      0.4147      0.4280      0.4505      0.3807      0.4148      0.4017      0.4024      0.4070
 11      0.0000      0.0425      0.0586      0.0256      0.0000      0.1178      0.0000      0.0853      0.0059
 12      0.0000      0.0366      0.0000      0.0000      0.1478      0.0570      0.0233      0.0328      0.0328
 13      1.5164      1.2930      1.3044      1.2371      1.3277      1.3138      1.3777      1.3009      1.2757
 14      1.2063      0.7890      0.8710      0.8448      0.5855      0.7732      0.7900      1.0061      0.6084
 15      5.2091      5.5464      5.5410      5.4821      5.6269      5.3919      5.4123      5.5206      5.2198
 16      4.8105      4.0226      4.0058      4.0376      3.9848      4.7239      4.0696      4.5447      4.1871
 17      2.9794      2.8676      2.6924      2.7257      2.5122      2.6648      2.9757      2.5476      2.8767
 18      0.0000      0.0093      0.0303      0.0193      0.0000      0.0000      0.0179      0.0319      0.0261
 19      0.0000      0.0451      0.0929      0.0726      0.0490      0.0000      0.0416      0.0310      0.0381
 20      0.0000      0.0082      0.0000      0.0000      0.0866      0.0000      0.0000      0.0000      0.0117
 21      0.0000      0.0477      0.0311      0.1486      0.0000      0.0393      0.0695      0.0000      0.0889
 22      0.6070      0.5199      0.5353      0.5529      0.5186      0.5215      0.5374      0.5754      0.5082
 23      0.0000      0.0245      0.0000      0.0000      0.0740      0.0507      0.0000      0.0064      0.0000
 24      0.0000      0.0113      0.0000      0.0000      0.0000      0.0000      0.0000      0.0160      0.0202
 25      0.0000      0.0205      0.0000      0.0000      0.0078      0.0886      0.0208      0.0859      0.0000
 26      0.0000      0.0216      0.0287      0.0000      0.0000      0.0000      0.0000      0.0105      0.0000
 27      0.0000      0.0176      0.0071      0.0000      0.0085      0.0000      0.0245      0.0000      0.0000
 28      0.0000      0.2140      0.2134      0.2456      0.1729      0.2552      0.2153      0.2218      0.1916
 29      0.9660      0.8738      0.8874      0.8658      0.9084      0.8721      0.9114      0.7848      0.9125
 30      2.4793      1.5872      1.5608      1.6711      1.5072      1.7127      1.6626      1.6422      1.5689
 31      2.0359      2.6686      2.5856      2.5710      2.4600      3.0067      2.6225      2.6422      2.6182
 32      7.5855      7.2248      7.2291      7.2314      7.3698      7.1288      7.5075      7.5711      7.3489
 33     22.0797     21.6029     22.1924     21.8550     22.2340     21.6280     21.5746     21.2961     21.5950
 34      7.8315      8.6935      8.6518      8.7576      8.7306      8.5003      8.7155      8.6621      8.6384
 35      0.0000      0.0296      0.0755      0.0385      0.0946      0.0000      0.0468      0.0000      0.0382
 36      0.0000      0.0278      0.0379      0.0435      0.0436      0.0000      0.0059      0.0173      0.0000
 37      0.6750      0.3598      0.4109      0.3069      0.3586      0.3424      0.3778      0.3973      0.4072
 38      0.0000      0.0103      0.0284      0.0000      0.0000      0.0335      0.0620      0.0286      0.0815
 39      0.0000      0.2312      0.2526      0.2482      0.2138      0.2657      0.2046      0.2274      0.2361
 40      0.0000      0.0943      0.1214      0.0675      0.0727      0.1415      0.1467      0.1068      0.0724
 41      0.4082      0.3123      0.2571      0.2076      0.3295      0.2980      0.2738      0.2818      0.3151
 42      0.0000      0.0596      0.0469      0.0000      0.0325      0.0987      0.1549      0.0494      0.0000
 43      0.0000      0.0169      0.0000      0.0204      0.0000      0.0000      0.0000      0.0629      0.0161
 44      0.0000      0.1249      0.0671      0.2035      0.2081      0.0996      0.0598      0.1675      0.0432
 45      0.0000      0.0600      0.1142      0.1044      0.0367      0.0000      0.0503      0.0494      0.1202
 46      0.5514      0.3249      0.2768      0.2902      0.3074      0.3243      0.3064      0.4116      0.3808
