###################################################################
## OUTPUT of StarlightChains_v04.for    [Cid@UFSC - 01/Apr/2007] ##
###################################################################

## Some input info
KUG0210-078._27_37.txt                   [arq_obs]
Base.CB07.vall.4m                        [arq_base]
Masks.EmLines.NEW.gm                     [arq_masks]
StCv04.C11.config                        [arq_config]
   66                                    [N_base]
    0                                    [N_YAV_components = # of components with extra extinction!]
    0                                    [i_FitPowerLaw (1/0 = Yes/No)]
-9.99                                    [alpha_PowerLaw]
CCM                                      [red_law_option]
 1.458241                                [q_norm = A(l_norm)/A(V)]

## (Re)Sampling Parameters
 3741.00                                 [l_ini (A)]
 7218.00                                 [l_fin (A)]
    1.00                                 [dl    (A)]     (OBS: dl_cushion =    50.00 A)

## Normalization info
 4020.00                                 [l_norm (A) - for base]
 4010.00                                 [llow_norm (A) - window for f_obs]
 4060.00                                 [lupp_norm (A) - window for f_obs]
5.284666E-17                             [fobs_norm (in input units)]

## S/N
 3691.00                                 [llow_SN (A) - window for S/N]
 7268.00                                 [lupp_SN (A) - window for S/N]
   4.601                                 [S/N in S/N window]
   3.180                                 [S/N in norm. window]
   0.116                                 [S/N_err in S/N window]
   0.080                                 [S/N_err in norm. window]
  1.0000                                 [fscale_chi2]

## etc...
    -2007357                             [idum_orig]
  2432                                   [NOl_eff]
  2238                                   [Nl_eff]
   194    NSIGMA                         [Ntot_cliped & clip_method]
 15298570                                [Nglobal_steps]
   7                                     [N_chains]
  19                                     [NEX0s_base = N_base in EX0s-fits]
 0   0   1      194   2.0   3.234E+04    [Clip-Bug, RC-Crash & Burn-In warning-flags, n_censored_weights, wei_nsig_threshold & wei_limit]
   103    102.941    102.254      0.687  [idt_all, wdt_TotTime, wdt_UsrTime & wdt_SysTime (sec)]

## Synthesis Results - Best model ##

 1.02958E-04                             [chi2/Nl_eff]
     6.92894                             [adev (%)]

   112.78375                             [sum-of-x (%)]
 2.00131E-15                             [Flux_tot (units of input spectrum!)]
 1.37800E-13                             [Mini_tot (???)]
 1.25230E-13                             [Mcor_tot (???)]

-126.18                                  [v0_min  (km/s)]
 381.22                                  [vd_min  (km/s)]
 2.6163                                  [AV_min  (mag)]
 0.0000                                  [YAV_min (mag)]

# j     x_j(%)      Mini_j(%)     Mcor_j(%)     age_j(yr)     Z_j      (L/M)_j    YAV?  Mstars   component_j        a/Fe...       SSP_chi2r SSP_adev(%)   SSP_AV   SSP_x(%)
  1      1.1486     1.3519E+00    1.4876E+00    1.000000E+06  0.00400  1.094E-02    0   1.0000   age020_m42            0.0000     3.0860E-04    11.3033   3.9675    96.5576
  2      0.0000     0.0000E+00    0.0000E+00    3.160000E+06  0.00400  4.007E-02    0   0.9999   age045_m42            0.0000     2.7845E-04    10.7603   3.2920   100.7188
  3      0.0000     0.0000E+00    0.0000E+00    5.010000E+06  0.00400  2.539E-02    0   0.9488   age055_m42            0.0000     2.8741E-04    10.8843   3.5875    99.4060
  4      0.0000     0.0000E+00    0.0000E+00    6.610000E+06  0.00400  2.620E-02    0   0.9220   age061_m42            0.0000     2.6637E-04    10.4778   3.2166   100.9815
  5      0.0000     0.0000E+00    0.0000E+00    1.000000E+07  0.00400  1.322E-02    0   0.8862   age070_m42            0.0000     2.1928E-04     9.3639   2.9032   104.4298
  6      0.0000     0.0000E+00    0.0000E+00    1.445000E+07  0.00400  7.883E-03    0   0.8571   age078_m42            0.0000     2.2807E-04     9.5907   3.2180   102.4096
  7      0.0000     0.0000E+00    0.0000E+00    2.512000E+07  0.00400  5.251E-03    0   0.8174   age090_m42            0.0000     2.1164E-04     9.1817   2.7731   105.0028
  8      0.0000     0.0000E+00    0.0000E+00    4.000000E+07  0.00400  3.649E-03    0   0.7851   age104_m42            0.0000     2.1392E-04     9.2181   2.5579   105.2851
  9      0.0000     0.0000E+00    0.0000E+00    5.500000E+07  0.00400  3.098E-03    0   0.7629   age110_m42            0.0000     2.2922E-04     9.5561   2.7302   104.4299
 10      0.0000     0.0000E+00    0.0000E+00    1.015200E+08  0.00400  2.228E-03    0   0.7207   age116_m42            0.0000     2.3736E-04     9.7497   2.7649   103.9645
 11      0.0000     0.0000E+00    0.0000E+00    2.861200E+08  0.00400  1.093E-03    0   0.6648   age125_m42            0.0000     1.9195E-04     8.7197   2.1921   106.8282
 12      0.0000     0.0000E+00    0.0000E+00    5.088000E+08  0.00400  6.597E-04    0   0.6365   age130_m42            0.0000     2.1096E-04     9.1771   2.2062   106.6670
 13      0.0000     0.0000E+00    0.0000E+00    1.434000E+09  0.00400  2.132E-04    0   0.5798   age139_m42            0.0000     2.2044E-04     9.3027   1.2706   107.2140
 14      0.0000     0.0000E+00    0.0000E+00    4.250000E+09  0.00400  5.895E-05    0   0.5377   age158_m42            0.0000     2.5408E-04     9.9932   0.8427   102.7064
 15      0.0000     0.0000E+00    0.0000E+00    7.500000E+09  0.00400  3.510E-05    0   0.5212   age171_m42            0.0000     2.6301E-04    10.1532   0.6647   101.5748
 16      0.0000     0.0000E+00    0.0000E+00    1.300000E+10  0.00400  2.005E-05    0   0.5034   age193_m42            0.0000     2.7000E-04    10.2918   0.5070   100.6739
 17      0.0000     0.0000E+00    0.0000E+00    1.800000E+10  0.00400  1.525E-05    0   0.4967   age213_m42            0.0000     2.6768E-04    10.2620   0.4794   100.4295
 18     10.4278     1.0847E+01    1.1935E+01    1.000000E+06  0.00800  1.238E-02    0   1.0000   age020_m52            0.0000     3.0921E-04    11.3268   3.9653    96.6984
 19      0.0000     0.0000E+00    0.0000E+00    3.160000E+06  0.00800  3.074E-02    0   0.9966   age045_m52            0.0000     3.1130E-04    11.3661   3.8936    97.3587
 20      0.0000     0.0000E+00    0.0000E+00    5.010000E+06  0.00800  2.668E-02    0   0.9443   age055_m52            0.0000     2.8860E-04    10.9316   3.6624    98.8865
 21      0.0000     0.0000E+00    0.0000E+00    6.610000E+06  0.00800  2.136E-02    0   0.9177   age061_m52            0.0000     2.2893E-04     9.5659   2.4131   105.2650
 22      0.0000     0.0000E+00    0.0000E+00    1.000000E+07  0.00800  1.215E-02    0   0.8827   age070_m52            0.0000     2.0230E-04     9.0318   3.0634   105.0145
 23      0.0000     0.0000E+00    0.0000E+00    1.445000E+07  0.00800  8.717E-03    0   0.8552   age078_m52            0.0000     2.2452E-04     9.5150   3.1876   103.6253
 24      0.0000     0.0000E+00    0.0000E+00    2.512000E+07  0.00800  5.592E-03    0   0.8162   age090_m52            0.0000     2.0152E-04     8.9816   2.8343   106.2876
 25      0.0000     0.0000E+00    0.0000E+00    4.000000E+07  0.00800  3.896E-03    0   0.7841   age104_m52            0.0000     2.0142E-04     8.9625   2.7612   106.3571
 26      0.0000     0.0000E+00    0.0000E+00    1.015200E+08  0.00800  2.148E-03    0   0.7226   age116_m52            0.0000     2.1702E-04     9.3549   2.7237   105.1108
 27      0.0000     0.0000E+00    0.0000E+00    2.861200E+08  0.00800  9.925E-04    0   0.6683   age125_m52            0.0000     2.0879E-04     9.1557   2.2720   107.6142
 28      0.0000     0.0000E+00    0.0000E+00    9.047900E+08  0.00800  3.141E-04    0   0.6138   age135_m52            0.0000     2.1562E-04     9.2715   1.5196   109.7972
 29      0.0000     0.0000E+00    0.0000E+00    1.434000E+09  0.00800  1.719E-04    0   0.5853   age139_m52            0.0000     2.0903E-04     9.1508   0.9341   107.8069
 30      0.0000     0.0000E+00    0.0000E+00    2.500000E+09  0.00800  7.872E-05    0   0.5600   age150_m52            0.0000     2.6156E-04    10.1688   0.6922   104.0235
 31      0.0000     0.0000E+00    0.0000E+00    4.250000E+09  0.00800  4.336E-05    0   0.5426   age158_m52            0.0000     2.6465E-04    10.2299   0.6769   103.0722
 32      0.0000     0.0000E+00    0.0000E+00    6.250000E+09  0.00800  3.159E-05    0   0.5319   age166_m52            0.0000     2.8185E-04    10.5811   0.4914   102.3495
 33      0.0000     0.0000E+00    0.0000E+00    1.300000E+10  0.00800  1.361E-05    0   0.5073   age193_m52            0.0000     3.1105E-04    11.1291   0.0468   100.7051
 34      0.0000     0.0000E+00    0.0000E+00    1.800000E+10  0.00800  9.886E-06    0   0.4990   age213_m52            0.0000     3.3281E-04    11.5594  -0.0458    99.5892
 35      6.3953     5.3338E+00    5.8691E+00    1.000000E+06  0.02000  1.544E-02    0   1.0000   age020_m62            0.0000     3.1051E-04    11.3486   3.9593    97.0108
 36      1.5223     5.2109E-01    5.6525E-01    3.160000E+06  0.02000  3.762E-02    0   0.9858   age045_m62            0.0000     3.1207E-04    11.3783   3.8995    97.8143
 37      0.0000     0.0000E+00    0.0000E+00    5.010000E+06  0.02000  3.296E-02    0   0.9342   age055_m62            0.0000     2.8896E-04    10.9104   3.5587   100.1172
 38      0.0000     0.0000E+00    0.0000E+00    8.710000E+06  0.02000  1.154E-02    0   0.8861   age067_m62            0.0000     1.4461E-04     7.8051   2.4346   111.5372
 39      0.0000     0.0000E+00    0.0000E+00    1.445000E+07  0.02000  7.663E-03    0   0.8472   age078_m62            0.0000     1.6806E-04     8.2806   2.6872   108.2353
 40      0.0000     0.0000E+00    0.0000E+00    2.512000E+07  0.02000  4.532E-03    0   0.8099   age090_m62            0.0000     1.5917E-04     8.0693   2.6762   107.9965
 41      0.0000     0.0000E+00    0.0000E+00    5.500000E+07  0.02000  2.733E-03    0   0.7595   age110_m62            0.0000     2.0150E-04     8.9681   2.7398   105.8169
 42      0.0000     0.0000E+00    0.0000E+00    1.609000E+08  0.02000  1.369E-03    0   0.6985   age120_m62            0.0000     2.1561E-04     9.2542   2.6178   106.8058
 43      0.0000     0.0000E+00    0.0000E+00    2.861200E+08  0.02000  9.013E-04    0   0.6714   age125_m62            0.0000     2.2717E-04     9.4301   2.3939   108.5832
 44      0.0000     0.0000E+00    0.0000E+00    5.088000E+08  0.02000  5.028E-04    0   0.6449   age130_m62            0.0000     2.4996E-04     9.8998   2.0554   109.5863
 45      0.0000     0.0000E+00    0.0000E+00    9.047900E+08  0.02000  2.428E-04    0   0.6179   age135_m62            0.0000     2.4569E-04     9.8371   1.4812   108.3923
 46      0.0000     0.0000E+00    0.0000E+00    1.434000E+09  0.02000  1.263E-04    0   0.5908   age139_m62            0.0000     2.5642E-04    10.0440   1.0428   106.6074
 47      0.0000     0.0000E+00    0.0000E+00    2.500000E+09  0.02000  5.985E-05    0   0.5673   age150_m62            0.0000     2.9016E-04    10.7318   0.6945   104.4508
 48      0.0000     0.0000E+00    0.0000E+00    4.250000E+09  0.02000  3.271E-05    0   0.5468   age158_m62            0.0000     3.2541E-04    11.3895   0.4147   102.5275
 49      0.0000     0.0000E+00    0.0000E+00    1.000000E+10  0.02000  1.360E-05    0   0.5167   age181_m62            0.0000     3.5947E-04    12.0109   0.0918   101.0224
 50      0.0000     0.0000E+00    0.0000E+00    1.800000E+10  0.02000  7.124E-06    0   0.5013   age213_m62            0.0000     3.9006E-04    12.5816  -0.1002    99.4823
 51      1.5908     7.9032E-01    8.6947E-01    1.000000E+06  0.05000  2.592E-02    0   0.9998   age020_m72            0.0000     3.1150E-04    11.3795   3.9461    97.2631
 52      0.0000     0.0000E+00    0.0000E+00    3.160000E+06  0.05000  4.845E-02    0   0.9577   age045_m72            0.0000     3.0786E-04    11.2883   3.7990    98.3555
 53      0.0000     0.0000E+00    0.0000E+00    5.010000E+06  0.05000  3.072E-02    0   0.9147   age055_m72            0.0000     1.8034E-04     8.7500   3.2691   104.3046
 54     91.6990     8.1156E+01    7.9273E+01    6.610000E+06  0.05000  1.455E-02    0   0.8877   age061_m72            0.0000     1.0424E-04     6.9303   2.4095   114.8207
 55      0.0000     0.0000E+00    0.0000E+00    1.000000E+07  0.05000  9.074E-03    0   0.8524   age070_m72            0.0000     1.4203E-04     8.1416   3.4213   104.7348
 56      0.0000     0.0000E+00    0.0000E+00    2.512000E+07  0.05000  4.250E-03    0   0.7902   age090_m72            0.0000     1.5643E-04     8.2665   3.1599   105.2454
 57      0.0000     0.0000E+00    0.0000E+00    4.000000E+07  0.05000  3.087E-03    0   0.7618   age104_m72            0.0000     1.5095E-04     8.1174   2.9380   106.6508
 58      0.0000     0.0000E+00    0.0000E+00    1.015200E+08  0.05000  1.700E-03    0   0.7096   age116_m72            0.0000     1.9643E-04     8.8952   2.7420   107.0837
 59      0.0000     0.0000E+00    0.0000E+00    2.861200E+08  0.05000  7.384E-04    0   0.6633   age125_m72            0.0000     2.3652E-04     9.5488   2.2802   109.2006
 60      0.0000     0.0000E+00    0.0000E+00    5.088000E+08  0.05000  3.819E-04    0   0.6372   age130_m72            0.0000     2.6354E-04    10.0710   1.8197   109.5941
 61      0.0000     0.0000E+00    0.0000E+00    9.047900E+08  0.05000  1.676E-04    0   0.6110   age135_m72            0.0000     3.0568E-04    10.9085   1.1537   106.4649
 62      0.0000     0.0000E+00    0.0000E+00    1.434000E+09  0.05000  8.837E-05    0   0.5874   age139_m72            0.0000     2.9094E-04    10.7564   0.6970   105.8116
 63      0.0000     0.0000E+00    0.0000E+00    2.500000E+09  0.05000  4.233E-05    0   0.5598   age150_m72            0.0000     3.3830E-04    11.6118   0.4192   103.1940
 64      0.0000     0.0000E+00    0.0000E+00    6.250000E+09  0.05000  1.435E-05    0   0.5249   age166_m72            0.0000     3.7465E-04    12.3166   0.0003   100.3990
 65      0.0000     0.0000E+00    0.0000E+00    1.300000E+10  0.05000  6.513E-06    0   0.5036   age193_m72            0.0000     4.1287E-04    13.0494  -0.2585   100.4380
 66      0.0000     0.0000E+00    0.0000E+00    1.800000E+10  0.05000  4.527E-06    0   0.4945   age213_m72            0.0000     4.3899E-04    13.5334  -0.4071    99.6875


## Synthesis Results - Average & Chains ##

# j      x_j: min, <> & last-chain-values for 1 ...  7 chains
  1      1.1486     26.0879     35.1656     21.5838     32.2346     30.2637     23.6474     39.1948     32.0242
  2      0.0000     17.2373     21.6206     21.2009     20.9863     19.0514     22.6764     14.0203     20.3150
  3      0.0000      0.4272      0.0716      0.1616      0.0696      0.0796      0.0313      0.6102      0.0313
  4      0.0000      0.3273      0.0173      0.1664      0.1091      0.1706      0.0576      0.0000      0.0331
  5      0.0000      0.2926      0.0299      0.1573      0.1480      0.0358      0.0394      0.1249      0.2259
  6      0.0000      0.3019      0.0715      0.0000      0.0124      0.0721      0.0163      0.1548      0.0300
  7      0.0000      0.3054      0.0000      0.0366      0.0628      0.1149      0.0191      0.0537      0.0612
  8      0.0000      0.3566      0.0803      0.0472      0.0430      0.1879      0.0004      0.2703      0.0563
  9      0.0000      0.3037      0.0841      0.0532      0.0117      0.1216      0.0125      0.0000      0.0933
 10      0.0000      0.3650      0.0109      0.0000      0.0453      0.3091      0.0191      0.3607      0.0229
 11      0.0000      0.2838      0.0000      0.0318      0.1305      0.1567      0.0039      0.0000      0.1328
 12      0.0000      0.3826      0.0349      0.0575      0.0618      0.0510      0.0597      0.0083      0.1060
 13      0.0000      0.4845      0.3667      0.2966      0.4183      0.2148      0.1265      0.5872      0.2949
 14      0.0000      0.3673      0.0195      0.0517      0.1328      0.0459      0.0066      0.0000      0.0112
 15      0.0000      0.2957      0.0311      0.0911      0.0000      0.0755      0.0000      0.2766      0.1523
 16      0.0000      0.2996      0.0000      0.0000      0.0500      0.1080      0.0024      0.1381      0.0593
 17      0.0000      0.3272      0.0734      0.0000      0.0450      0.1032      0.0292      0.2828      0.2301
 18     10.4278     14.0902     13.9361     24.3220     15.6949     15.1809     21.7138      9.6735     15.4704
 19      0.0000      0.2828      0.0000      0.0162      0.0011      0.3548      0.0106      0.0815      0.0000
 20      0.0000      0.2684      0.1275      0.0964      0.1138      0.0155      0.0085      0.0458      0.1309
 21      0.0000      0.2684      0.0991      0.0000      0.0000      0.0926      0.0000      0.6300      0.0000
 22      0.0000      0.3167      0.0000      0.0129      0.1691      0.0182      0.0094      0.0000      0.0805
 23      0.0000      0.4068      0.0240      0.0000      0.0482      0.2467      0.0025      0.6561      0.1095
 24      0.0000      0.3261      0.0833      0.0001      0.2084      0.0000      0.0290      0.0000      0.0358
 25      0.0000      0.3018      0.1009      0.0155      0.0287      0.1767      0.0383      0.0000      0.0018
 26      0.0000      0.3759      0.1647      0.1604      0.0000      0.2193      0.0000      0.0000      0.0782
 27      0.0000      0.2773      0.0598      0.0254      0.1009      0.3909      0.0019      0.2327      0.0348
 28      0.0000      0.3025      0.0045      0.0000      0.0198      0.1428      0.0175      0.4214      0.0000
 29      0.0000      0.2715      0.0094      0.0546      0.1217      0.0479      0.0143      0.0000      0.0829
 30      0.0000      0.2345      0.0160      0.0533      0.0718      0.0183      0.0296      0.0000      0.0496
 31      0.0000      0.4384      0.0259      0.0916      0.0353      0.0000      0.0225      0.0046      0.0745
 32      0.0000      0.2822      0.0138      0.0462      0.2471      0.0532      0.0096      0.0000      0.0582
 33      0.0000      0.2533      0.0623      0.0508      0.0498      0.0000      0.0462      0.0000      0.0544
 34      0.0000      0.3399      0.2326      0.0024      0.2128      0.1337      0.4856      0.1301      0.2793
 35      6.3953      5.1841      8.3192      1.4275      4.1483      5.9658      8.9954      6.1610      6.7363
 36      1.5223      0.4293      0.2228      0.1540      0.1661      0.4556      0.0881      0.4161      0.3009
 37      0.0000      0.2728      0.0333      0.0545      0.0432      0.2736      0.0249      0.2389      0.0242
 38      0.0000      0.3127      0.0630      0.0260      0.1588      0.2154      0.0000      0.2317      0.1297
 39      0.0000      0.3194      0.0000      0.1200      0.0000      0.4581      0.0152      0.9899      0.0532
 40      0.0000      0.3017      0.0128      0.0919      0.1136      0.1314      0.0053      0.1666      0.0000
 41      0.0000      0.3131      0.0000      0.0507      0.0000      0.0335      0.0202      0.0000      0.0969
 42      0.0000      0.2792      0.0000      0.1061      0.0756      0.1928      0.0688      0.0000      0.0998
 43      0.0000      0.3576      0.0426      0.0314      0.0092      0.2579      0.0415      0.0000      0.0422
 44      0.0000      0.2353      0.0529      0.0000      0.0000      0.0000      0.0402      0.0000      0.0711
 45      0.0000      0.2811      0.0367      0.0803      0.0000      0.2298      0.0003      0.0000      0.0392
 46      0.0000      0.4154      0.0276      0.0617      0.0351      0.2198      0.0276      1.0618      0.1156
