###################################################################
## OUTPUT of StarlightChains_v04.for    [Cid@UFSC - 01/Apr/2007] ##
###################################################################

## Some input info
KUG0210-078._43_41.txt                   [arq_obs]
Base.CB07.vall.4m                        [arq_base]
Masks.EmLines.NEW.gm                     [arq_masks]
StCv04.C11.config                        [arq_config]
   66                                    [N_base]
    0                                    [N_YAV_components = # of components with extra extinction!]
    0                                    [i_FitPowerLaw (1/0 = Yes/No)]
-9.99                                    [alpha_PowerLaw]
CCM                                      [red_law_option]
 1.458241                                [q_norm = A(l_norm)/A(V)]

## (Re)Sampling Parameters
 3741.00                                 [l_ini (A)]
 7218.00                                 [l_fin (A)]
    1.00                                 [dl    (A)]     (OBS: dl_cushion =    50.00 A)

## Normalization info
 4020.00                                 [l_norm (A) - for base]
 4010.00                                 [llow_norm (A) - window for f_obs]
 4060.00                                 [lupp_norm (A) - window for f_obs]
1.305378E-17                             [fobs_norm (in input units)]

## S/N
 3691.00                                 [llow_SN (A) - window for S/N]
 7268.00                                 [lupp_SN (A) - window for S/N]
   3.983                                 [S/N in S/N window]
   4.066                                 [S/N in norm. window]
   0.017                                 [S/N_err in S/N window]
   0.017                                 [S/N_err in norm. window]
  1.0000                                 [fscale_chi2]

## etc...
    -2007813                             [idum_orig]
  2427                                   [NOl_eff]
  2086                                   [Nl_eff]
   341    NSIGMA                         [Ntot_cliped & clip_method]
 10055010                                [Nglobal_steps]
   7                                     [N_chains]
   7                                     [NEX0s_base = N_base in EX0s-fits]
 0   0   1      341   2.0   1.074E+04    [Clip-Bug, RC-Crash & Burn-In warning-flags, n_censored_weights, wei_nsig_threshold & wei_limit]
    74     73.622     73.056      0.566  [idt_all, wdt_TotTime, wdt_UsrTime & wdt_SysTime (sec)]

## Synthesis Results - Best model ##

 9.03042E-06                             [chi2/Nl_eff]
     8.17103                             [adev (%)]

   130.00000                             [sum-of-x (%)]
 4.42979E-18                             [Flux_tot (units of input spectrum!)]
 1.19503E-13                             [Mini_tot (???)]
 6.54791E-14                             [Mcor_tot (???)]

  79.97                                  [v0_min  (km/s)]
 416.92                                  [vd_min  (km/s)]
-1.0000                                  [AV_min  (mag)]
 0.0000                                  [YAV_min (mag)]

# j     x_j(%)      Mini_j(%)     Mcor_j(%)     age_j(yr)     Z_j      (L/M)_j    YAV?  Mstars   component_j        a/Fe...       SSP_chi2r SSP_adev(%)   SSP_AV   SSP_x(%)
  1      0.0000     0.0000E+00    0.0000E+00    1.000000E+06  0.00400  1.094E-02    0   1.0000   age020_m42            0.0000     1.0155E-05     8.8076   2.2418   129.5951
  2      0.0000     0.0000E+00    0.0000E+00    3.160000E+06  0.00400  4.007E-02    0   0.9999   age045_m42            0.0000     1.0304E-05     8.4295   1.6077   133.5667
  3      0.0000     0.0000E+00    0.0000E+00    5.010000E+06  0.00400  2.539E-02    0   0.9488   age055_m42            0.0000     1.0076E-05     8.5207   1.8855   132.5567
  4      0.0000     0.0000E+00    0.0000E+00    6.610000E+06  0.00400  2.620E-02    0   0.9220   age061_m42            0.0000     1.0148E-05     8.3368   1.5374   133.8415
  5      0.0000     0.0000E+00    0.0000E+00    1.000000E+07  0.00400  1.322E-02    0   0.8862   age070_m42            0.0000     1.0045E-05     8.1888   1.2542   137.6910
  6      0.0000     0.0000E+00    0.0000E+00    1.445000E+07  0.00400  7.883E-03    0   0.8571   age078_m42            0.0000     9.9772E-06     8.1980   1.5589   135.2515
  7      0.0000     0.0000E+00    0.0000E+00    2.512000E+07  0.00400  5.251E-03    0   0.8174   age090_m42            0.0000     1.0085E-05     8.2471   1.1323   138.2029
  8      0.0000     0.0000E+00    0.0000E+00    4.000000E+07  0.00400  3.649E-03    0   0.7851   age104_m42            0.0000     1.0078E-05     8.2386   0.9198   138.4648
  9      0.0000     0.0000E+00    0.0000E+00    5.500000E+07  0.00400  3.098E-03    0   0.7629   age110_m42            0.0000     1.0206E-05     8.1947   1.0866   137.2715
 10      0.0000     0.0000E+00    0.0000E+00    1.015200E+08  0.00400  2.228E-03    0   0.7207   age116_m42            0.0000     1.0250E-05     8.1879   1.1168   136.7366
 11      0.0000     0.0000E+00    0.0000E+00    2.861200E+08  0.00400  1.093E-03    0   0.6648   age125_m42            0.0000     1.0306E-05     8.3935   0.5665   139.9139
 12      0.0000     0.0000E+00    0.0000E+00    5.088000E+08  0.00400  6.597E-04    0   0.6365   age130_m42            0.0000     1.0283E-05     8.2799   0.5731   139.7729
 13      0.0000     0.0000E+00    0.0000E+00    1.434000E+09  0.00400  2.132E-04    0   0.5798   age139_m42            0.0000     9.4293E-06     8.0806  -0.3726   140.9476
 14      0.0000     0.0000E+00    0.0000E+00    4.250000E+09  0.00400  5.895E-05    0   0.5377   age158_m42            0.0000     8.7191E-06     7.9731  -0.8510   136.8306
 15      0.0000     0.0000E+00    0.0000E+00    7.500000E+09  0.00400  3.510E-05    0   0.5212   age171_m42            0.0000     8.6737E-06     8.0480  -1.0000   134.3053
 16      0.0000     0.0000E+00    0.0000E+00    1.300000E+10  0.00400  2.005E-05    0   0.5034   age193_m42            0.0000     9.2503E-06     8.9911  -1.0000   127.7246
 17      0.0000     0.0000E+00    0.0000E+00    1.800000E+10  0.00400  1.525E-05    0   0.4967   age213_m42            0.0000     9.3575E-06     9.2957  -1.0000   126.4532
 18      0.0000     0.0000E+00    0.0000E+00    1.000000E+06  0.00800  1.238E-02    0   1.0000   age020_m52            0.0000     1.0157E-05     8.8135   2.2373   129.8682
 19      0.0000     0.0000E+00    0.0000E+00    3.160000E+06  0.00800  3.074E-02    0   0.9966   age045_m52            0.0000     1.0082E-05     8.7941   2.1678   130.6537
 20      0.0000     0.0000E+00    0.0000E+00    5.010000E+06  0.00800  2.668E-02    0   0.9443   age055_m52            0.0000     9.9912E-06     8.5377   1.9563   132.0033
 21      0.0000     0.0000E+00    0.0000E+00    6.610000E+06  0.00800  2.136E-02    0   0.9177   age061_m52            0.0000     9.5557E-06     7.9853   0.7413   139.8639
 22      0.0000     0.0000E+00    0.0000E+00    1.000000E+07  0.00800  1.215E-02    0   0.8827   age070_m52            0.0000     1.0028E-05     8.2688   1.4219   138.1557
 23      0.0000     0.0000E+00    0.0000E+00    1.445000E+07  0.00800  8.717E-03    0   0.8552   age078_m52            0.0000     9.9736E-06     8.1878   1.5320   136.7316
 24      0.0000     0.0000E+00    0.0000E+00    2.512000E+07  0.00800  5.592E-03    0   0.8162   age090_m52            0.0000     1.0096E-05     8.3147   1.2040   139.3900
 25      0.0000     0.0000E+00    0.0000E+00    4.000000E+07  0.00800  3.896E-03    0   0.7841   age104_m52            0.0000     1.0100E-05     8.2873   1.1346   139.2160
 26      0.0000     0.0000E+00    0.0000E+00    1.015200E+08  0.00800  2.148E-03    0   0.7226   age116_m52            0.0000     1.0072E-05     8.1812   1.0852   137.9149
 27      0.0000     0.0000E+00    0.0000E+00    2.861200E+08  0.00800  9.925E-04    0   0.6683   age125_m52            0.0000     1.0142E-05     8.1754   0.6383   141.0800
 28      0.0000     0.0000E+00    0.0000E+00    9.047900E+08  0.00800  3.141E-04    0   0.6138   age135_m52            0.0000     9.5183E-06     8.0389  -0.1119   143.4159
 29      0.0000     0.0000E+00    0.0000E+00    1.434000E+09  0.00800  1.719E-04    0   0.5853   age139_m52            0.0000     8.7188E-06     8.0678  -0.7271   142.2549
 30      0.0000     0.0000E+00    0.0000E+00    2.500000E+09  0.00800  7.872E-05    0   0.5600   age150_m52            0.0000     8.4812E-06     8.0020  -1.0000   138.3235
 31      0.0000     0.0000E+00    0.0000E+00    4.250000E+09  0.00800  4.336E-05    0   0.5426   age158_m52            0.0000     8.4927E-06     8.0023  -1.0000   136.4870
 32      0.0000     0.0000E+00    0.0000E+00    6.250000E+09  0.00800  3.159E-05    0   0.5319   age166_m52            0.0000     9.1561E-06     9.0423  -1.0000   129.0455
 33      0.0000     0.0000E+00    0.0000E+00    1.300000E+10  0.00800  1.361E-05    0   0.5073   age193_m52            0.0000     1.4671E-05    15.6267  -1.0000   111.2974
 34      0.0000     0.0000E+00    0.0000E+00    1.800000E+10  0.00800  9.886E-06    0   0.4990   age213_m52            0.0000     1.6776E-05    17.0811  -1.0000   106.6918
 35      0.0000     0.0000E+00    0.0000E+00    1.000000E+06  0.02000  1.544E-02    0   1.0000   age020_m62            0.0000     1.0159E-05     8.8289   2.2313   130.2832
 36      0.0000     0.0000E+00    0.0000E+00    3.160000E+06  0.02000  3.762E-02    0   0.9858   age045_m62            0.0000     1.0070E-05     8.8540   2.1692   131.4426
 37      0.0000     0.0000E+00    0.0000E+00    5.010000E+06  0.02000  3.296E-02    0   0.9342   age055_m62            0.0000     1.0103E-05     8.5034   1.8581   133.4477
 38      0.0000     0.0000E+00    0.0000E+00    8.710000E+06  0.02000  1.154E-02    0   0.8861   age067_m62            0.0000     1.0423E-05     9.4542   0.8449   145.6257
 39      0.0000     0.0000E+00    0.0000E+00    1.445000E+07  0.02000  7.663E-03    0   0.8472   age078_m62            0.0000     1.0050E-05     8.6207   1.0702   141.7117
 40      0.0000     0.0000E+00    0.0000E+00    2.512000E+07  0.02000  4.532E-03    0   0.8099   age090_m62            0.0000     1.0115E-05     8.7804   1.0668   141.1439
 41      0.0000     0.0000E+00    0.0000E+00    5.500000E+07  0.02000  2.733E-03    0   0.7595   age110_m62            0.0000     9.8921E-06     8.2322   1.1032   139.0139
 42      0.0000     0.0000E+00    0.0000E+00    1.609000E+08  0.02000  1.369E-03    0   0.6985   age120_m62            0.0000     1.0095E-05     8.1509   0.9779   140.3339
 43      0.0000     0.0000E+00    0.0000E+00    2.861200E+08  0.02000  9.013E-04    0   0.6714   age125_m62            0.0000     1.0263E-05     8.1145   0.7554   142.5549
 44      0.0000     0.0000E+00    0.0000E+00    5.088000E+08  0.02000  5.028E-04    0   0.6449   age130_m62            0.0000     1.0155E-05     8.0295   0.4141   143.5522
 45      0.0000     0.0000E+00    0.0000E+00    9.047900E+08  0.02000  2.428E-04    0   0.6179   age135_m62            0.0000     9.0445E-06     7.8498  -0.1744   142.3531
 46      0.0000     0.0000E+00    0.0000E+00    1.434000E+09  0.02000  1.263E-04    0   0.5908   age139_m62            0.0000     8.4879E-06     7.8590  -0.6393   141.1141
 47      0.0000     0.0000E+00    0.0000E+00    2.500000E+09  0.02000  5.985E-05    0   0.5673   age150_m62            0.0000     8.3743E-06     8.0662  -1.0000   138.8115
 48    113.2831     9.8752E+01    9.8548E+01    4.250000E+09  0.02000  3.271E-05    0   0.5468   age158_m62            0.0000     9.8294E-06     9.9120  -1.0000   126.4162
 49      0.0000     0.0000E+00    0.0000E+00    1.000000E+10  0.02000  1.360E-05    0   0.5167   age181_m62            0.0000     1.4304E-05    14.6159  -1.0000   112.9340
 50      0.0000     0.0000E+00    0.0000E+00    1.800000E+10  0.02000  7.124E-06    0   0.5013   age213_m62            0.0000     1.8576E-05    17.6266  -1.0000   104.3336
 51      0.0000     0.0000E+00    0.0000E+00    1.000000E+06  0.05000  2.592E-02    0   0.9998   age020_m72            0.0000     1.0148E-05     8.8444   2.2167   130.6600
 52      0.0000     0.0000E+00    0.0000E+00    3.160000E+06  0.05000  4.845E-02    0   0.9577   age045_m72            0.0000     1.0046E-05     8.7762   2.0760   131.8846
 53      0.0000     0.0000E+00    0.0000E+00    5.010000E+06  0.05000  3.072E-02    0   0.9147   age055_m72            0.0000     9.9198E-06     8.5273   1.6238   137.1576
 54      0.0000     0.0000E+00    0.0000E+00    6.610000E+06  0.05000  1.455E-02    0   0.8877   age061_m72            0.0000     1.1778E-05    11.4414   0.8660   148.3258
 55      0.0000     0.0000E+00    0.0000E+00    1.000000E+07  0.05000  9.074E-03    0   0.8524   age070_m72            0.0000     1.0278E-05     9.3023   1.7946   136.8857
 56      0.0000     0.0000E+00    0.0000E+00    2.512000E+07  0.05000  4.250E-03    0   0.7902   age090_m72            0.0000     1.0232E-05     8.8498   1.5402   137.4082
 57      0.0000     0.0000E+00    0.0000E+00    4.000000E+07  0.05000  3.087E-03    0   0.7618   age104_m72            0.0000     1.0373E-05     9.0248   1.3305   138.9095
 58      0.0000     0.0000E+00    0.0000E+00    1.015200E+08  0.05000  1.700E-03    0   0.7096   age116_m72            0.0000     1.0270E-05     8.3622   1.1145   140.2339
 59      0.0000     0.0000E+00    0.0000E+00    2.861200E+08  0.05000  7.384E-04    0   0.6633   age125_m72            0.0000     1.0003E-05     8.0136   0.6453   142.8724
 60     16.7169     1.2481E+00    1.4515E+00    5.088000E+08  0.05000  3.819E-04    0   0.6372   age130_m72            0.0000     9.2663E-06     7.8561   0.1702   143.6225
 61      0.0000     0.0000E+00    0.0000E+00    9.047900E+08  0.05000  1.676E-04    0   0.6110   age135_m72            0.0000     8.4696E-06     8.0423  -0.5470   141.3768
 62      0.0000     0.0000E+00    0.0000E+00    1.434000E+09  0.05000  8.837E-05    0   0.5874   age139_m72            0.0000     8.3132E-06     8.0980  -1.0000   140.4344
 63      0.0000     0.0000E+00    0.0000E+00    2.500000E+09  0.05000  4.233E-05    0   0.5598   age150_m72            0.0000     9.8509E-06     9.8504  -1.0000   127.2944
 64      0.0000     0.0000E+00    0.0000E+00    6.250000E+09  0.05000  1.435E-05    0   0.5249   age166_m72            0.0000     1.6110E-05    16.0653  -1.0000   108.9327
 65      0.0000     0.0000E+00    0.0000E+00    1.300000E+10  0.05000  6.513E-06    0   0.5036   age193_m72            0.0000     2.2914E-05    20.1409  -1.0000    99.7086
 66      0.0000     0.0000E+00    0.0000E+00    1.800000E+10  0.05000  4.527E-06    0   0.4945   age213_m72            0.0000     2.7584E-05    22.3471  -1.0000    93.7145


## Synthesis Results - Average & Chains ##

# j      x_j: min, <> & last-chain-values for 1 ...  7 chains
  1      0.0000      0.2450      0.0003      0.3352      0.1690      0.1713      0.1872      0.0000      0.7707
  2      0.0000      0.2704      0.0000      0.2903      0.0939      0.0233      0.0000      0.0000      0.2901
  3      0.0000      0.2030      0.0002      0.2215      0.2346      0.0679      0.0230      0.0145      0.0000
  4      0.0000      0.2514      0.0000      0.2268      0.0000      0.0623      0.0344      0.0181      0.1941
  5      0.0000      0.2178      0.0001      0.0000      0.1391      0.0231      0.0314      0.0000      0.8109
  6      0.0000      0.2058      0.0070      0.1571      0.0000      0.0000      0.0368      0.0000      1.1763
  7      0.0000      0.3052      0.0000      0.2053      0.2110      0.2706      0.0260      0.0000      0.2893
  8      0.0000      0.2429      0.0001      0.0476      0.0197      0.0000      0.0157      0.0283      0.5639
  9      0.0000      0.2229      0.0002      0.3489      0.0000      0.0235      0.0358      0.0151      0.1301
 10      0.0000      0.2100      0.0001      0.2156      0.1656      0.0641      0.1319      0.0106      1.1586
 11      0.0000      0.2572      0.0002      0.3233      0.0000      0.1491      0.0069      0.0003      0.0000
 12      0.0000      0.2040      0.0002      0.0000      0.3217      0.1096      0.1796      0.0074      0.0000
 13      0.0000      0.2026      0.0000      0.1170      0.2876      0.2036      0.0024      0.0084      0.0000
 14      0.0000      0.2382      0.0000      0.2861      0.5024      0.1507      0.0473      0.0018      0.0000
 15      0.0000      0.2145      0.0003      0.0100      0.5902      0.0000      0.0512      0.0000      1.7632
 16      0.0000      0.1784      0.0000      0.0000      1.1853      0.1064      0.0465      0.0017      1.0021
 17      0.0000      0.2611      0.0003      0.4582      0.0000      0.2003      0.1333      0.0027      0.0000
 18      0.0000      0.3205      0.0000      0.3109      0.3838      0.0462      0.1273      0.0000      1.5089
 19      0.0000      0.2378      0.0000      0.3770      0.0000      0.3091      0.0375      0.0240      0.0849
 20      0.0000      0.1558      0.0002      0.0000      0.0729      0.2157      0.0508      0.0000      0.0000
 21      0.0000      0.2576      0.0005      0.2582      0.4056      0.0028      0.0168      0.0042      0.0000
 22      0.0000      0.1871      0.0000      0.4837      0.4319      0.0000      0.0963      0.0000      0.5131
 23      0.0000      0.2554      0.0000      0.2383      0.1482      0.0012      0.0180      0.0000      1.2231
 24      0.0000      0.2033      0.0002      0.5360      0.1485      0.0000      0.0143      0.0304      0.0000
 25      0.0000      0.2385      0.0000      0.2269      0.2040      0.0577      0.0555      0.0070      0.0000
 26      0.0000      0.2514      0.0001      0.0000      1.0710      0.1148      0.0000      0.0083      0.5705
 27      0.0000      0.2188      0.0001      0.4696      0.6905      0.0659      0.0199      0.0000      0.1926
 28      0.0000      0.5524      0.0074      0.4936      0.5442      0.9367      1.4977      0.0091      0.0000
 29      0.0000      0.2919      0.0000      0.0610      0.0595      0.0382      0.3232      0.0000      0.7077
 30      0.0000      0.2140      0.0000      0.4357      1.3372      0.0335      0.0114      0.0018      0.1127
 31      0.0000      0.1895      0.0000      0.0000      0.0000      0.1652      0.0324      0.0033      0.0000
 32      0.0000      0.2444      0.0002      0.5041      0.7041      0.0000      0.0233      0.0149      0.6941
 33      0.0000      0.2965      0.0004      0.2132      1.1023      0.1485      0.0561      0.0245      1.0175
 34      0.0000      0.1934      0.0002      0.0391      0.0000      0.2336      0.2006      0.0026      0.0000
 35      0.0000      0.2584      0.0000      0.0000      0.4006      0.0000      0.1384      0.0001      0.0000
 36      0.0000      0.2241      0.0003      0.0873      0.0000      0.0414      0.0368      0.0262      0.7753
 37      0.0000      0.2088      0.0000      0.0000      0.3976      0.2555      0.1168      0.0000      0.0000
 38      0.0000      0.1940      0.0000      0.0000      0.6072      0.0910      0.0530      0.0205      0.2847
 39      0.0000      0.1733      0.0002      0.0291      0.0000      0.0000      0.0000      0.0000      0.6186
 40      0.0000      0.2733      0.0001      0.0000      0.1111      0.0363      0.0405      0.0035      0.0000
 41      0.0000      0.2218      0.0000      0.0771      0.0000      0.1166      0.0000      0.0159      0.2668
 42      0.0000      0.2881      0.0000      0.4224      0.7101      0.2876      0.0350      0.0000      0.3103
 43      0.0000      0.2264      0.0001      0.1691      0.0000      0.0541      0.0127      0.0000      0.0000
 44      0.0000     20.7622     21.0766     22.3410     17.1425     19.9327     28.2183     22.8204     19.5477
 45      0.0000      0.2084      0.0000      0.0090      0.5097      0.0000      0.1132      0.0000      0.6425
 46      0.0000      0.2112      0.0002      0.0915      0.0776      0.0744      0.0564      0.0046      0.0000
