###################################################################
## OUTPUT of StarlightChains_v04.for    [Cid@UFSC - 01/Apr/2007] ##
###################################################################

## Some input info
KUG0210-078._50_41.txt                   [arq_obs]
Base.CB07.vall.4m                        [arq_base]
Masks.EmLines.NEW.gm                     [arq_masks]
StCv04.C11.config                        [arq_config]
   66                                    [N_base]
    0                                    [N_YAV_components = # of components with extra extinction!]
    0                                    [i_FitPowerLaw (1/0 = Yes/No)]
-9.99                                    [alpha_PowerLaw]
CCM                                      [red_law_option]
 1.458241                                [q_norm = A(l_norm)/A(V)]

## (Re)Sampling Parameters
 3741.00                                 [l_ini (A)]
 7218.00                                 [l_fin (A)]
    1.00                                 [dl    (A)]     (OBS: dl_cushion =    50.00 A)

## Normalization info
 4020.00                                 [l_norm (A) - for base]
 4010.00                                 [llow_norm (A) - window for f_obs]
 4060.00                                 [lupp_norm (A) - window for f_obs]
4.730353E-18                             [fobs_norm (in input units)]

## S/N
 3691.00                                 [llow_SN (A) - window for S/N]
 7268.00                                 [lupp_SN (A) - window for S/N]
   2.615                                 [S/N in S/N window]
   2.053                                 [S/N in norm. window]
   0.007                                 [S/N_err in S/N window]
   0.005                                 [S/N_err in norm. window]
  1.0000                                 [fscale_chi2]

## etc...
    -2007959                             [idum_orig]
  2372                                   [NOl_eff]
  2217                                   [Nl_eff]
   155    NSIGMA                         [Ntot_cliped & clip_method]
 10122140                                [Nglobal_steps]
   7                                     [N_chains]
   7                                     [NEX0s_base = N_base in EX0s-fits]
 0   0   1      155   2.0   2.606E+03    [Clip-Bug, RC-Crash & Burn-In warning-flags, n_censored_weights, wei_nsig_threshold & wei_limit]
    60     60.227     59.623      0.604  [idt_all, wdt_TotTime, wdt_UsrTime & wdt_SysTime (sec)]

## Synthesis Results - Best model ##

 2.02720E-05                             [chi2/Nl_eff]
    72.09823                             [adev (%)]

   130.00000                             [sum-of-x (%)]
 2.75988E-16                             [Flux_tot (units of input spectrum!)]
 2.52274E-14                             [Mini_tot (???)]
 2.52274E-14                             [Mcor_tot (???)]

-453.51                                  [v0_min  (km/s)]
 488.97                                  [vd_min  (km/s)]
 2.8323                                  [AV_min  (mag)]
 0.0000                                  [YAV_min (mag)]

# j     x_j(%)      Mini_j(%)     Mcor_j(%)     age_j(yr)     Z_j      (L/M)_j    YAV?  Mstars   component_j        a/Fe...       SSP_chi2r SSP_adev(%)   SSP_AV   SSP_x(%)
  1    130.0000     1.0000E+02    1.0000E+02    1.000000E+06  0.00400  1.094E-02    0   1.0000   age020_m42            0.0000     1.8010E-05    80.4329   2.3259   160.6403
  2      0.0000     0.0000E+00    0.0000E+00    3.160000E+06  0.00400  4.007E-02    0   0.9999   age045_m42            0.0000     1.8180E-05    80.7678   1.6630   166.8198
  3      0.0000     0.0000E+00    0.0000E+00    5.010000E+06  0.00400  2.539E-02    0   0.9488   age055_m42            0.0000     1.8080E-05    80.8781   1.9645   164.4242
  4      0.0000     0.0000E+00    0.0000E+00    6.610000E+06  0.00400  2.620E-02    0   0.9220   age061_m42            0.0000     1.8191E-05    81.2402   1.6023   166.4440
  5      0.0000     0.0000E+00    0.0000E+00    1.000000E+07  0.00400  1.322E-02    0   0.8862   age070_m42            0.0000     1.8417E-05    83.2620   1.3666   167.7762
  6      0.0000     0.0000E+00    0.0000E+00    1.445000E+07  0.00400  7.883E-03    0   0.8571   age078_m42            0.0000     1.8281E-05    82.7333   1.6667   165.3006
  7      0.0000     0.0000E+00    0.0000E+00    2.512000E+07  0.00400  5.251E-03    0   0.8174   age090_m42            0.0000     1.8443E-05    83.7050   1.2497   167.9955
  8      0.0000     0.0000E+00    0.0000E+00    4.000000E+07  0.00400  3.649E-03    0   0.7851   age104_m42            0.0000     1.8420E-05    83.6093   1.0231   169.0751
  9      0.0000     0.0000E+00    0.0000E+00    5.500000E+07  0.00400  3.098E-03    0   0.7629   age110_m42            0.0000     1.8397E-05    82.7052   1.1698   169.1080
 10      0.0000     0.0000E+00    0.0000E+00    1.015200E+08  0.00400  2.228E-03    0   0.7207   age116_m42            0.0000     1.8404E-05    82.2478   1.1885   169.2122
 11      0.0000     0.0000E+00    0.0000E+00    2.861200E+08  0.00400  1.093E-03    0   0.6648   age125_m42            0.0000     1.8582E-05    83.6064   0.6445   172.2830
 12      0.0000     0.0000E+00    0.0000E+00    5.088000E+08  0.00400  6.597E-04    0   0.6365   age130_m42            0.0000     1.8538E-05    82.5453   0.6193   174.2471
 13      0.0000     0.0000E+00    0.0000E+00    1.434000E+09  0.00400  2.132E-04    0   0.5798   age139_m42            0.0000     1.8362E-05    81.7541  -0.3780   178.8065
 14      0.0000     0.0000E+00    0.0000E+00    4.250000E+09  0.00400  5.895E-05    0   0.5377   age158_m42            0.0000     1.8281E-05    80.2255  -0.9211   177.6562
 15      0.0000     0.0000E+00    0.0000E+00    7.500000E+09  0.00400  3.510E-05    0   0.5212   age171_m42            0.0000     1.8514E-05    80.0046  -1.0000   173.7720
 16      0.0000     0.0000E+00    0.0000E+00    1.300000E+10  0.00400  2.005E-05    0   0.5034   age193_m42            0.0000     1.9074E-05    81.0365  -1.0000   167.9505
 17      0.0000     0.0000E+00    0.0000E+00    1.800000E+10  0.00400  1.525E-05    0   0.4967   age213_m42            0.0000     1.9074E-05    81.2807  -1.0000   166.5622
 18      0.0000     0.0000E+00    0.0000E+00    1.000000E+06  0.00800  1.238E-02    0   1.0000   age020_m52            0.0000     1.8025E-05    80.4930   2.3208   161.0340
 19      0.0000     0.0000E+00    0.0000E+00    3.160000E+06  0.00800  3.074E-02    0   0.9966   age045_m52            0.0000     1.8001E-05    80.4742   2.2446   162.3033
 20      0.0000     0.0000E+00    0.0000E+00    5.010000E+06  0.00800  2.668E-02    0   0.9443   age055_m52            0.0000     1.8044E-05    80.9832   2.0354   163.7533
 21      0.0000     0.0000E+00    0.0000E+00    6.610000E+06  0.00800  2.136E-02    0   0.9177   age061_m52            0.0000     1.8252E-05    83.2616   0.8322   171.8320
 22      0.0000     0.0000E+00    0.0000E+00    1.000000E+07  0.00800  1.215E-02    0   0.8827   age070_m52            0.0000     1.8448E-05    83.8040   1.5411   167.9671
 23      0.0000     0.0000E+00    0.0000E+00    1.445000E+07  0.00800  8.717E-03    0   0.8552   age078_m52            0.0000     1.8332E-05    82.9900   1.6393   167.1988
 24      0.0000     0.0000E+00    0.0000E+00    2.512000E+07  0.00800  5.592E-03    0   0.8162   age090_m52            0.0000     1.8483E-05    83.9144   1.3127   169.9206
 25      0.0000     0.0000E+00    0.0000E+00    4.000000E+07  0.00800  3.896E-03    0   0.7841   age104_m52            0.0000     1.8439E-05    83.6077   1.2291   170.8004
 26      0.0000     0.0000E+00    0.0000E+00    1.015200E+08  0.00800  2.148E-03    0   0.7226   age116_m52            0.0000     1.8354E-05    82.8085   1.1560   170.7598
 27      0.0000     0.0000E+00    0.0000E+00    2.861200E+08  0.00800  9.925E-04    0   0.6683   age125_m52            0.0000     1.8561E-05    82.8921   0.6879   175.6910
 28      0.0000     0.0000E+00    0.0000E+00    9.047900E+08  0.00800  3.141E-04    0   0.6138   age135_m52            0.0000     1.8613E-05    81.2830  -0.1740   185.8783
 29      0.0000     0.0000E+00    0.0000E+00    1.434000E+09  0.00800  1.719E-04    0   0.5853   age139_m52            0.0000     1.8396E-05    81.1783  -0.7879   184.0169
 30      0.0000     0.0000E+00    0.0000E+00    2.500000E+09  0.00800  7.872E-05    0   0.5600   age150_m52            0.0000     1.8463E-05    79.6887  -1.0000   179.0424
 31      0.0000     0.0000E+00    0.0000E+00    4.250000E+09  0.00800  4.336E-05    0   0.5426   age158_m52            0.0000     1.8567E-05    79.4320  -1.0000   177.2898
 32      0.0000     0.0000E+00    0.0000E+00    6.250000E+09  0.00800  3.159E-05    0   0.5319   age166_m52            0.0000     1.9250E-05    80.2978  -1.0000   170.9021
 33      0.0000     0.0000E+00    0.0000E+00    1.300000E+10  0.00800  1.361E-05    0   0.5073   age193_m52            0.0000     2.1920E-05    84.6849  -1.0000   152.8309
 34      0.0000     0.0000E+00    0.0000E+00    1.800000E+10  0.00800  9.886E-06    0   0.4990   age213_m52            0.0000     2.3020E-05    84.9651  -1.0000   147.8164
 35      0.0000     0.0000E+00    0.0000E+00    1.000000E+06  0.02000  1.544E-02    0   1.0000   age020_m62            0.0000     1.8036E-05    80.4879   2.3149   161.5547
 36      0.0000     0.0000E+00    0.0000E+00    3.160000E+06  0.02000  3.762E-02    0   0.9858   age045_m62            0.0000     1.8022E-05    80.5432   2.2519   163.0266
 37      0.0000     0.0000E+00    0.0000E+00    5.010000E+06  0.02000  3.296E-02    0   0.9342   age055_m62            0.0000     1.8139E-05    81.0196   1.9276   165.9421
 38      0.0000     0.0000E+00    0.0000E+00    8.710000E+06  0.02000  1.154E-02    0   0.8861   age067_m62            0.0000     1.9031E-05    87.8691   1.0451   170.6305
 39      0.0000     0.0000E+00    0.0000E+00    1.445000E+07  0.02000  7.663E-03    0   0.8472   age078_m62            0.0000     1.8563E-05    85.1186   1.2003   171.0932
 40      0.0000     0.0000E+00    0.0000E+00    2.512000E+07  0.02000  4.532E-03    0   0.8099   age090_m62            0.0000     1.8603E-05    85.5032   1.2113   169.5715
 41      0.0000     0.0000E+00    0.0000E+00    5.500000E+07  0.02000  2.733E-03    0   0.7595   age110_m62            0.0000     1.8395E-05    83.6467   1.2040   169.9974
 42      0.0000     0.0000E+00    0.0000E+00    1.609000E+08  0.02000  1.369E-03    0   0.6985   age120_m62            0.0000     1.8541E-05    83.0825   1.0583   172.9524
 43      0.0000     0.0000E+00    0.0000E+00    2.861200E+08  0.02000  9.013E-04    0   0.6714   age125_m62            0.0000     1.8657E-05    82.7843   0.8167   176.9744
 44      0.0000     0.0000E+00    0.0000E+00    5.088000E+08  0.02000  5.028E-04    0   0.6449   age130_m62            0.0000     1.8597E-05    81.0279   0.3873   183.9194
 45      0.0000     0.0000E+00    0.0000E+00    9.047900E+08  0.02000  2.428E-04    0   0.6179   age135_m62            0.0000     1.8455E-05    79.7405  -0.2743   187.1406
 46      0.0000     0.0000E+00    0.0000E+00    1.434000E+09  0.02000  1.263E-04    0   0.5908   age139_m62            0.0000     1.8437E-05    79.2842  -0.7601   186.8133
 47      0.0000     0.0000E+00    0.0000E+00    2.500000E+09  0.02000  5.985E-05    0   0.5673   age150_m62            0.0000     1.8759E-05    78.7360  -1.0000   181.3864
 48      0.0000     0.0000E+00    0.0000E+00    4.250000E+09  0.02000  3.271E-05    0   0.5468   age158_m62            0.0000     1.9814E-05    80.5523  -1.0000   169.7580
 49      0.0000     0.0000E+00    0.0000E+00    1.000000E+10  0.02000  1.360E-05    0   0.5167   age181_m62            0.0000     2.2210E-05    82.9468  -1.0000   155.8885
 50      0.0000     0.0000E+00    0.0000E+00    1.800000E+10  0.02000  7.124E-06    0   0.5013   age213_m62            0.0000     2.4260E-05    83.9900  -1.0000   146.1835
 51      0.0000     0.0000E+00    0.0000E+00    1.000000E+06  0.05000  2.592E-02    0   0.9998   age020_m72            0.0000     1.8025E-05    80.5033   2.2994   162.0921
 52      0.0000     0.0000E+00    0.0000E+00    3.160000E+06  0.05000  4.845E-02    0   0.9577   age045_m72            0.0000     1.8010E-05    80.5722   2.1514   163.9726
 53      0.0000     0.0000E+00    0.0000E+00    5.010000E+06  0.05000  3.072E-02    0   0.9147   age055_m72            0.0000     1.8308E-05    83.3902   1.7302   167.7311
 54      0.0000     0.0000E+00    0.0000E+00    6.610000E+06  0.05000  1.455E-02    0   0.8877   age061_m72            0.0000     1.9533E-05    89.9865   1.0930   171.3340
 55      0.0000     0.0000E+00    0.0000E+00    1.000000E+07  0.05000  9.074E-03    0   0.8524   age070_m72            0.0000     1.8393E-05    83.7038   1.9061   167.0667
 56      0.0000     0.0000E+00    0.0000E+00    2.512000E+07  0.05000  4.250E-03    0   0.7902   age090_m72            0.0000     1.8430E-05    83.9862   1.6498   167.6595
 57      0.0000     0.0000E+00    0.0000E+00    4.000000E+07  0.05000  3.087E-03    0   0.7618   age104_m72            0.0000     1.8569E-05    84.5510   1.4451   168.8701
 58      0.0000     0.0000E+00    0.0000E+00    1.015200E+08  0.05000  1.700E-03    0   0.7096   age116_m72            0.0000     1.8585E-05    83.7405   1.2105   171.8494
 59      0.0000     0.0000E+00    0.0000E+00    2.861200E+08  0.05000  7.384E-04    0   0.6633   age125_m72            0.0000     1.8535E-05    81.9633   0.6596   180.4939
 60      0.0000     0.0000E+00    0.0000E+00    5.088000E+08  0.05000  3.819E-04    0   0.6372   age130_m72            0.0000     1.8336E-05    79.9756   0.0931   187.5075
 61      0.0000     0.0000E+00    0.0000E+00    9.047900E+08  0.05000  1.676E-04    0   0.6110   age135_m72            0.0000     1.8438E-05    78.0692  -0.7101   190.1008
 62      0.0000     0.0000E+00    0.0000E+00    1.434000E+09  0.05000  8.837E-05    0   0.5874   age139_m72            0.0000     1.8877E-05    78.1998  -1.0000   184.1656
 63      0.0000     0.0000E+00    0.0000E+00    2.500000E+09  0.05000  4.233E-05    0   0.5598   age150_m72            0.0000     1.9950E-05    80.1817  -1.0000   171.4168
 64      0.0000     0.0000E+00    0.0000E+00    6.250000E+09  0.05000  1.435E-05    0   0.5249   age166_m72            0.0000     2.2912E-05    83.7998  -1.0000   151.5128
 65      0.0000     0.0000E+00    0.0000E+00    1.300000E+10  0.05000  6.513E-06    0   0.5036   age193_m72            0.0000     2.6010E-05    85.3325  -1.0000   141.0458
 66      0.0000     0.0000E+00    0.0000E+00    1.800000E+10  0.05000  4.527E-06    0   0.4945   age213_m72            0.0000     2.8160E-05    85.5540  -1.0000   133.6743


## Synthesis Results - Average & Chains ##

# j      x_j: min, <> & last-chain-values for 1 ...  7 chains
  1    130.0000    100.9137    105.4852    110.3439    106.8516    106.1679    106.0008    106.8531    107.1775
  2      0.0000      0.1547      0.0097      0.0477      0.0000      0.0883      0.1313      0.0277      0.0375
  3      0.0000      0.1850      0.0000      0.1121      0.0000      0.0323      0.0084      0.0358      0.0000
  4      0.0000      0.1438      0.0198      0.0380      0.0000      0.0614      0.0312      0.1103      0.0000
  5      0.0000      0.1205      0.0073      0.0757      0.0168      0.0000      0.0000      0.0000      0.0601
  6      0.0000      0.0999      0.0000      0.0439      0.0134      0.0742      0.0612      0.0000      0.0119
  7      0.0000      0.1936      0.0057      0.0000      0.0078      0.0996      0.0235      0.0270      0.0000
  8      0.0000      0.1248      0.0217      0.0658      0.0049      0.0373      0.0932      0.0337      0.0000
  9      0.0000      0.0914      0.0022      0.0131      0.0148      0.0369      0.0726      0.0000      0.0031
 10      0.0000      0.1957      0.0138      0.0566      0.0025      0.0001      0.0273      0.0000      0.0289
 11      0.0000      0.1124      0.0103      0.1507      0.0000      0.0000      0.0080      0.0000      0.0000
 12      0.0000      0.1132      0.0091      0.0344      0.0000      0.0327      0.0598      0.0874      0.0061
 13      0.0000      0.1657      0.0059      0.0385      0.0060      0.0211      0.0605      0.0894      0.0134
 14      0.0000      0.1386      0.0000      0.0117      0.0021      0.0186      0.0000      0.0000      0.0198
 15      0.0000      0.1073      0.0074      0.0622      0.0056      0.0000      0.0279      0.0271      0.0000
 16      0.0000      0.6789      1.0913      0.3160      1.1211      0.6258      0.7440      0.0412      0.8162
 17      0.0000      0.1428      0.0036      0.0596      0.0032      0.0494      0.0000      0.0000      0.0019
 18      0.0000     13.1226     15.9512      9.7659     14.8813     13.4613     13.6022     14.1035     13.5236
 19      0.0000      0.1966      0.0051      0.0872      0.0029      0.0186      0.0306      0.1013      0.1838
 20      0.0000      0.1581      0.0180      0.0000      0.0029      0.0000      0.0972      0.0000      0.0069
 21      0.0000      0.1210      0.0000      0.0212      0.0026      0.0467      0.0200      0.0488      0.0143
 22      0.0000      0.1626      0.0000      0.0096      0.0000      0.0509      0.0588      0.0617      0.0289
 23      0.0000      0.1103      0.0094      0.0000      0.0078      0.0820      0.0000      0.0257      0.0000
 24      0.0000      0.1219      0.0018      0.0266      0.0042      0.0696      0.0000      0.1195      0.0146
 25      0.0000      0.1637      0.0152      0.0000      0.0029      0.0740      0.0325      0.0251      0.0612
 26      0.0000      0.1530      0.0130      0.0266      0.0303      0.0526      0.0836      0.0000      0.1215
 27      0.0000      0.1308      0.0223      0.0564      0.0020      0.0379      0.1047      0.0395      0.0376
 28      0.0000      0.1248      0.0125      0.0000      0.0000      0.1877      0.0496      0.0268      0.0000
 29      0.0000      0.1180      0.0000      0.0000      0.0170      0.0000      0.0000      0.0000      0.0379
 30      0.0000      0.1395      0.0210      0.0967      0.0009      0.0154      0.0541      0.0000      0.0503
 31      0.0000      0.1477      0.0031      0.0000      0.0000      0.0570      0.0685      0.0000      0.0000
 32      0.0000      0.1080      0.0000      0.0108      0.0000      0.0271      0.0386      0.0050      0.0022
 33      0.0000      0.1198      0.0000      0.0269      0.0056      0.0497      0.0086      0.0127      0.0000
 34      0.0000      0.1457      0.0145      0.0677      0.0062      0.1015      0.0388      0.0000      0.0690
 35      0.0000      0.1376      0.0218      0.0334      0.0093      0.0514      0.0000      0.0000      0.0641
 36      0.0000      0.2272      0.0841      0.1428      0.1019      0.3176      0.0447      0.1475      0.0670
 37      0.0000      0.1683      0.0034      0.0129      0.0081      0.0109      0.1206      0.0000      0.0302
 38      0.0000      0.1517      0.0000      0.0151      0.0050      0.0330      0.0461      0.0359      0.0656
 39      0.0000      0.2028      0.0046      0.0075      0.0018      0.0514      0.0192      0.0186      0.0703
 40      0.0000      0.1369      0.0016      0.1533      0.0421      0.0488      0.0647      0.0006      0.0968
 41      0.0000      0.1536      0.0053      0.0064      0.0000      0.0000      0.0071      0.0303      0.0000
 42      0.0000      0.1187      0.0220      0.0322      0.0048      0.0819      0.0000      0.0246      0.0603
 43      0.0000      0.1283      0.0000      0.1324      0.0028      0.0153      0.0691      0.0699      0.0389
 44      0.0000      0.1722      0.0183      0.0560      0.0014      0.0775      0.0906      0.0798      0.0861
 45      0.0000      0.2137      0.0000      0.0000      0.0000      0.0431      0.0000      0.0000      0.0309
 46      0.0000      0.1182      0.0034      0.1450      0.0006      0.0550      0.0083      0.0000      0.0000
