###################################################################
## OUTPUT of StarlightChains_v04.for    [Cid@UFSC - 01/Apr/2007] ##
###################################################################

## Some input info
KUG0210-078._31_37.txt                   [arq_obs]
Base.CB07.vall.4m                        [arq_base]
Masks.EmLines.NEW.gm                     [arq_masks]
StCv04.C11.config                        [arq_config]
   66                                    [N_base]
    0                                    [N_YAV_components = # of components with extra extinction!]
    0                                    [i_FitPowerLaw (1/0 = Yes/No)]
-9.99                                    [alpha_PowerLaw]
CCM                                      [red_law_option]
 1.458241                                [q_norm = A(l_norm)/A(V)]

## (Re)Sampling Parameters
 3741.00                                 [l_ini (A)]
 7218.00                                 [l_fin (A)]
    1.00                                 [dl    (A)]     (OBS: dl_cushion =    50.00 A)

## Normalization info
 4020.00                                 [l_norm (A) - for base]
 4010.00                                 [llow_norm (A) - window for f_obs]
 4060.00                                 [lupp_norm (A) - window for f_obs]
5.737860E-17                             [fobs_norm (in input units)]

## S/N
 3691.00                                 [llow_SN (A) - window for S/N]
 7268.00                                 [lupp_SN (A) - window for S/N]
   6.533                                 [S/N in S/N window]
   5.832                                 [S/N in norm. window]
   0.089                                 [S/N_err in S/N window]
   0.080                                 [S/N_err in norm. window]
  1.0000                                 [fscale_chi2]

## etc...
    -2007462                             [idum_orig]
  2432                                   [NOl_eff]
  2396                                   [Nl_eff]
    36    NSIGMA                         [Ntot_cliped & clip_method]
  8284920                                [Nglobal_steps]
   7                                     [N_chains]
  36                                     [NEX0s_base = N_base in EX0s-fits]
 0   0   1       36   2.0   1.448E+04    [Clip-Bug, RC-Crash & Burn-In warning-flags, n_censored_weights, wei_nsig_threshold & wei_limit]
    66     65.802     65.034      0.768  [idt_all, wdt_TotTime, wdt_UsrTime & wdt_SysTime (sec)]

## Synthesis Results - Best model ##

 8.44582E-05                             [chi2/Nl_eff]
     5.13641                             [adev (%)]

   108.68623                             [sum-of-x (%)]
 7.57391E-17                             [Flux_tot (units of input spectrum!)]
 1.42787E-12                             [Mini_tot (???)]
 7.72193E-13                             [Mcor_tot (???)]

  18.00                                  [v0_min  (km/s)]
 117.89                                  [vd_min  (km/s)]
 0.1447                                  [AV_min  (mag)]
 0.0000                                  [YAV_min (mag)]

# j     x_j(%)      Mini_j(%)     Mcor_j(%)     age_j(yr)     Z_j      (L/M)_j    YAV?  Mstars   component_j        a/Fe...       SSP_chi2r SSP_adev(%)   SSP_AV   SSP_x(%)
  1      3.0991     1.3825E-02    2.5565E-02    1.000000E+06  0.00400  1.094E-02    0   1.0000   age020_m42            0.0000     2.2676E-04     7.9966   3.5683    86.6799
  2      0.5216     6.3524E-04    1.1745E-03    3.160000E+06  0.00400  4.007E-02    0   0.9999   age045_m42            0.0000     1.5825E-04     6.8101   2.7872    94.8034
  3      0.0000     0.0000E+00    0.0000E+00    5.010000E+06  0.00400  2.539E-02    0   0.9488   age055_m42            0.0000     1.9084E-04     7.3889   3.1379    91.2985
  4      0.0000     0.0000E+00    0.0000E+00    6.610000E+06  0.00400  2.620E-02    0   0.9220   age061_m42            0.0000     1.6422E-04     6.9964   2.7183    94.7872
  5      0.0000     0.0000E+00    0.0000E+00    1.000000E+07  0.00400  1.322E-02    0   0.8862   age070_m42            0.0000     2.0093E-04     8.6022   2.4752    95.1904
  6      0.0000     0.0000E+00    0.0000E+00    1.445000E+07  0.00400  7.883E-03    0   0.8571   age078_m42            0.0000     2.1741E-04     8.6451   2.8115    92.4090
  7      0.0000     0.0000E+00    0.0000E+00    2.512000E+07  0.00400  5.251E-03    0   0.8174   age090_m42            0.0000     2.0574E-04     8.8953   2.3474    95.6417
  8      0.0000     0.0000E+00    0.0000E+00    4.000000E+07  0.00400  3.649E-03    0   0.7851   age104_m42            0.0000     1.8932E-04     8.5613   2.1071    96.9855
  9      0.0000     0.0000E+00    0.0000E+00    5.500000E+07  0.00400  3.098E-03    0   0.7629   age110_m42            0.0000     1.6899E-04     7.6851   2.2336    98.1310
 10      0.0000     0.0000E+00    0.0000E+00    1.015200E+08  0.00400  2.228E-03    0   0.7207   age116_m42            0.0000     1.5867E-04     7.2068   2.2350    99.0799
 11      1.1463     5.1185E-02    6.2921E-02    2.861200E+08  0.00400  1.093E-03    0   0.6648   age125_m42            0.0000     1.6052E-04     7.8605   1.6585   102.0446
 12      0.0000     0.0000E+00    0.0000E+00    5.088000E+08  0.00400  6.597E-04    0   0.6365   age130_m42            0.0000     1.4283E-04     7.0050   1.6179   104.2419
 13     27.6330     6.3256E+00    6.7817E+00    1.434000E+09  0.00400  2.132E-04    0   0.5798   age139_m42            0.0000     1.0100E-04     6.1342   0.6272   107.0606
 14     11.7174     9.7007E+00    9.6451E+00    4.250000E+09  0.00400  5.895E-05    0   0.5377   age158_m42            0.0000     9.2382E-05     5.1202   0.1863   102.7494
 15      4.5418     6.3151E+00    6.0862E+00    7.500000E+09  0.00400  3.510E-05    0   0.5212   age171_m42            0.0000     9.6594E-05     4.9906  -0.0144   102.4372
 16      0.0000     0.0000E+00    0.0000E+00    1.300000E+10  0.00400  2.005E-05    0   0.5034   age193_m42            0.0000     1.0564E-04     5.0835  -0.1892   102.1396
 17      0.0000     0.0000E+00    0.0000E+00    1.800000E+10  0.00400  1.525E-05    0   0.4967   age213_m42            0.0000     1.0601E-04     5.1129  -0.2067   101.5048
 18      0.0000     0.0000E+00    0.0000E+00    1.000000E+06  0.00800  1.238E-02    0   1.0000   age020_m52            0.0000     2.2598E-04     7.9996   3.5647    86.8674
 19      0.0000     0.0000E+00    0.0000E+00    3.160000E+06  0.00800  3.074E-02    0   0.9966   age045_m52            0.0000     2.2061E-04     7.8450   3.4834    87.7969
 20      0.0000     0.0000E+00    0.0000E+00    5.010000E+06  0.00800  2.668E-02    0   0.9443   age055_m52            0.0000     2.0128E-04     7.5645   3.2278    90.1741
 21      0.0000     0.0000E+00    0.0000E+00    6.610000E+06  0.00800  2.136E-02    0   0.9177   age061_m52            0.0000     1.8637E-04     8.3604   1.9778    96.1660
 22      0.0000     0.0000E+00    0.0000E+00    1.000000E+07  0.00800  1.215E-02    0   0.8827   age070_m52            0.0000     2.2589E-04     9.2614   2.6680    94.3407
 23      0.0000     0.0000E+00    0.0000E+00    1.445000E+07  0.00800  8.717E-03    0   0.8552   age078_m52            0.0000     2.1193E-04     8.6267   2.7731    93.8507
 24      0.0000     0.0000E+00    0.0000E+00    2.512000E+07  0.00800  5.592E-03    0   0.8162   age090_m52            0.0000     2.0782E-04     8.9914   2.4081    96.8766
 25      0.0000     0.0000E+00    0.0000E+00    4.000000E+07  0.00800  3.896E-03    0   0.7841   age104_m52            0.0000     1.8842E-04     8.4839   2.3008    98.4091
 26      0.0000     0.0000E+00    0.0000E+00    1.015200E+08  0.00800  2.148E-03    0   0.7226   age116_m52            0.0000     1.6123E-04     7.6206   2.2135    99.3014
 27      0.0000     0.0000E+00    0.0000E+00    2.861200E+08  0.00800  9.925E-04    0   0.6683   age125_m52            0.0000     1.4407E-04     7.0121   1.6822   105.2534
 28      0.0000     0.0000E+00    0.0000E+00    9.047900E+08  0.00800  3.141E-04    0   0.6138   age135_m52            0.0000     1.1252E-04     6.0669   0.8313   111.7510
 29      0.0000     0.0000E+00    0.0000E+00    1.434000E+09  0.00800  1.719E-04    0   0.5853   age139_m52            0.0000     9.5062E-05     5.8603   0.2646   108.5973
 30      0.0000     0.0000E+00    0.0000E+00    2.500000E+09  0.00800  7.872E-05    0   0.5600   age150_m52            0.0000     9.1960E-05     5.0730  -0.0204   106.3157
 31      0.0000     0.0000E+00    0.0000E+00    4.250000E+09  0.00800  4.336E-05    0   0.5426   age158_m52            0.0000     9.7177E-05     5.0542  -0.0323   105.1546
 32      0.0000     0.0000E+00    0.0000E+00    6.250000E+09  0.00800  3.159E-05    0   0.5319   age166_m52            0.0000     1.0505E-04     5.1387  -0.2596   106.0040
 33      0.0000     0.0000E+00    0.0000E+00    1.300000E+10  0.00800  1.361E-05    0   0.5073   age193_m52            0.0000     1.2857E-04     5.6511  -0.7577   106.3272
 34      0.0000     0.0000E+00    0.0000E+00    1.800000E+10  0.00800  9.886E-06    0   0.4990   age213_m52            0.0000     1.4872E-04     6.2306  -0.8940   106.7964
 35      0.0000     0.0000E+00    0.0000E+00    1.000000E+06  0.02000  1.544E-02    0   1.0000   age020_m62            0.0000     2.2818E-04     8.0198   3.5610    87.0439
 36      0.0000     0.0000E+00    0.0000E+00    3.160000E+06  0.02000  3.762E-02    0   0.9858   age045_m62            0.0000     2.3175E-04     7.9415   3.4989    87.8340
 37      0.0000     0.0000E+00    0.0000E+00    5.010000E+06  0.02000  3.296E-02    0   0.9342   age055_m62            0.0000     1.7654E-04     6.9953   3.0806    93.0761
 38      0.0000     0.0000E+00    0.0000E+00    8.710000E+06  0.02000  1.154E-02    0   0.8861   age067_m62            0.0000     3.7205E-04    13.5901   2.1929    93.6075
 39      0.1099     7.0009E-04    1.0967E-03    1.445000E+07  0.02000  7.663E-03    0   0.8472   age078_m62            0.0000     2.5813E-04    10.4931   2.3304    95.6485
 40      0.0000     0.0000E+00    0.0000E+00    2.512000E+07  0.02000  4.532E-03    0   0.8099   age090_m62            0.0000     2.6298E-04    10.7339   2.3231    95.3043
 41      0.0000     0.0000E+00    0.0000E+00    5.500000E+07  0.02000  2.733E-03    0   0.7595   age110_m62            0.0000     1.9155E-04     8.5807   2.2912    97.3268
 42      2.0770     7.4044E-02    9.5635E-02    1.609000E+08  0.02000  1.369E-03    0   0.6985   age120_m62            0.0000     1.6045E-04     7.4875   2.0769   102.2756
 43      0.0000     0.0000E+00    0.0000E+00    2.861200E+08  0.02000  9.013E-04    0   0.6714   age125_m62            0.0000     1.5170E-04     7.0034   1.7901   106.8321
 44     11.2590     1.0929E+00    1.3032E+00    5.088000E+08  0.02000  5.028E-04    0   0.6449   age130_m62            0.0000     1.2848E-04     5.9815   1.3593   111.9674
 45      0.0000     0.0000E+00    0.0000E+00    9.047900E+08  0.02000  2.428E-04    0   0.6179   age135_m62            0.0000     9.6646E-05     5.3086   0.7664   111.2101
 46      0.0000     0.0000E+00    0.0000E+00    1.434000E+09  0.02000  1.263E-04    0   0.5908   age139_m62            0.0000     9.4699E-05     5.1342   0.3280   109.1221
 47      0.0000     0.0000E+00    0.0000E+00    2.500000E+09  0.02000  5.985E-05    0   0.5673   age150_m62            0.0000     1.0283E-04     5.0358  -0.0586   108.2975
 48      0.0000     0.0000E+00    0.0000E+00    4.250000E+09  0.02000  3.271E-05    0   0.5468   age158_m62            0.0000     1.2251E-04     5.5566  -0.3990   108.6338
 49      4.2254     1.5163E+01    1.4487E+01    1.000000E+10  0.02000  1.360E-05    0   0.5167   age181_m62            0.0000     1.6826E-04     6.9528  -0.7960   109.8321
 50      0.5110     3.5005E+00    3.2449E+00    1.800000E+10  0.02000  7.124E-06    0   0.5013   age213_m62            0.0000     2.1208E-04     7.7101  -1.0000   109.0674
 51      0.0000     0.0000E+00    0.0000E+00    1.000000E+06  0.05000  2.592E-02    0   0.9998   age020_m72            0.0000     2.3459E-04     8.1525   3.5551    86.9398
 52      0.0000     0.0000E+00    0.0000E+00    3.160000E+06  0.05000  4.845E-02    0   0.9577   age045_m72            0.0000     2.0789E-04     7.4727   3.3651    89.6164
 53      0.0000     0.0000E+00    0.0000E+00    5.010000E+06  0.05000  3.072E-02    0   0.9147   age055_m72            0.0000     2.5260E-04     9.5291   2.9055    92.2979
 54      0.0000     0.0000E+00    0.0000E+00    6.610000E+06  0.05000  1.455E-02    0   0.8877   age061_m72            0.0000     4.8763E-04    16.4265   2.2350    93.4061
 55      0.0000     0.0000E+00    0.0000E+00    1.000000E+07  0.05000  9.074E-03    0   0.8524   age070_m72            0.0000     2.7555E-04    10.0544   3.0672    92.2363
 56      0.0000     0.0000E+00    0.0000E+00    2.512000E+07  0.05000  4.250E-03    0   0.7902   age090_m72            0.0000     2.3511E-04     9.5239   2.7598    94.7050
 57      0.0000     0.0000E+00    0.0000E+00    4.000000E+07  0.05000  3.087E-03    0   0.7618   age104_m72            0.0000     2.3192E-04     9.8044   2.5269    96.5207
 58      0.0000     0.0000E+00    0.0000E+00    1.015200E+08  0.05000  1.700E-03    0   0.7096   age116_m72            0.0000     1.7565E-04     8.1219   2.2313   101.2529
 59      0.0000     0.0000E+00    0.0000E+00    2.861200E+08  0.05000  7.384E-04    0   0.6633   age125_m72            0.0000     1.4000E-04     6.4144   1.6275   109.6313
 60      0.0000     0.0000E+00    0.0000E+00    5.088000E+08  0.05000  3.819E-04    0   0.6372   age130_m72            0.0000     1.0628E-04     5.4164   1.1044   112.6409
 61      0.0000     0.0000E+00    0.0000E+00    9.047900E+08  0.05000  1.676E-04    0   0.6110   age135_m72            0.0000     9.6714E-05     4.8783   0.3865   111.0670
 62     16.6632     9.2026E+00    9.9956E+00    1.434000E+09  0.05000  8.837E-05    0   0.5874   age139_m72            0.0000     1.0978E-04     5.2925  -0.0751   110.4741
 63     17.4390     2.0106E+01    2.0813E+01    2.500000E+09  0.05000  4.233E-05    0   0.5598   age150_m72            0.0000     1.3110E-04     5.9268  -0.4180   110.2446
 64      7.2924     2.4801E+01    2.4072E+01    6.250000E+09  0.05000  1.435E-05    0   0.5249   age166_m72            0.0000     1.7300E-04     7.4187  -0.9098   109.9742
 65      0.3648     2.7338E+00    2.5457E+00    1.300000E+10  0.05000  6.513E-06    0   0.5036   age193_m72            0.0000     2.6077E-04     7.9596  -1.0000   105.8669
 66      0.0851     9.1767E-01    8.3910E-01    1.800000E+10  0.05000  4.527E-06    0   0.4945   age213_m72            0.0000     3.5220E-04    10.1376  -1.0000   100.9189


## Synthesis Results - Average & Chains ##

# j      x_j: min, <> & last-chain-values for 1 ...  7 chains
  1      3.0991      6.2807      5.7695      6.3009      5.8578      5.4625      5.6718      6.1722      6.4992
  2      0.5216      0.1922      0.5161      0.3080      0.0248      1.2657      0.4298      0.2811      0.0155
  3      0.0000      0.1501      0.0000      0.0545      0.1792      0.1335      0.0000      0.0000      0.0000
  4      0.0000      0.0953      0.0000      0.0031      0.1304      0.4968      0.0033      0.1589      0.1610
  5      0.0000      0.1868      0.5094      0.0000      0.1338      0.9601      0.3344      0.0920      0.0000
  6      0.0000      0.1862      0.1936      0.0084      0.0242      0.0000      0.1573      0.6970      0.0775
  7      0.0000      0.1345      0.3545      0.1163      0.0011      0.0000      0.1650      0.1960      0.0414
  8      0.0000      0.1429      0.2018      0.1074      0.4347      0.2008      0.1759      0.1313      0.0631
  9      0.0000      0.1392      0.4965      0.0893      0.0593      0.0000      0.0257      0.1722      0.0238
 10      0.0000      0.2241      0.5474      0.3532      0.1582      0.2171      0.0576      0.6696      0.1982
 11      1.1463      0.1008      0.0000      0.0598      0.2069      0.7759      0.0386      0.2183      0.0880
 12      0.0000      0.1418      0.3877      0.2011      0.1847      0.0000      0.0000      0.0530      0.0996
 13     27.6330      0.1186      0.1093      0.2009      0.1630      0.0000      0.0000      0.7872      0.1111
 14     11.7174      0.1147      0.3168      0.1742      0.1461      0.0000      0.1328      0.2786      0.1328
 15      4.5418      0.1483      0.0000      0.0864      0.0167      1.6319      0.0534      0.2885      0.1069
 16      0.0000      0.1528      0.0000      0.1037      0.0591      0.6238      0.2168      0.2277      0.2120
 17      0.0000      0.1645      0.4818      0.0001      0.0612      1.6077      0.1212      0.2015      0.3989
 18      0.0000      0.1455      0.7808      0.0000      0.4345      0.4097      0.0091      0.0414      0.1016
 19      0.0000      0.4567      0.0000      0.1992      0.4351      0.1268      0.3404      0.5633      0.6949
 20      0.0000      0.2918      0.2730      0.1206      0.2276      0.1293      0.1453      0.1614      0.3226
 21      0.0000      0.1414      0.7874      0.0000      0.2058      0.2226      0.0866      0.0000      0.0899
 22      0.0000      0.1266      0.0000      0.0022      0.3072      0.4628      0.0295      0.0000      0.0877
 23      0.0000      0.1704      0.3784      0.2271      0.0938      0.1246      0.0000      0.0000      0.0000
 24      0.0000      0.2239      0.0803      0.0000      0.1378      0.5201      0.1695      0.1721      0.2438
 25      0.0000      0.1365      0.1810      0.0927      0.0550      0.7203      0.0000      0.1892      0.0591
 26      0.0000      0.2007      1.0629      0.0092      0.2134      0.0686      0.2696      0.1133      0.0000
 27      0.0000      0.1587      0.2758      0.2505      0.0826      0.2024      0.0342      0.3855      0.2247
 28      0.0000      0.1754      0.2175      0.2565      0.5399      0.0000      0.1742      0.5738      0.2463
 29      0.0000      0.1258      0.5592      0.1400      0.0139      0.3261      0.5956      0.0570      0.0000
 30      0.0000      0.1709      0.0798      0.0780      0.2388      0.0000      0.5181      0.0000      0.0701
 31      0.0000      0.0965      0.1321      0.0998      0.3493      0.0178      0.2327      0.1333      0.0000
 32      0.0000      0.1372      0.0262      0.0000      0.1000      0.0000      0.1950      0.0000      0.2057
 33      0.0000      0.1561      0.8984      0.1778      0.7045      0.2186      0.2438      0.2390      0.0308
 34      0.0000      0.1213      0.7128      0.0000      0.0083      0.0000      0.2407      0.0000      0.0000
 35      0.0000      0.1145      0.0000      0.0729      0.6236      0.0000      0.0379      0.0000      0.0000
 36      0.0000      0.1804      0.0836      0.1516      0.1918      0.2654      0.0147      0.0000      0.3186
 37      0.0000      0.1113      0.1441      0.0360      0.0728      0.1127      0.0000      0.2428      0.0000
 38      0.0000      0.2761      0.3324      0.2926      0.0826      0.0000      0.3908      0.0000      0.0471
 39      0.1099      0.1640      0.0406      0.0036      0.0000      1.3349      0.2627      0.3241      0.2199
 40      0.0000      0.1871      0.6003      0.1028      0.4433      0.7941      0.0000      0.3782      0.0358
 41      0.0000      0.1357      0.0073      0.1852      0.3145      0.2257      0.0662      0.0484      0.0222
 42      2.0770      0.1467      0.1169      0.0000      0.0727      0.5284      0.3442      0.3759      0.0115
 43      0.0000      0.1605      1.0641      0.2329      0.1283      0.6394      0.0820      0.0727      0.0894
 44     11.2590      0.1602      0.3434      0.0432      0.1904      0.1263      0.2238      0.3854      0.2917
 45      0.0000      0.2318      0.2579      0.4028      0.1534      0.3845      0.0039      1.3649      0.0000
 46      0.0000      0.1288      0.0724      0.0000      0.0912      0.1682      0.8083      0.2012      0.0000
