###################################################################
## OUTPUT of StarlightChains_v04.for    [Cid@UFSC - 01/Apr/2007] ##
###################################################################

## Some input info
KUG0210-078._34_28.txt                   [arq_obs]
Base.CB07.vall.4m                        [arq_base]
Masks.EmLines.NEW.gm                     [arq_masks]
StCv04.C11.config                        [arq_config]
   66                                    [N_base]
    0                                    [N_YAV_components = # of components with extra extinction!]
    0                                    [i_FitPowerLaw (1/0 = Yes/No)]
-9.99                                    [alpha_PowerLaw]
CCM                                      [red_law_option]
 1.458241                                [q_norm = A(l_norm)/A(V)]

## (Re)Sampling Parameters
 3741.00                                 [l_ini (A)]
 7218.00                                 [l_fin (A)]
    1.00                                 [dl    (A)]     (OBS: dl_cushion =    50.00 A)

## Normalization info
 4020.00                                 [l_norm (A) - for base]
 4010.00                                 [llow_norm (A) - window for f_obs]
 4060.00                                 [lupp_norm (A) - window for f_obs]
3.084880E-17                             [fobs_norm (in input units)]

## S/N
 3691.00                                 [llow_SN (A) - window for S/N]
 7268.00                                 [lupp_SN (A) - window for S/N]
   3.761                                 [S/N in S/N window]
   4.250                                 [S/N in norm. window]
   0.039                                 [S/N_err in S/N window]
   0.045                                 [S/N_err in norm. window]
  1.0000                                 [fscale_chi2]

## etc...
    -2007533                             [idum_orig]
  2421                                   [NOl_eff]
  2140                                   [Nl_eff]
   281    NSIGMA                         [Ntot_cliped & clip_method]
 10412150                                [Nglobal_steps]
   7                                     [N_chains]
  38                                     [NEX0s_base = N_base in EX0s-fits]
 0   0   1      281   2.0   2.298E+04    [Clip-Bug, RC-Crash & Burn-In warning-flags, n_censored_weights, wei_nsig_threshold & wei_limit]
    79     77.796     77.001      0.795  [idt_all, wdt_TotTime, wdt_UsrTime & wdt_SysTime (sec)]

## Synthesis Results - Best model ##

 3.23087E-05                             [chi2/Nl_eff]
     5.03737                             [adev (%)]

   130.00000                             [sum-of-x (%)]
 1.04685E-17                             [Flux_tot (units of input spectrum!)]
 2.77933E-13                             [Mini_tot (???)]
 1.47762E-13                             [Mcor_tot (???)]

  39.08                                  [v0_min  (km/s)]
 299.65                                  [vd_min  (km/s)]
-1.0000                                  [AV_min  (mag)]
 0.0000                                  [YAV_min (mag)]

# j     x_j(%)      Mini_j(%)     Mcor_j(%)     age_j(yr)     Z_j      (L/M)_j    YAV?  Mstars   component_j        a/Fe...       SSP_chi2r SSP_adev(%)   SSP_AV   SSP_x(%)
  1      1.6667     4.4140E-03    8.3025E-03    1.000000E+06  0.00400  1.094E-02    0   1.0000   age020_m42            0.0000     4.5456E-05     6.8448   2.1751   119.5034
  2      4.3098     3.1163E-03    5.8611E-03    3.160000E+06  0.00400  4.007E-02    0   0.9999   age045_m42            0.0000     4.7065E-05     6.6680   1.5402   122.9303
  3      0.0000     0.0000E+00    0.0000E+00    5.010000E+06  0.00400  2.539E-02    0   0.9488   age055_m42            0.0000     4.5788E-05     6.6545   1.8180   122.1061
  4      0.0000     0.0000E+00    0.0000E+00    6.610000E+06  0.00400  2.620E-02    0   0.9220   age061_m42            0.0000     4.6260E-05     6.5840   1.4680   123.1874
  5      0.0000     0.0000E+00    0.0000E+00    1.000000E+07  0.00400  1.322E-02    0   0.8862   age070_m42            0.0000     4.5537E-05     6.5950   1.1876   126.3405
  6      0.0000     0.0000E+00    0.0000E+00    1.445000E+07  0.00400  7.883E-03    0   0.8571   age078_m42            0.0000     4.5403E-05     6.5701   1.4908   124.2637
  7      0.0000     0.0000E+00    0.0000E+00    2.512000E+07  0.00400  5.251E-03    0   0.8174   age090_m42            0.0000     4.5881E-05     6.7056   1.0660   126.7181
  8      6.4659     5.1340E-02    7.5815E-02    4.000000E+07  0.00400  3.649E-03    0   0.7851   age104_m42            0.0000     4.5515E-05     6.6520   0.8514   127.0321
  9      0.0000     0.0000E+00    0.0000E+00    5.500000E+07  0.00400  3.098E-03    0   0.7629   age110_m42            0.0000     4.6496E-05     6.5984   1.0191   126.0143
 10      0.0000     0.0000E+00    0.0000E+00    1.015200E+08  0.00400  2.228E-03    0   0.7207   age116_m42            0.0000     4.6913E-05     6.5565   1.0487   125.5788
 11      0.0000     0.0000E+00    0.0000E+00    2.861200E+08  0.00400  1.093E-03    0   0.6648   age125_m42            0.0000     4.7458E-05     6.8830   0.4991   128.1929
 12      0.0000     0.0000E+00    0.0000E+00    5.088000E+08  0.00400  6.597E-04    0   0.6365   age130_m42            0.0000     4.7075E-05     6.6068   0.5047   128.2244
 13      0.0000     0.0000E+00    0.0000E+00    1.434000E+09  0.00400  2.132E-04    0   0.5798   age139_m42            0.0000     4.0360E-05     5.7853  -0.4432   129.5903
 14      0.0000     0.0000E+00    0.0000E+00    4.250000E+09  0.00400  5.895E-05    0   0.5377   age158_m42            0.0000     3.5273E-05     5.3109  -0.9203   126.1712
 15      0.0000     0.0000E+00    0.0000E+00    7.500000E+09  0.00400  3.510E-05    0   0.5212   age171_m42            0.0000     3.5394E-05     5.9766  -1.0000   122.1350
 16      0.0000     0.0000E+00    0.0000E+00    1.300000E+10  0.00400  2.005E-05    0   0.5034   age193_m42            0.0000     4.0593E-05     8.6819  -1.0000   116.6369
 17      3.6659     6.9649E+00    6.5071E+00    1.800000E+10  0.00400  1.525E-05    0   0.4967   age213_m42            0.0000     4.1874E-05     9.2052  -1.0000   115.5162
 18      0.0000     0.0000E+00    0.0000E+00    1.000000E+06  0.00800  1.238E-02    0   1.0000   age020_m52            0.0000     4.5497E-05     6.8406   2.1706   119.7657
 19      0.0000     0.0000E+00    0.0000E+00    3.160000E+06  0.00800  3.074E-02    0   0.9966   age045_m52            0.0000     4.5312E-05     6.8000   2.0998   120.5542
 20      0.0000     0.0000E+00    0.0000E+00    5.010000E+06  0.00800  2.668E-02    0   0.9443   age055_m52            0.0000     4.5049E-05     6.5963   1.8878   121.6936
 21      0.0000     0.0000E+00    0.0000E+00    6.610000E+06  0.00800  2.136E-02    0   0.9177   age061_m52            0.0000     4.1165E-05     6.1217   0.6760   128.4439
 22      0.0000     0.0000E+00    0.0000E+00    1.000000E+07  0.00800  1.215E-02    0   0.8827   age070_m52            0.0000     4.5775E-05     6.6932   1.3556   126.7270
 23      0.0000     0.0000E+00    0.0000E+00    1.445000E+07  0.00800  8.717E-03    0   0.8552   age078_m52            0.0000     4.5423E-05     6.5151   1.4643   125.6011
 24      0.0000     0.0000E+00    0.0000E+00    2.512000E+07  0.00800  5.592E-03    0   0.8162   age090_m52            0.0000     4.6218E-05     6.7226   1.1360   127.8498
 25      0.0000     0.0000E+00    0.0000E+00    4.000000E+07  0.00800  3.896E-03    0   0.7841   age104_m52            0.0000     4.6356E-05     6.7220   1.0634   127.8138
 26      0.0000     0.0000E+00    0.0000E+00    1.015200E+08  0.00800  2.148E-03    0   0.7226   age116_m52            0.0000     4.5799E-05     6.5821   1.0159   126.6541
 27      0.0000     0.0000E+00    0.0000E+00    2.861200E+08  0.00800  9.925E-04    0   0.6683   age125_m52            0.0000     4.5849E-05     6.5006   0.5668   129.5745
 28      0.0000     0.0000E+00    0.0000E+00    9.047900E+08  0.00800  3.141E-04    0   0.6138   age135_m52            0.0000     4.1590E-05     5.9488  -0.1929   132.3338
 29      4.2021     7.0826E-01    7.7973E-01    1.434000E+09  0.00800  1.719E-04    0   0.5853   age139_m52            0.0000     3.6146E-05     5.4955  -0.8061   131.3898
 30      0.0000     0.0000E+00    0.0000E+00    2.500000E+09  0.00800  7.872E-05    0   0.5600   age150_m52            0.0000     3.3927E-05     5.5707  -1.0000   125.8940
 31      0.0000     0.0000E+00    0.0000E+00    4.250000E+09  0.00800  4.336E-05    0   0.5426   age158_m52            0.0000     3.4180E-05     5.7495  -1.0000   124.3034
 32      0.0000     0.0000E+00    0.0000E+00    6.250000E+09  0.00800  3.159E-05    0   0.5319   age166_m52            0.0000     4.0323E-05     8.8732  -1.0000   118.1119
 33      0.0000     0.0000E+00    0.0000E+00    1.300000E+10  0.00800  1.361E-05    0   0.5073   age193_m52            0.0000     8.2477E-05    17.9459  -1.0000   102.7735
 34      0.0000     0.0000E+00    0.0000E+00    1.800000E+10  0.00800  9.886E-06    0   0.4990   age213_m52            0.0000     9.8051E-05    19.7769  -1.0000    98.7472
 35      0.0000     0.0000E+00    0.0000E+00    1.000000E+06  0.02000  1.544E-02    0   1.0000   age020_m62            0.0000     4.5508E-05     6.8455   2.1641   120.1762
 36      0.0000     0.0000E+00    0.0000E+00    3.160000E+06  0.02000  3.762E-02    0   0.9858   age045_m62            0.0000     4.5414E-05     6.8437   2.1020   121.2873
 37      0.0000     0.0000E+00    0.0000E+00    5.010000E+06  0.02000  3.296E-02    0   0.9342   age055_m62            0.0000     4.5841E-05     6.6117   1.7887   122.9972
 38      0.0000     0.0000E+00    0.0000E+00    8.710000E+06  0.02000  1.154E-02    0   0.8861   age067_m62            0.0000     4.8467E-05     8.1820   0.7805   132.8854
 39      0.0000     0.0000E+00    0.0000E+00    1.445000E+07  0.02000  7.663E-03    0   0.8472   age078_m62            0.0000     4.5981E-05     7.0984   1.0007   129.8765
 40      0.6377     4.0771E-03    6.2110E-03    2.512000E+07  0.02000  4.532E-03    0   0.8099   age090_m62            0.0000     4.6530E-05     7.2946   0.9971   129.2905
 41      0.0000     0.0000E+00    0.0000E+00    5.500000E+07  0.02000  2.733E-03    0   0.7595   age110_m62            0.0000     4.4767E-05     6.5482   1.0327   127.6634
 42      0.0000     0.0000E+00    0.0000E+00    1.609000E+08  0.02000  1.369E-03    0   0.6985   age120_m62            0.0000     4.5762E-05     6.4850   0.9056   128.9617
 43      0.0000     0.0000E+00    0.0000E+00    2.861200E+08  0.02000  9.013E-04    0   0.6714   age125_m62            0.0000     4.6373E-05     6.3904   0.6840   130.9913
 44      0.0000     0.0000E+00    0.0000E+00    5.088000E+08  0.02000  5.028E-04    0   0.6449   age130_m62            0.0000     4.5382E-05     6.1235   0.3356   132.4041
 45      0.0000     0.0000E+00    0.0000E+00    9.047900E+08  0.02000  2.428E-04    0   0.6179   age135_m62            0.0000     3.8244E-05     5.5130  -0.2585   131.7745
 46      0.0000     0.0000E+00    0.0000E+00    1.434000E+09  0.02000  1.263E-04    0   0.5908   age139_m62            0.0000     3.4067E-05     5.1890  -0.7245   130.9196
 47     52.1742     2.5258E+01    2.6952E+01    2.500000E+09  0.02000  5.985E-05    0   0.5673   age150_m62            0.0000     3.3297E-05     5.6379  -1.0000   126.7389
 48      5.6970     5.0462E+00    5.1901E+00    4.250000E+09  0.02000  3.271E-05    0   0.5468   age158_m62            0.0000     4.6348E-05    10.5675  -1.0000   116.2741
 49      0.0000     0.0000E+00    0.0000E+00    1.000000E+10  0.02000  1.360E-05    0   0.5167   age181_m62            0.0000     8.1626E-05    17.0418  -1.0000   104.6138
 50      0.0000     0.0000E+00    0.0000E+00    1.800000E+10  0.02000  7.124E-06    0   0.5013   age213_m62            0.0000     1.1500E-04    20.7759  -1.0000    97.0048
 51      3.3861     3.7850E-03    7.1180E-03    1.000000E+06  0.05000  2.592E-02    0   0.9998   age020_m72            0.0000     4.5537E-05     6.8430   2.1486   120.5799
 52      0.0000     0.0000E+00    0.0000E+00    3.160000E+06  0.05000  4.845E-02    0   0.9577   age045_m72            0.0000     4.5528E-05     6.7819   2.0066   121.7304
 53      0.0000     0.0000E+00    0.0000E+00    5.010000E+06  0.05000  3.072E-02    0   0.9147   age055_m72            0.0000     4.5689E-05     6.9382   1.5498   126.1727
 54      0.0000     0.0000E+00    0.0000E+00    6.610000E+06  0.05000  1.455E-02    0   0.8877   age061_m72            0.0000     5.7995E-05    10.7842   0.7943   135.0213
 55      0.0000     0.0000E+00    0.0000E+00    1.000000E+07  0.05000  9.074E-03    0   0.8524   age070_m72            0.0000     4.8742E-05     8.0731   1.7156   125.9324
 56      6.0036     4.0929E-02    6.0833E-02    2.512000E+07  0.05000  4.250E-03    0   0.7902   age090_m72            0.0000     4.8070E-05     7.4847   1.4657   126.2019
 57      0.0000     0.0000E+00    0.0000E+00    4.000000E+07  0.05000  3.087E-03    0   0.7618   age104_m72            0.0000     4.8836E-05     7.6405   1.2565   127.4423
 58      0.0000     0.0000E+00    0.0000E+00    1.015200E+08  0.05000  1.700E-03    0   0.7096   age116_m72            0.0000     4.7269E-05     6.7881   1.0451   128.6508
 59      0.0000     0.0000E+00    0.0000E+00    2.861200E+08  0.05000  7.384E-04    0   0.6633   age125_m72            0.0000     4.5421E-05     6.1680   0.5682   131.6344
 60      0.0000     0.0000E+00    0.0000E+00    5.088000E+08  0.05000  3.819E-04    0   0.6372   age130_m72            0.0000     4.0384E-05     5.5940   0.0845   133.0108
 61      0.0000     0.0000E+00    0.0000E+00    9.047900E+08  0.05000  1.676E-04    0   0.6110   age135_m72            0.0000     3.3939E-05     5.3640  -0.6436   131.9318
 62     26.4489     8.6717E+00    9.5811E+00    1.434000E+09  0.05000  8.837E-05    0   0.5874   age139_m72            0.0000     3.3085E-05     5.5114  -1.0000   128.2888
 63      0.0000     0.0000E+00    0.0000E+00    2.500000E+09  0.05000  4.233E-05    0   0.5598   age150_m72            0.0000     4.6999E-05    10.4963  -1.0000   117.2479
 64      8.1226     1.6400E+01    1.6192E+01    6.250000E+09  0.05000  1.435E-05    0   0.5249   age166_m72            0.0000     9.5986E-05    18.8332  -1.0000   101.0989
 65      4.7970     2.1340E+01    2.0214E+01    1.300000E+10  0.05000  6.513E-06    0   0.5036   age193_m72            0.0000     1.4848E-04    23.6921  -1.0000    92.8928
 66      2.4224     1.5504E+01    1.4420E+01    1.800000E+10  0.05000  4.527E-06    0   0.4945   age213_m72            0.0000     1.8521E-04    26.2025  -1.0000    87.4136


## Synthesis Results - Average & Chains ##

# j      x_j: min, <> & last-chain-values for 1 ...  7 chains
  1      1.6667      0.2571      0.0676      0.8254      0.4667      0.3072      0.3867      0.9724      0.5605
  2      4.3098      0.2081      0.6834      0.1261      0.6754      0.4969      0.0000      0.1816      0.0000
  3      0.0000      0.4626      0.3094      0.3209      2.3908      1.2890      0.4579      0.5234      0.4170
  4      0.0000      0.2082      0.9927      0.3419      0.1487      0.3882      1.4864      0.1131      0.5272
  5      0.0000      0.2324      0.0000      0.3443      0.0000      0.0000      0.9016      0.0000      0.1441
  6      0.0000      0.3412      0.1416      1.3710      0.1952      0.5169      1.8707      1.7741      0.1092
  7      0.0000      0.3150      1.3628      1.0552      0.5982      0.3077      0.0000      0.1106      0.4520
  8      6.4659      0.2271      0.2796      0.4663      0.7749      1.2632      1.1295      1.4477      0.0000
  9      0.0000      0.3608      1.3378      0.0000      0.0000      0.2362      0.5485      1.2612      0.9675
 10      0.0000      0.2998      0.2533      0.6930      0.0000      1.2759      0.0000      0.3278      0.1035
 11      0.0000      0.2517      2.4248      0.0000      0.0000      0.0000      0.7543      0.2544      0.5932
 12      0.0000      0.3313      0.4459      0.9315      0.9330      0.1065      0.3469      0.2046      0.6923
 13      0.0000      0.2725      0.8946      0.0000      0.0000      1.5773      0.8530      0.4383      0.9016
 14      0.0000      0.3158      0.0000      0.0000      0.0000      0.0000      0.0000      0.0000      0.6261
 15      0.0000      0.2987      1.3861      0.2840      0.0000      0.1875      0.7720      0.4423      1.3128
 16      0.0000      0.3849      0.3478      1.8375      0.3603      0.7615      0.2795      0.1534      1.2343
 17      3.6659      0.2957      0.8236      0.2808      1.8424      0.4939      0.0088      1.2309      0.5860
 18      0.0000      0.1821      0.0026      0.1287      0.0000      0.0000      0.0000      0.7193      0.1932
 19      0.0000      0.3558      2.3997      0.0559      2.5058      0.7364      0.0000      0.8631      0.0000
 20      0.0000      0.2909      1.1371      0.0000      2.3102      0.9518      0.8017      0.0000      1.5435
 21      0.0000      0.2314      0.0000      1.2921      0.0000      0.3913      0.0211      0.0121      0.3022
 22      0.0000      0.3879      0.8571      2.4801      0.2664      1.5941      0.3708      0.3977      0.8040
 23      0.0000      0.4059      0.8872      0.2907      0.4073      2.1177      1.2324      1.2524      1.6421
 24      0.0000      0.2717      0.7106      0.9304      0.2144      2.6484      1.0278      0.4594      1.3892
 25      0.0000      0.3219      0.7287      0.2798      0.2196      0.7655      0.0000      1.3576      0.2886
 26      0.0000      0.3022      0.2602      0.0000      1.6088      0.0000      2.2024      0.0000      0.1757
 27      0.0000      0.1699      0.0151      0.0000      0.6952      0.6919      0.2027      0.0000      0.0000
 28      0.0000      0.3036      0.0000      0.0242      1.6609      0.0000      0.0000      0.0000      0.2672
 29      4.2021      0.4335      1.0928      1.0107      1.1935      0.3382      0.0000      0.8155      0.6235
 30      0.0000      0.3049      0.0000      0.0000      0.2428      0.1140      1.2815      0.0000      0.4422
 31      0.0000      0.2710      0.8967      0.0662      0.0000      0.0303      0.0000      0.3238      1.3762
 32      0.0000      0.2234      0.1508      0.6765      0.0000      0.6558      1.1412      0.6244      0.1170
 33      0.0000      0.3196      1.1486      2.0326      0.7345      0.5817      0.0000      0.2257      0.5762
 34      0.0000      0.1763      0.2365      0.0000      1.2975      0.4788      0.0654      0.0000      0.3431
 35      0.0000      0.2129      0.0000      0.0000      0.0000      0.1816      0.0000      0.3757      0.0000
 36      0.0000      0.2906      0.0000      1.0225      0.0000      0.2673      0.6866      0.7014      0.6780
 37      0.0000      0.2330      0.0880      0.5363      0.9016      1.3797      0.5752      0.0000      1.1746
 38      0.0000      0.3020      1.3655      0.1353      0.1548      1.5983      0.1108      0.1293      0.9153
 39      0.0000      0.2456      0.0000      1.1216      0.1102      0.7727      0.3740      1.2534      0.0000
 40      0.6377      0.3940      1.2867      0.4000      0.9953      0.3576      1.5667      0.0000      1.0964
 41      0.0000      0.3434      1.1072      0.7498      0.7574      0.6005      0.2815      1.4460      1.8312
 42      0.0000      0.2931      0.7352      0.0000      0.8327      0.0361      1.1277      0.2391      2.1699
 43      0.0000      0.2559      0.6148      0.5160      0.5041      1.5659      0.4679      0.4866      0.2406
 44      0.0000      0.3752      0.4490      0.5598      0.7568      0.0000      1.2125      2.2398      0.7024
 45      0.0000      0.2173      0.9185      1.0363      0.1244      0.0976      0.0000      0.0000      0.2080
 46      0.0000      0.2904      0.0000      0.2730      0.0000      2.8525      0.2507      0.0000      0.0000
