###################################################################
## OUTPUT of StarlightChains_v04.for    [Cid@UFSC - 01/Apr/2007] ##
###################################################################

## Some input info
KUG0210-078._41_41.txt                   [arq_obs]
Base.CB07.vall.4m                        [arq_base]
Masks.EmLines.NEW.gm                     [arq_masks]
StCv04.C11.config                        [arq_config]
   66                                    [N_base]
    0                                    [N_YAV_components = # of components with extra extinction!]
    0                                    [i_FitPowerLaw (1/0 = Yes/No)]
-9.99                                    [alpha_PowerLaw]
CCM                                      [red_law_option]
 1.458241                                [q_norm = A(l_norm)/A(V)]

## (Re)Sampling Parameters
 3741.00                                 [l_ini (A)]
 7218.00                                 [l_fin (A)]
    1.00                                 [dl    (A)]     (OBS: dl_cushion =    50.00 A)

## Normalization info
 4020.00                                 [l_norm (A) - for base]
 4010.00                                 [llow_norm (A) - window for f_obs]
 4060.00                                 [lupp_norm (A) - window for f_obs]
1.802898E-17                             [fobs_norm (in input units)]

## S/N
 3691.00                                 [llow_SN (A) - window for S/N]
 7268.00                                 [lupp_SN (A) - window for S/N]
   5.935                                 [S/N in S/N window]
   6.373                                 [S/N in norm. window]
   0.022                                 [S/N_err in S/N window]
   0.024                                 [S/N_err in norm. window]
  1.0000                                 [fscale_chi2]

## etc...
    -2007754                             [idum_orig]
  2432                                   [NOl_eff]
  2153                                   [Nl_eff]
   279    NSIGMA                         [Ntot_cliped & clip_method]
 10775730                                [Nglobal_steps]
   7                                     [N_chains]
  43                                     [NEX0s_base = N_base in EX0s-fits]
 0   0   1      279   2.0   1.335E+04    [Clip-Bug, RC-Crash & Burn-In warning-flags, n_censored_weights, wei_nsig_threshold & wei_limit]
   102     99.437     98.100      1.337  [idt_all, wdt_TotTime, wdt_UsrTime & wdt_SysTime (sec)]

## Synthesis Results - Best model ##

 6.95923E-06                             [chi2/Nl_eff]
     6.08423                             [adev (%)]

   106.83496                             [sum-of-x (%)]
 1.13884E-17                             [Flux_tot (units of input spectrum!)]
 4.52161E-13                             [Mini_tot (???)]
 2.32497E-13                             [Mcor_tot (???)]

-147.02                                  [v0_min  (km/s)]
 234.15                                  [vd_min  (km/s)]
-0.3913                                  [AV_min  (mag)]
 0.0000                                  [YAV_min (mag)]

# j     x_j(%)      Mini_j(%)     Mcor_j(%)     age_j(yr)     Z_j      (L/M)_j    YAV?  Mstars   component_j        a/Fe...       SSP_chi2r SSP_adev(%)   SSP_AV   SSP_x(%)
  1      0.0000     0.0000E+00    0.0000E+00    1.000000E+06  0.00400  1.094E-02    0   1.0000   age020_m42            0.0000     9.1703E-06     7.5868   2.7863    97.5624
  2      0.0000     0.0000E+00    0.0000E+00    3.160000E+06  0.00400  4.007E-02    0   0.9999   age045_m42            0.0000     9.1166E-06     7.1408   2.1404   100.9740
  3     12.2516     1.1376E-02    2.0991E-02    5.010000E+06  0.00400  2.539E-02    0   0.9488   age055_m42            0.0000     9.0641E-06     7.2361   2.4250    99.9672
  4      1.3177     1.1857E-03    2.1261E-03    6.610000E+06  0.00400  2.620E-02    0   0.9220   age061_m42            0.0000     8.9414E-06     7.0042   2.0710   101.1234
  5      0.0000     9.1027E-10    1.5688E-09    1.000000E+07  0.00400  1.322E-02    0   0.8862   age070_m42            0.0000     8.7340E-06     6.8624   1.7946   103.7942
  6     16.8164     5.0292E-02    8.3831E-02    1.445000E+07  0.00400  7.883E-03    0   0.8571   age078_m42            0.0000     8.8341E-06     6.8605   2.0998   101.9623
  7      0.0000     0.0000E+00    0.0000E+00    2.512000E+07  0.00400  5.251E-03    0   0.8174   age090_m42            0.0000     8.8255E-06     6.9536   1.6732   104.1601
  8      0.0000     0.0000E+00    0.0000E+00    4.000000E+07  0.00400  3.649E-03    0   0.7851   age104_m42            0.0000     8.7416E-06     6.9104   1.4575   104.4442
  9      1.1902     9.0572E-03    1.3438E-02    5.500000E+07  0.00400  3.098E-03    0   0.7629   age110_m42            0.0000     8.8724E-06     6.8561   1.6193   103.7644
 10      0.0000     0.0000E+00    0.0000E+00    1.015200E+08  0.00400  2.228E-03    0   0.7207   age116_m42            0.0000     8.8935E-06     6.8382   1.6484   103.3980
 11      0.0242     5.2303E-04    6.7623E-04    2.861200E+08  0.00400  1.093E-03    0   0.6648   age125_m42            0.0000     8.7117E-06     7.0388   1.1032   105.6068
 12      0.0000     0.0000E+00    0.0000E+00    5.088000E+08  0.00400  6.597E-04    0   0.6365   age130_m42            0.0000     8.5885E-06     6.8203   1.1044   105.6831
 13      0.0295     3.2606E-03    3.6767E-03    1.434000E+09  0.00400  2.132E-04    0   0.5798   age139_m42            0.0000     7.6062E-06     6.3932   0.1651   106.2520
 14      4.6444     1.8574E+00    1.9423E+00    4.250000E+09  0.00400  5.895E-05    0   0.5377   age158_m42            0.0000     7.0302E-06     6.2056  -0.2918   102.2991
 15      0.2925     1.9647E-01    1.9915E-01    7.500000E+09  0.00400  3.510E-05    0   0.5212   age171_m42            0.0000     6.9246E-06     6.2214  -0.4757   101.2551
 16      0.0000     0.0000E+00    0.0000E+00    1.300000E+10  0.00400  2.005E-05    0   0.5034   age193_m42            0.0000     6.9066E-06     6.2955  -0.6410   100.5188
 17      0.0065     1.0109E-02    9.7648E-03    1.800000E+10  0.00400  1.525E-05    0   0.4967   age213_m42            0.0000     6.9378E-06     6.2974  -0.6661   100.1955
 18      0.0000     0.0000E+00    0.0000E+00    1.000000E+06  0.00800  1.238E-02    0   1.0000   age020_m52            0.0000     9.1336E-06     7.5925   2.7799    97.8657
 19      0.7986     6.1246E-04    1.1871E-03    3.160000E+06  0.00800  3.074E-02    0   0.9966   age045_m52            0.0000     9.1181E-06     7.5790   2.7073    98.5702
 20      0.0000     0.0000E+00    0.0000E+00    5.010000E+06  0.00800  2.668E-02    0   0.9443   age055_m52            0.0000     8.9668E-06     7.2354   2.4944    99.6312
 21      0.0000     0.0000E+00    0.0000E+00    6.610000E+06  0.00800  2.136E-02    0   0.9177   age061_m52            0.0000     7.9614E-06     6.5424   1.2884   105.1437
 22      0.5743     1.1144E-03    1.9131E-03    1.000000E+07  0.00800  1.215E-02    0   0.8827   age070_m52            0.0000     8.7881E-06     6.9384   1.9600   104.3122
 23      0.0000     0.0000E+00    0.0000E+00    1.445000E+07  0.00800  8.717E-03    0   0.8552   age078_m52            0.0000     8.7744E-06     6.8050   2.0701   103.2052
 24      0.0000     0.0000E+00    0.0000E+00    2.512000E+07  0.00800  5.592E-03    0   0.8162   age090_m52            0.0000     8.8440E-06     6.9819   1.7407   105.2767
 25      0.0000     0.0000E+00    0.0000E+00    4.000000E+07  0.00800  3.896E-03    0   0.7841   age104_m52            0.0000     8.8298E-06     6.9710   1.6672   105.2883
 26      0.0000     0.0000E+00    0.0000E+00    1.015200E+08  0.00800  2.148E-03    0   0.7226   age116_m52            0.0000     8.6492E-06     6.8372   1.6187   104.2300
 27      0.0000     0.0000E+00    0.0000E+00    2.861200E+08  0.00800  9.925E-04    0   0.6683   age125_m52            0.0000     8.4534E-06     6.8052   1.1693   106.7138
 28      0.0000     0.0000E+00    0.0000E+00    9.047900E+08  0.00800  3.141E-04    0   0.6138   age135_m52            0.0000     7.9183E-06     6.5038   0.4105   108.8588
 29      0.0000     0.0000E+00    0.0000E+00    1.434000E+09  0.00800  1.719E-04    0   0.5853   age139_m52            0.0000     7.2559E-06     6.3275  -0.1814   107.0032
 30      0.0000     0.0000E+00    0.0000E+00    2.500000E+09  0.00800  7.872E-05    0   0.5600   age150_m52            0.0000     6.9938E-06     6.2182  -0.4530   103.8690
 31      0.0000     0.0000E+00    0.0000E+00    4.250000E+09  0.00800  4.336E-05    0   0.5426   age158_m52            0.0000     6.9723E-06     6.2324  -0.4688   102.8717
 32      0.0000     0.0000E+00    0.0000E+00    6.250000E+09  0.00800  3.159E-05    0   0.5319   age166_m52            0.0000     6.9842E-06     6.3884  -0.6637   102.3173
 33     29.2929     5.0741E+01    5.0061E+01    1.300000E+10  0.00800  1.361E-05    0   0.5073   age193_m52            0.0000     7.5891E-06     6.4530  -1.0000    97.5041
 34      0.0000     0.0000E+00    0.0000E+00    1.800000E+10  0.00800  9.886E-06    0   0.4990   age213_m52            0.0000     8.6015E-06     7.0076  -1.0000    93.6800
 35      0.0000     0.0000E+00    0.0000E+00    1.000000E+06  0.02000  1.544E-02    0   1.0000   age020_m62            0.0000     9.1150E-06     7.6076   2.7717    98.2621
 36      0.0489     3.0653E-05    5.8767E-05    3.160000E+06  0.02000  3.762E-02    0   0.9858   age045_m62            0.0000     9.2011E-06     7.6192   2.7073    99.2442
 37      0.1846     1.3204E-04    2.3989E-04    5.010000E+06  0.02000  3.296E-02    0   0.9342   age055_m62            0.0000     9.0059E-06     7.2155   2.3917   100.8558
 38      0.0000     0.0000E+00    0.0000E+00    8.710000E+06  0.02000  1.154E-02    0   0.8861   age067_m62            0.0000     9.6293E-06     8.2678   1.3889   109.7666
 39      0.0000     0.0000E+00    0.0000E+00    1.445000E+07  0.02000  7.663E-03    0   0.8472   age078_m62            0.0000     8.8552E-06     7.2561   1.6091   106.9650
 40      0.0000     0.0000E+00    0.0000E+00    2.512000E+07  0.02000  4.532E-03    0   0.8099   age090_m62            0.0000     8.9858E-06     7.4352   1.6097   106.3879
 41      0.0000     0.0000E+00    0.0000E+00    5.500000E+07  0.02000  2.733E-03    0   0.7595   age110_m62            0.0000     8.5531E-06     6.8556   1.6425   104.8545
 42      0.0000     0.0000E+00    0.0000E+00    1.609000E+08  0.02000  1.369E-03    0   0.6985   age120_m62            0.0000     8.5618E-06     6.7927   1.5106   106.0846
 43      0.0000     0.0000E+00    0.0000E+00    2.861200E+08  0.02000  9.013E-04    0   0.6714   age125_m62            0.0000     8.6008E-06     6.7172   1.2825   107.9806
 44      0.0000     0.0000E+00    0.0000E+00    5.088000E+08  0.02000  5.028E-04    0   0.6449   age130_m62            0.0000     8.5888E-06     6.5729   0.9299   109.2333
 45      0.6647     6.4539E-02    7.7556E-02    9.047900E+08  0.02000  2.428E-04    0   0.6179   age135_m62            0.0000     7.6146E-06     6.2859   0.3525   107.8616
 46      2.1679     4.0467E-01    4.6496E-01    1.434000E+09  0.02000  1.263E-04    0   0.5908   age139_m62            0.0000     7.1921E-06     6.2037  -0.0974   106.3493
 47      2.5733     1.0137E+00    1.1183E+00    2.500000E+09  0.02000  5.985E-05    0   0.5673   age150_m62            0.0000     7.1722E-06     6.4629  -0.4699   104.7897
 48      3.6947     2.6629E+00    2.8318E+00    4.250000E+09  0.02000  3.271E-05    0   0.5468   age158_m62            0.0000     7.3769E-06     6.9247  -0.7701   103.3185
 49     17.6247     3.0552E+01    3.0701E+01    1.000000E+10  0.02000  1.360E-05    0   0.5167   age181_m62            0.0000     8.3695E-06     6.9408  -1.0000    98.9731
 50      0.0000     0.0000E+00    0.0000E+00    1.800000E+10  0.02000  7.124E-06    0   0.5013   age213_m62            0.0000     1.0923E-05     7.7093  -1.0000    91.8665
 51      0.0203     1.8488E-05    3.5948E-05    1.000000E+06  0.05000  2.592E-02    0   0.9998   age020_m72            0.0000     9.0966E-06     7.6399   2.7539    98.6817
 52      0.0000     0.0000E+00    0.0000E+00    3.160000E+06  0.05000  4.845E-02    0   0.9577   age045_m72            0.0000     9.1905E-06     7.5373   2.6141    99.5494
 53      0.0000     0.0000E+00    0.0000E+00    5.010000E+06  0.05000  3.072E-02    0   0.9147   age055_m72            0.0000     8.8437E-06     7.1466   2.1619   103.6425
 54      0.0024     3.8078E-06    6.5738E-06    6.610000E+06  0.05000  1.455E-02    0   0.8877   age061_m72            0.0000     1.1619E-05    10.3538   1.4160   111.7705
 55      0.0000     0.0000E+00    0.0000E+00    1.000000E+07  0.05000  9.074E-03    0   0.8524   age070_m72            0.0000     9.4760E-06     8.0912   2.3364   103.3883
 56      0.0000     0.0000E+00    0.0000E+00    2.512000E+07  0.05000  4.250E-03    0   0.7902   age090_m72            0.0000     9.1984E-06     7.5827   2.0806   103.7396
 57      0.0000     0.0000E+00    0.0000E+00    4.000000E+07  0.05000  3.087E-03    0   0.7618   age104_m72            0.0000     9.2688E-06     7.6994   1.8691   104.9147
 58      0.1839     2.5496E-03    3.5186E-03    1.015200E+08  0.05000  1.700E-03    0   0.7096   age116_m72            0.0000     8.7825E-06     7.0327   1.6489   105.9975
 59      5.6509     1.8042E-01    2.3274E-01    2.861200E+08  0.05000  7.384E-04    0   0.6633   age125_m72            0.0000     8.5237E-06     6.6020   1.1633   108.6421
 60      0.0000     0.0000E+00    0.0000E+00    5.088000E+08  0.05000  3.819E-04    0   0.6372   age130_m72            0.0000     8.0577E-06     6.4210   0.6840   109.3788
 61      0.0000     0.0000E+00    0.0000E+00    9.047900E+08  0.05000  1.676E-04    0   0.6110   age135_m72            0.0000     7.5469E-06     6.6258  -0.0129   106.9083
 62      0.0000     0.0000E+00    0.0000E+00    1.434000E+09  0.05000  8.837E-05    0   0.5874   age139_m72            0.0000     7.2921E-06     6.5182  -0.4661   106.0662
 63      4.0074     2.2319E+00    2.4298E+00    2.500000E+09  0.05000  4.233E-05    0   0.5598   age150_m72            0.0000     7.6839E-06     7.1597  -0.7752   104.2577
 64      0.0152     2.5020E-02    2.5541E-02    6.250000E+09  0.05000  1.435E-05    0   0.5249   age166_m72            0.0000     9.3862E-06     7.1338  -1.0000    95.7075
 65      2.7571     9.9798E+00    9.7743E+00    1.300000E+10  0.05000  6.513E-06    0   0.5036   age193_m72            0.0000     1.4358E-05     9.5385  -1.0000    88.1192
 66      0.0000     0.0000E+00    0.0000E+00    1.800000E+10  0.05000  4.527E-06    0   0.4945   age213_m72            0.0000     1.8681E-05    11.5297  -1.0000    83.0999


## Synthesis Results - Average & Chains ##

# j      x_j: min, <> & last-chain-values for 1 ...  7 chains
  1      0.0000      1.2245      1.5040      1.4399      1.3928      1.1963      1.0677      1.4647      0.7451
  2      0.0000      0.2214      0.1370      0.0000      0.3648      0.0586      0.1295      1.4383      0.0000
  3     12.2516      0.1736      0.2859      0.1150      0.0000      0.0716      0.0000      1.5488      0.0000
  4      1.3177      0.2295      0.3341      0.2060      0.6413      0.1223      0.0000      0.9184      0.3797
  5      0.0000      0.2075      0.0000      0.0000      0.4593      0.0547      0.0000      0.5956      0.1997
  6     16.8164      0.2180      0.4314      0.0000      0.1061      0.0000      0.0271      1.7045      0.0663
  7      0.0000      0.2000      0.0228      0.1110      0.0000      0.0819      0.1542      0.0000      0.2668
  8      0.0000      0.1979      0.0666      0.0215      0.3157      0.1171      0.0921      0.0000      0.0000
  9      1.1902      0.2489      0.0000      0.0607      0.2086      0.0440      0.1452      3.0555      0.3259
 10      0.0000      0.2439      0.1847      0.0075      0.1708      0.0895      0.2677      0.1214      0.2992
 11      0.0242      0.2194      0.7088      0.1459      0.0000      0.1279      0.1307      0.5060      0.4309
 12      0.0000      0.2720      0.0000      0.0179      0.7916      0.2390      0.3791      0.2897      0.0592
 13      0.0295      0.2387      0.0000      0.1040      0.7432      0.0738      0.0477      0.3258      0.3606
 14      4.6444      0.2041      0.2637      0.0167      0.5957      0.3987      0.0000      0.4139      0.2448
 15      0.2925      0.2366      0.5225      0.1212      0.9687      0.1501      0.1455      0.9649      0.0000
 16      0.0000      0.2200      0.3266      0.0079      0.0000      0.0000      0.2227      0.0000      0.0778
 17      0.0065      0.2567      0.6437      0.0622      0.1640      0.0066      0.1528      0.3174      0.0200
 18      0.0000      0.2411      0.1462      0.0323      0.5650      0.0000      0.0069      0.2072      0.0084
 19      0.7986      0.2284      0.0266      0.0976      0.1891      0.0608      0.2415      0.4364      0.1411
 20      0.0000      0.2475      0.0370      0.1068      0.8554      0.0000      0.0897      1.0541      0.0919
 21      0.0000      0.2734      0.0000      0.1380      1.2072      0.3450      0.4650      0.1048      0.1295
 22      0.5743      0.2794      0.0000      0.1553      0.6326      0.0006      0.1733      1.3440      0.2817
 23      0.0000      0.3068      0.5849      0.0814      0.0000      0.0977      0.3443      0.0000      0.5473
 24      0.0000      0.2391      0.0000      0.0000      0.0000      0.0000      0.2019      0.0000      0.0957
 25      0.0000      0.2239      0.5380      0.1727      0.0000      0.1980      0.0000      0.0773      0.0659
 26      0.0000      0.1921      0.0452      0.2950      1.2108      0.0892      0.1891      0.0000      0.0000
 27      0.0000      0.2990      0.1279      0.0813      0.0305      0.1749      0.1670      0.4112      0.0483
 28      0.0000      0.2472      0.0727      0.0000      0.4555      0.0420      0.1592      0.0000      0.1071
 29      0.0000      0.2254      0.5815      0.0000      0.7398      0.0881      0.4647      0.1861      0.0000
 30      0.0000      0.2585      0.0237      0.1242      0.0518      0.2357      0.2391      0.0000      0.4203
 31      0.0000      0.2109      0.3384      0.0894      1.6886      0.1442      0.0000      0.0000      0.1839
 32      0.0000      0.1893      0.0000      0.1074      0.6769      0.2146      0.0000      1.1933      0.0000
 33     29.2929      0.1839      0.4029      0.0000      0.1387      0.3163      0.1217      1.0572      0.1156
 34      0.0000      0.1784      0.2428      0.0057      0.0000      0.1178      0.0353      0.3047      0.1988
 35      0.0000      0.2370      0.0593      0.0000      1.0254      0.0423      0.3408      0.3145      0.0000
 36      0.0489      0.2533      0.0540      0.2600      1.3618      0.1511      0.1683      1.6836      0.2084
 37      0.1846      0.2708      0.0000      0.0894      0.3004      0.1335      0.1082      0.9603      0.3771
 38      0.0000      0.2207      0.2197      0.0620      0.0000      0.0000      0.0092      0.0000      0.0000
 39      0.0000      0.2678      0.0288      0.0000      0.0000      0.0515      0.0162      0.2780      0.2471
 40      0.0000      0.3552      0.0000      0.0466      0.0350      0.1237      0.0348      2.7297      0.0000
 41      0.0000      0.2332      0.4324      0.1481      1.2155      0.0000      0.0415      0.0000      0.1345
 42      0.0000      0.1903      0.0000      0.0718      0.2398      0.1231      0.2899      0.0244      0.1440
 43      0.0000      0.2308      0.4764      0.0107      0.8424      0.0759      0.0749      0.7962      0.1087
 44      0.0000     39.5984     39.0933     45.6570     32.6149     46.3548     42.0456     21.2376     41.0226
 45      0.6647      0.2449      0.3234      0.0245      0.0000      0.0000      0.2679      0.7806      0.1769
 46      2.1679      0.2565      0.0007      0.0923      1.1110      0.0519      0.3006      0.5009      0.1883
