###################################################################
## OUTPUT of StarlightChains_v04.for    [Cid@UFSC - 01/Apr/2007] ##
###################################################################

## Some input info
KUG0210-078._28_38.txt                   [arq_obs]
Base.CB07.vall.4m                        [arq_base]
Masks.EmLines.NEW.gm                     [arq_masks]
StCv04.C11.config                        [arq_config]
   66                                    [N_base]
    0                                    [N_YAV_components = # of components with extra extinction!]
    0                                    [i_FitPowerLaw (1/0 = Yes/No)]
-9.99                                    [alpha_PowerLaw]
CCM                                      [red_law_option]
 1.458241                                [q_norm = A(l_norm)/A(V)]

## (Re)Sampling Parameters
 3741.00                                 [l_ini (A)]
 7218.00                                 [l_fin (A)]
    1.00                                 [dl    (A)]     (OBS: dl_cushion =    50.00 A)

## Normalization info
 4020.00                                 [l_norm (A) - for base]
 4010.00                                 [llow_norm (A) - window for f_obs]
 4060.00                                 [lupp_norm (A) - window for f_obs]
2.569100E-17                             [fobs_norm (in input units)]

## S/N
 3691.00                                 [llow_SN (A) - window for S/N]
 7268.00                                 [lupp_SN (A) - window for S/N]
   3.725                                 [S/N in S/N window]
   2.480                                 [S/N in norm. window]
   0.056                                 [S/N_err in S/N window]
   0.037                                 [S/N_err in norm. window]
  1.0000                                 [fscale_chi2]

## etc...
    -2007386                             [idum_orig]
  2432                                   [NOl_eff]
  2240                                   [Nl_eff]
   192    NSIGMA                         [Ntot_cliped & clip_method]
  5637660                                [Nglobal_steps]
   7                                     [N_chains]
  33                                     [NEX0s_base = N_base in EX0s-fits]
 0   0   1      192   2.0   1.564E+04    [Clip-Bug, RC-Crash & Burn-In warning-flags, n_censored_weights, wei_nsig_threshold & wei_limit]
    50     48.517     47.832      0.684  [idt_all, wdt_TotTime, wdt_UsrTime & wdt_SysTime (sec)]

## Synthesis Results - Best model ##

 1.36747E-04                             [chi2/Nl_eff]
    10.25890                             [adev (%)]

    98.15223                             [sum-of-x (%)]
 7.09298E-16                             [Flux_tot (units of input spectrum!)]
 1.29736E-11                             [Mini_tot (???)]
 6.49774E-12                             [Mcor_tot (???)]

 180.87                                  [v0_min  (km/s)]
 161.58                                  [vd_min  (km/s)]
 2.4844                                  [AV_min  (mag)]
 0.0000                                  [YAV_min (mag)]

# j     x_j(%)      Mini_j(%)     Mcor_j(%)     age_j(yr)     Z_j      (L/M)_j    YAV?  Mstars   component_j        a/Fe...       SSP_chi2r SSP_adev(%)   SSP_AV   SSP_x(%)
  1      0.0000     0.0000E+00    0.0000E+00    1.000000E+06  0.00400  1.094E-02    0   1.0000   age020_m42            0.0000     1.9455E-04    15.8808   4.0000    92.8701
  2      0.0000     0.0000E+00    0.0000E+00    3.160000E+06  0.00400  4.007E-02    0   0.9999   age045_m42            0.0000     1.8571E-04    13.8962   3.5492    89.6671
  3      0.0000     0.0000E+00    0.0000E+00    5.010000E+06  0.00400  2.539E-02    0   0.9488   age055_m42            0.0000     1.8372E-04    14.2671   3.8374    88.7854
  4      0.0000     0.0000E+00    0.0000E+00    6.610000E+06  0.00400  2.620E-02    0   0.9220   age061_m42            0.0000     1.8049E-04    13.6535   3.4715    89.9775
  5      0.0000     0.0000E+00    0.0000E+00    1.000000E+07  0.00400  1.322E-02    0   0.8862   age070_m42            0.0000     1.6139E-04    12.2585   3.1639    92.8191
  6      0.0000     0.0000E+00    0.0000E+00    1.445000E+07  0.00400  7.883E-03    0   0.8571   age078_m42            0.0000     1.6354E-04    12.6974   3.4738    91.2011
  7      0.0000     0.0000E+00    0.0000E+00    2.512000E+07  0.00400  5.251E-03    0   0.8174   age090_m42            0.0000     1.5831E-04    11.9552   3.0327    93.3567
  8      0.0000     0.0000E+00    0.0000E+00    4.000000E+07  0.00400  3.649E-03    0   0.7851   age104_m42            0.0000     1.6050E-04    11.9659   2.8197    93.5484
  9      0.0000     0.0000E+00    0.0000E+00    5.500000E+07  0.00400  3.098E-03    0   0.7629   age110_m42            0.0000     1.6925E-04    12.4056   2.9941    92.6811
 10      0.0000     0.0000E+00    0.0000E+00    1.015200E+08  0.00400  2.228E-03    0   0.7207   age116_m42            0.0000     1.7433E-04    12.6320   3.0309    92.1875
 11      0.0000     0.0000E+00    0.0000E+00    2.861200E+08  0.00400  1.093E-03    0   0.6648   age125_m42            0.0000     1.6653E-04    11.4993   2.4611    94.6068
 12      0.0000     0.0000E+00    0.0000E+00    5.088000E+08  0.00400  6.597E-04    0   0.6365   age130_m42            0.0000     1.7644E-04    12.0367   2.4789    94.3430
 13      0.0000     0.0000E+00    0.0000E+00    1.434000E+09  0.00400  2.132E-04    0   0.5798   age139_m42            0.0000     1.8156E-04    12.4515   1.5411    95.0605
 14      0.0000     0.0000E+00    0.0000E+00    4.250000E+09  0.00400  5.895E-05    0   0.5377   age158_m42            0.0000     1.9165E-04    13.8891   1.0990    91.7514
 15      0.1119     1.7760E-01    1.8482E-01    7.500000E+09  0.00400  3.510E-05    0   0.5212   age171_m42            0.0000     1.9699E-04    14.2690   0.9194    90.8286
 16      0.0000     0.0000E+00    0.0000E+00    1.300000E+10  0.00400  2.005E-05    0   0.5034   age193_m42            0.0000     2.0153E-04    14.5956   0.7591    90.1278
 17      0.0000     0.0000E+00    0.0000E+00    1.800000E+10  0.00400  1.525E-05    0   0.4967   age213_m42            0.0000     2.0128E-04    14.5431   0.7326    89.8875
 18     20.8425     9.3777E-02    1.8724E-01    1.000000E+06  0.00800  1.238E-02    0   1.0000   age020_m52            0.0000     1.9420E-04    15.8727   4.0000    92.9535
 19      0.0000     0.0000E+00    0.0000E+00    3.160000E+06  0.00800  3.074E-02    0   0.9966   age045_m52            0.0000     1.9062E-04    15.4889   4.0000    91.4205
 20      0.0000     0.0000E+00    0.0000E+00    5.010000E+06  0.00800  2.668E-02    0   0.9443   age055_m52            0.0000     1.8252E-04    14.3933   3.9105    88.4009
 21      0.0000     0.0000E+00    0.0000E+00    6.610000E+06  0.00800  2.136E-02    0   0.9177   age061_m52            0.0000     1.6299E-04    12.7151   2.6675    93.9082
 22      0.0000     0.0000E+00    0.0000E+00    1.000000E+07  0.00800  1.215E-02    0   0.8827   age070_m52            0.0000     1.5614E-04    11.9600   3.3208    93.4489
 23      0.0000     0.0000E+00    0.0000E+00    1.445000E+07  0.00800  8.717E-03    0   0.8552   age078_m52            0.0000     1.6271E-04    12.5707   3.4450    92.2340
 24      0.0000     0.0000E+00    0.0000E+00    2.512000E+07  0.00800  5.592E-03    0   0.8162   age090_m52            0.0000     1.5741E-04    11.7467   3.0977    94.3585
 25      0.0000     0.0000E+00    0.0000E+00    4.000000E+07  0.00800  3.896E-03    0   0.7841   age104_m52            0.0000     1.6059E-04    11.7923   3.0261    94.3525
 26      0.0000     0.0000E+00    0.0000E+00    1.015200E+08  0.00800  2.148E-03    0   0.7226   age116_m52            0.0000     1.6781E-04    12.3031   2.9882    93.2784
 27      0.0000     0.0000E+00    0.0000E+00    2.861200E+08  0.00800  9.925E-04    0   0.6683   age125_m52            0.0000     1.7554E-04    12.0461   2.5447    95.1730
 28      0.0000     0.0000E+00    0.0000E+00    9.047900E+08  0.00800  3.141E-04    0   0.6138   age135_m52            0.0000     1.8898E-04    12.5542   1.7937    97.1396
 29      0.0000     0.0000E+00    0.0000E+00    1.434000E+09  0.00800  1.719E-04    0   0.5853   age139_m52            0.0000     1.8628E-04    13.0145   1.2003    95.8639
 30      0.0000     0.0000E+00    0.0000E+00    2.500000E+09  0.00800  7.872E-05    0   0.5600   age150_m52            0.0000     2.0160E-04    14.3398   0.9496    92.8968
 31      0.0000     0.0000E+00    0.0000E+00    4.250000E+09  0.00800  4.336E-05    0   0.5426   age158_m52            0.0000     2.0247E-04    14.4392   0.9327    92.1134
 32      0.0000     0.0000E+00    0.0000E+00    6.250000E+09  0.00800  3.159E-05    0   0.5319   age166_m52            0.0000     2.1209E-04    14.9295   0.7458    91.5377
 33      8.5388     3.4947E+01    3.5397E+01    1.300000E+10  0.00800  1.361E-05    0   0.5073   age193_m52            0.0000     2.2458E-04    15.6378   0.2986    90.2206
 34      0.0000     0.0000E+00    0.0000E+00    1.800000E+10  0.00800  9.886E-06    0   0.4990   age213_m52            0.0000     2.3541E-04    16.1456   0.2041    89.2952
 35      0.0000     0.0000E+00    0.0000E+00    1.000000E+06  0.02000  1.544E-02    0   1.0000   age020_m62            0.0000     1.9386E-04    15.8634   4.0000    93.0828
 36      0.0000     0.0000E+00    0.0000E+00    3.160000E+06  0.02000  3.762E-02    0   0.9858   age045_m62            0.0000     1.9074E-04    15.5666   4.0000    92.0436
 37      0.0000     0.0000E+00    0.0000E+00    5.010000E+06  0.02000  3.296E-02    0   0.9342   age055_m62            0.0000     1.8477E-04    14.2782   3.8100    89.3675
 38      0.0000     0.0000E+00    0.0000E+00    8.710000E+06  0.02000  1.154E-02    0   0.8861   age067_m62            0.0000     1.2943E-04     9.4566   2.7000    98.9516
 39      0.0000     0.0000E+00    0.0000E+00    1.445000E+07  0.02000  7.663E-03    0   0.8472   age078_m62            0.0000     1.4745E-04    10.9589   2.9512    96.0973
 40      0.0000     0.0000E+00    0.0000E+00    2.512000E+07  0.02000  4.532E-03    0   0.8099   age090_m62            0.0000     1.4493E-04    10.7023   2.9416    95.8199
 41      0.0000     0.0000E+00    0.0000E+00    5.500000E+07  0.02000  2.733E-03    0   0.7595   age110_m62            0.0000     1.5957E-04    11.9189   3.0015    94.0201
 42      0.0000     0.0000E+00    0.0000E+00    1.609000E+08  0.02000  1.369E-03    0   0.6985   age120_m62            0.0000     1.7008E-04    12.1590   2.8863    94.6101
 43      0.0000     0.0000E+00    0.0000E+00    2.861200E+08  0.02000  9.013E-04    0   0.6714   age125_m62            0.0000     1.7817E-04    12.2281   2.6666    96.0035
 44      0.3651     4.0445E-02    5.2078E-02    5.088000E+08  0.02000  5.028E-04    0   0.6449   age130_m62            0.0000     1.9429E-04    12.8560   2.3318    96.7782
 45      0.0000     0.0000E+00    0.0000E+00    9.047900E+08  0.02000  2.428E-04    0   0.6179   age135_m62            0.0000     1.9733E-04    13.4904   1.7508    96.1347
 46      0.0000     0.0000E+00    0.0000E+00    1.434000E+09  0.02000  1.263E-04    0   0.5908   age139_m62            0.0000     2.0029E-04    14.0679   1.3031    95.0226
 47      0.0000     0.0000E+00    0.0000E+00    2.500000E+09  0.02000  5.985E-05    0   0.5673   age150_m62            0.0000     2.1299E-04    15.0274   0.9491    93.3907
 48      0.0000     0.0000E+00    0.0000E+00    4.250000E+09  0.02000  3.271E-05    0   0.5468   age158_m62            0.0000     2.2745E-04    15.8880   0.6645    91.8851
 49      0.0000     0.0000E+00    0.0000E+00    1.000000E+10  0.02000  1.360E-05    0   0.5167   age181_m62            0.0000     2.4616E-04    16.6688   0.3416    90.5780
 50      0.0000     0.0000E+00    0.0000E+00    1.800000E+10  0.02000  7.124E-06    0   0.5013   age213_m62            0.0000     2.6225E-04    17.3284   0.1472    89.2973
 51     23.0371     4.9506E-02    9.8826E-02    1.000000E+06  0.05000  2.592E-02    0   0.9998   age020_m72            0.0000     1.9242E-04    15.8167   4.0000    92.9502
 52      0.0000     0.0000E+00    0.0000E+00    3.160000E+06  0.05000  4.845E-02    0   0.9577   age045_m72            0.0000     1.8786E-04    15.0113   4.0000    89.4216
 53     10.2594     1.8602E-02    3.3974E-02    5.010000E+06  0.05000  3.072E-02    0   0.9147   age055_m72            0.0000     1.5934E-04    12.1937   3.5254    92.8896
 54      0.0000     0.0000E+00    0.0000E+00    6.610000E+06  0.05000  1.455E-02    0   0.8877   age061_m72            0.0000     1.3038E-04     9.5291   2.6867   101.4059
 55     11.5170     7.0698E-02    1.2032E-01    1.000000E+07  0.05000  9.074E-03    0   0.8524   age070_m72            0.0000     1.6293E-04    12.2934   3.6813    93.0794
 56     18.2495     2.3918E-01    3.7737E-01    2.512000E+07  0.05000  4.250E-03    0   0.7902   age090_m72            0.0000     1.5774E-04    11.6017   3.4235    93.4047
 57      0.0000     0.0000E+00    0.0000E+00    4.000000E+07  0.05000  3.087E-03    0   0.7618   age104_m72            0.0000     1.5555E-04    11.2128   3.2041    94.5637
 58      0.0000     0.0000E+00    0.0000E+00    1.015200E+08  0.05000  1.700E-03    0   0.7096   age116_m72            0.0000     1.6462E-04    11.7015   3.0111    94.8229
 59      0.0000     0.0000E+00    0.0000E+00    2.861200E+08  0.05000  7.384E-04    0   0.6633   age125_m72            0.0000     1.8701E-04    12.5553   2.5557    96.4432
 60      0.0000     0.0000E+00    0.0000E+00    5.088000E+08  0.05000  3.819E-04    0   0.6372   age130_m72            0.0000     1.9883E-04    13.5439   2.0916    97.0429
 61      0.0000     0.0000E+00    0.0000E+00    9.047900E+08  0.05000  1.676E-04    0   0.6110   age135_m72            0.0000     2.1592E-04    15.0395   1.4118    94.9798
 62      0.0000     0.0000E+00    0.0000E+00    1.434000E+09  0.05000  8.837E-05    0   0.5874   age139_m72            0.0000     2.1773E-04    15.1302   0.9522    94.5749
 63      0.0000     0.0000E+00    0.0000E+00    2.500000E+09  0.05000  4.233E-05    0   0.5598   age150_m72            0.0000     2.3390E-04    16.1903   0.6699    92.4660
 64      0.0000     0.0000E+00    0.0000E+00    6.250000E+09  0.05000  1.435E-05    0   0.5249   age166_m72            0.0000     2.5381E-04    17.0127   0.2489    90.0848
 65      0.0000     0.0000E+00    0.0000E+00    1.300000E+10  0.05000  6.513E-06    0   0.5036   age193_m72            0.0000     2.7199E-04    17.8527  -0.0124    90.2445
 66      5.2309     6.4363E+01    6.3548E+01    1.800000E+10  0.05000  4.527E-06    0   0.4945   age213_m72            0.0000     2.8562E-04    18.3854  -0.1641    89.6903


## Synthesis Results - Average & Chains ##

# j      x_j: min, <> & last-chain-values for 1 ...  7 chains
  1      0.0000      0.2118      0.8036      0.5513      0.2600      0.1050      0.0000      0.3326      0.1449
  2      0.0000      0.0895      0.2644      0.5193      0.0000      0.8039      0.0000      0.0988      0.0799
  3      0.0000      0.1423      0.9379      0.3393      0.1340      0.3698      0.0701      0.4752      0.0779
  4      0.0000      0.0881      0.0763      0.0000      0.0470      0.1234      0.2147      0.3933      0.1893
  5      0.0000      0.0944      0.4735      0.0000      0.3293      0.2162      0.0216      0.0245      0.0952
  6      0.0000      0.1454      0.1725      0.8911      0.0000      0.0000      0.5569      0.0000      0.4845
  7      0.0000      0.0599      0.0000      0.1486      0.0000      0.0457      0.0000      0.1119      0.0000
  8      0.0000      0.1199      0.4195      0.0000      0.0000      0.7636      0.0000      0.4236      0.8459
  9      0.0000      0.1355      0.2453      1.2911      0.5639      0.0000      0.1245      0.2539      0.0000
 10      0.0000      0.0966      0.3183      0.0912      0.3614      0.6211      0.0000      0.0000      0.1285
 11      0.0000      0.0893      0.0000      0.0000      0.0000      0.0000      0.1164      0.6838      0.0720
 12      0.0000      0.1385      0.8269      1.3980      0.9616      0.3473      0.3806      0.3515      0.6219
 13      0.0000      0.1280      0.1911      0.6304      1.1731      0.0000      0.1090      0.0000      0.8815
 14      0.0000      0.0895      0.8085      0.1754      1.0907      0.0000      0.1711      1.1129      0.0017
 15      0.1119      0.1133      0.2291      0.9812      1.1158      0.2039      0.2195      0.0595      0.3543
 16      0.0000      0.0693      0.1780      0.0000      0.2412      0.0109      0.5052      0.0000      0.1028
 17      0.0000      0.1113      0.2001      0.0000      0.5526      0.0217      0.5090      0.2728      0.8138
 18     20.8425      0.1402      0.3121      0.4629      0.8527      0.0734      0.3026      0.2954      0.0000
 19      0.0000      0.1207      0.3403      0.6028      0.3285      0.6408      0.3479      0.1285      0.3471
 20      0.0000      0.1064      0.0337      0.0754      0.0000      0.4881      0.8417      0.5768      0.0000
 21      0.0000      0.0859      0.2478      0.0000      0.2319      0.1403      0.2932      0.1500      0.3058
 22      0.0000      0.1072      0.3144      0.0450      0.0000      0.0985      0.1254      0.6209      0.4266
 23      0.0000      0.1273      1.0794      1.4724      0.2422      0.4807      0.1789      0.0218      0.0000
 24      0.0000      0.0938      0.0000      0.3762      0.3329      0.0000      0.0202      0.0109      0.2724
 25      0.0000      0.0909      0.7669      0.3182      0.2754      0.5122      0.0000      0.0000      0.0144
 26      0.0000      0.1042      0.3723      0.0000      0.0000      0.2912      0.2787      0.0779      0.9151
 27      0.0000      0.1237      0.6667      0.0000      0.3134      0.4396      0.0743      0.1840      0.0000
 28      0.0000      0.1316      0.7707      0.0449      0.8804      0.0000      0.7230      0.0000      0.8409
 29      0.0000      0.1380      0.2256      0.0000      0.0000      0.1829      1.0607      1.0376      0.1098
 30      0.0000      0.1095      0.2131      0.0342      0.9412      0.0863      0.0000      0.0000      0.2154
 31      0.0000      0.0806      0.0854      0.0885      0.3094      0.3862      0.8799      0.0713      0.2373
 32      0.0000      0.1116      0.3948      0.2974      0.0981      0.1559      0.4502      0.0000      0.2134
 33      8.5388      0.1279      0.3837      0.5305      0.3368      1.2960      0.9784      0.5451      1.0777
 34      0.0000      0.1587      0.1473      0.7807      0.2526      0.4509      0.8098      0.3928      1.4366
 35      0.0000      0.1006      0.0167      0.4172      0.0000      0.4800      0.1238      0.1526      0.0140
 36      0.0000      0.1095      0.1460      0.2142      0.2412      0.5978      0.0000      0.2332      1.1146
 37      0.0000      0.1564      0.0978      0.7585      1.1955      1.0166      1.1598      0.0811      0.2797
 38      0.0000      0.0931      0.1946      0.0000      0.0000      0.6994      0.0145      0.2187      0.5843
 39      0.0000      0.1280      0.1552      0.3694      0.0000      0.6272      0.0000      0.8619      0.0826
 40      0.0000      0.0936      0.0000      0.3287      0.0023      0.5110      0.0000      0.5555      0.3874
 41      0.0000      0.1089      0.4437      0.3705      0.0000      0.4705      0.4674      0.3386      0.6869
 42      0.0000      0.1236      0.5309      1.2993      0.2179      0.6734      0.2370      0.4577      0.6888
 43      0.0000      0.0802      0.0000      0.0000      0.2829      0.4466      0.0000      0.0000      0.0000
 44      0.3651      0.0961      0.0000      0.3096      0.5983      0.0000      0.9306      0.0757      0.1237
 45      0.0000      0.1204      0.0000      0.0000      0.2919      0.0000      0.0034      0.3766      0.8132
 46      0.0000      0.1317      1.1462      0.0000      0.8113      0.5663      0.2121      0.2812      0.0000
