###################################################################
## OUTPUT of StarlightChains_v04.for    [Cid@UFSC - 01/Apr/2007] ##
###################################################################

## Some input info
KUG0210-078._35_32.txt                   [arq_obs]
Base.CB07.vall.4m                        [arq_base]
Masks.EmLines.NEW.gm                     [arq_masks]
StCv04.C11.config                        [arq_config]
   66                                    [N_base]
    0                                    [N_YAV_components = # of components with extra extinction!]
    0                                    [i_FitPowerLaw (1/0 = Yes/No)]
-9.99                                    [alpha_PowerLaw]
CCM                                      [red_law_option]
 1.458241                                [q_norm = A(l_norm)/A(V)]

## (Re)Sampling Parameters
 3741.00                                 [l_ini (A)]
 7218.00                                 [l_fin (A)]
    1.00                                 [dl    (A)]     (OBS: dl_cushion =    50.00 A)

## Normalization info
 4020.00                                 [l_norm (A) - for base]
 4010.00                                 [llow_norm (A) - window for f_obs]
 4060.00                                 [lupp_norm (A) - window for f_obs]
4.542506E-17                             [fobs_norm (in input units)]

## S/N
 3691.00                                 [llow_SN (A) - window for S/N]
 7268.00                                 [lupp_SN (A) - window for S/N]
   3.925                                 [S/N in S/N window]
   2.668                                 [S/N in norm. window]
   0.100                                 [S/N_err in S/N window]
   0.068                                 [S/N_err in norm. window]
  1.0000                                 [fscale_chi2]

## etc...
    -2007567                             [idum_orig]
  2432                                   [NOl_eff]
  2364                                   [Nl_eff]
    68    NSIGMA                         [Ntot_cliped & clip_method]
 10360000                                [Nglobal_steps]
   7                                     [N_chains]
   7                                     [NEX0s_base = N_base in EX0s-fits]
 0   0   1       68   2.0   1.600E+04    [Clip-Bug, RC-Crash & Burn-In warning-flags, n_censored_weights, wei_nsig_threshold & wei_limit]
    68     67.282     66.728      0.554  [idt_all, wdt_TotTime, wdt_UsrTime & wdt_SysTime (sec)]

## Synthesis Results - Best model ##

 5.34972E-05                             [chi2/Nl_eff]
     5.84030                             [adev (%)]

   125.32965                             [sum-of-x (%)]
 1.69192E-17                             [Flux_tot (units of input spectrum!)]
 3.73739E-12                             [Mini_tot (???)]
 1.84814E-12                             [Mcor_tot (???)]

 -72.68                                  [v0_min  (km/s)]
 163.11                                  [vd_min  (km/s)]
-0.9034                                  [AV_min  (mag)]
 0.0000                                  [YAV_min (mag)]

# j     x_j(%)      Mini_j(%)     Mcor_j(%)     age_j(yr)     Z_j      (L/M)_j    YAV?  Mstars   component_j        a/Fe...       SSP_chi2r SSP_adev(%)   SSP_AV   SSP_x(%)
  1      0.0000     0.0000E+00    0.0000E+00    1.000000E+06  0.00400  1.094E-02    0   1.0000   age020_m42            0.0000     3.2602E-04    15.3437   3.7547   105.5770
  2      0.0000     0.0000E+00    0.0000E+00    3.160000E+06  0.00400  4.007E-02    0   0.9999   age045_m42            0.0000     3.1574E-04    15.3618   3.0404   111.9540
  3      0.0000     0.0000E+00    0.0000E+00    5.010000E+06  0.00400  2.539E-02    0   0.9488   age055_m42            0.0000     3.2468E-04    15.4580   3.3591   109.3817
  4      0.0000     0.0000E+00    0.0000E+00    6.610000E+06  0.00400  2.620E-02    0   0.9220   age061_m42            0.0000     3.2465E-04    15.5609   2.9681   112.0068
  5      0.0000     0.0000E+00    0.0000E+00    1.000000E+07  0.00400  1.322E-02    0   0.8862   age070_m42            0.0000     3.8896E-04    17.2388   2.6762   114.2481
  6      0.0000     0.0000E+00    0.0000E+00    1.445000E+07  0.00400  7.883E-03    0   0.8571   age078_m42            0.0000     3.8565E-04    17.0848   2.9992   111.6665
  7      0.0000     0.0000E+00    0.0000E+00    2.512000E+07  0.00400  5.251E-03    0   0.8174   age090_m42            0.0000     4.0205E-04    17.5694   2.5447   114.8441
  8      0.0000     0.0000E+00    0.0000E+00    4.000000E+07  0.00400  3.649E-03    0   0.7851   age104_m42            0.0000     3.8810E-04    17.3018   2.3186   115.8054
  9      0.0000     0.0000E+00    0.0000E+00    5.500000E+07  0.00400  3.098E-03    0   0.7629   age110_m42            0.0000     3.5914E-04    16.5654   2.4789   115.6734
 10      0.0000     0.0000E+00    0.0000E+00    1.015200E+08  0.00400  2.228E-03    0   0.7207   age116_m42            0.0000     3.4205E-04    16.0784   2.5026   115.8191
 11      0.0000     0.0000E+00    0.0000E+00    2.861200E+08  0.00400  1.093E-03    0   0.6648   age125_m42            0.0000     3.7038E-04    16.7768   1.9171   119.3744
 12      0.0000     0.0000E+00    0.0000E+00    5.088000E+08  0.00400  6.597E-04    0   0.6365   age130_m42            0.0000     3.2918E-04    15.7446   1.9129   120.4647
 13      0.0000     0.0000E+00    0.0000E+00    1.434000E+09  0.00400  2.132E-04    0   0.5798   age139_m42            0.0000     2.6814E-04    14.3993   0.9432   123.3685
 14      0.0000     0.0000E+00    0.0000E+00    4.250000E+09  0.00400  5.895E-05    0   0.5377   age158_m42            0.0000     2.0134E-04    12.4681   0.4962   119.7147
 15      0.0000     0.0000E+00    0.0000E+00    7.500000E+09  0.00400  3.510E-05    0   0.5212   age171_m42            0.0000     1.7899E-04    11.6621   0.3030   119.3331
 16      0.0000     0.0000E+00    0.0000E+00    1.300000E+10  0.00400  2.005E-05    0   0.5034   age193_m42            0.0000     1.6177E-04    10.9745   0.1313   119.1007
 17      0.0000     0.0000E+00    0.0000E+00    1.800000E+10  0.00400  1.525E-05    0   0.4967   age213_m42            0.0000     1.6580E-04    11.1173   0.1083   118.5533
 18      0.0000     0.0000E+00    0.0000E+00    1.000000E+06  0.00800  1.238E-02    0   1.0000   age020_m52            0.0000     3.2575E-04    15.3388   3.7524   105.7331
 19      0.0000     0.0000E+00    0.0000E+00    3.160000E+06  0.00800  3.074E-02    0   0.9966   age045_m52            0.0000     3.2316E-04    15.2984   3.6795   106.5364
 20      0.0000     0.0000E+00    0.0000E+00    5.010000E+06  0.00800  2.668E-02    0   0.9443   age055_m52            0.0000     3.2759E-04    15.5140   3.4391   108.5436
 21      0.0000     0.0000E+00    0.0000E+00    6.610000E+06  0.00800  2.136E-02    0   0.9177   age061_m52            0.0000     3.5086E-04    16.5312   2.1706   116.2357
 22      0.0000     0.0000E+00    0.0000E+00    1.000000E+07  0.00800  1.215E-02    0   0.8827   age070_m52            0.0000     4.1494E-04    17.7970   2.8448   114.2279
 23      0.0000     0.0000E+00    0.0000E+00    1.445000E+07  0.00800  8.717E-03    0   0.8552   age078_m52            0.0000     3.8595E-04    17.1358   2.9667   113.0874
 24      0.0000     0.0000E+00    0.0000E+00    2.512000E+07  0.00800  5.592E-03    0   0.8162   age090_m52            0.0000     4.0812E-04    17.6964   2.6054   116.1944
 25      0.0000     0.0000E+00    0.0000E+00    4.000000E+07  0.00800  3.896E-03    0   0.7841   age104_m52            0.0000     3.9174E-04    17.3356   2.5173   117.1200
 26      0.0000     0.0000E+00    0.0000E+00    1.015200E+08  0.00800  2.148E-03    0   0.7226   age116_m52            0.0000     3.5595E-04    16.4677   2.4648   116.7899
 27      0.0000     0.0000E+00    0.0000E+00    2.861200E+08  0.00800  9.925E-04    0   0.6683   age125_m52            0.0000     3.2998E-04    15.7227   1.9778   121.5435
 28      0.0000     0.0000E+00    0.0000E+00    9.047900E+08  0.00800  3.141E-04    0   0.6138   age135_m52            0.0000     2.5225E-04    13.7480   1.1684   127.6836
 29      0.0000     0.0000E+00    0.0000E+00    1.434000E+09  0.00800  1.719E-04    0   0.5853   age139_m52            0.0000     2.3065E-04    13.2646   0.5809   125.6110
 30      0.0000     0.0000E+00    0.0000E+00    2.500000E+09  0.00800  7.872E-05    0   0.5600   age150_m52            0.0000     1.6905E-04    11.3909   0.3192   122.8064
 31      0.0000     0.0000E+00    0.0000E+00    4.250000E+09  0.00800  4.336E-05    0   0.5426   age158_m52            0.0000     1.6495E-04    11.2041   0.3020   121.8418
 32      0.0000     0.0000E+00    0.0000E+00    6.250000E+09  0.00800  3.159E-05    0   0.5319   age166_m52            0.0000     1.3885E-04    10.2040   0.0979   122.1889
 33      0.0000     0.0000E+00    0.0000E+00    1.300000E+10  0.00800  1.361E-05    0   0.5073   age193_m52            0.0000     1.0928E-04     8.9501  -0.3734   121.8955
 34      0.0000     0.0000E+00    0.0000E+00    1.800000E+10  0.00800  9.886E-06    0   0.4990   age213_m52            0.0000     9.0692E-05     8.0463  -0.4832   121.6159
 35      0.0000     0.0000E+00    0.0000E+00    1.000000E+06  0.02000  1.544E-02    0   1.0000   age020_m62            0.0000     3.2646E-04    15.3502   3.7487   105.9739
 36      0.0000     0.0000E+00    0.0000E+00    3.160000E+06  0.02000  3.762E-02    0   0.9858   age045_m62            0.0000     3.2534E-04    15.3299   3.6890   106.8556
 37      0.0000     0.0000E+00    0.0000E+00    5.010000E+06  0.02000  3.296E-02    0   0.9342   age055_m62            0.0000     3.1646E-04    15.2588   3.3230   110.5517
 38      0.0000     0.0000E+00    0.0000E+00    8.710000E+06  0.02000  1.154E-02    0   0.8861   age067_m62            0.0000     5.8675E-04    21.2968   2.2624   117.6466
 39      0.0000     0.0000E+00    0.0000E+00    1.445000E+07  0.02000  7.663E-03    0   0.8472   age078_m62            0.0000     4.6092E-04    18.8550   2.4730   117.1201
 40      0.0000     0.0000E+00    0.0000E+00    2.512000E+07  0.02000  4.532E-03    0   0.8099   age090_m62            0.0000     4.7817E-04    19.1566   2.4642   116.6096
 41      0.0000     0.0000E+00    0.0000E+00    5.500000E+07  0.02000  2.733E-03    0   0.7595   age110_m62            0.0000     3.8951E-04    17.2747   2.5012   116.2766
 42      0.0000     0.0000E+00    0.0000E+00    1.609000E+08  0.02000  1.369E-03    0   0.6985   age120_m62            0.0000     3.5058E-04    16.2705   2.3496   119.1693
 43      0.0000     0.0000E+00    0.0000E+00    2.861200E+08  0.02000  9.013E-04    0   0.6714   age125_m62            0.0000     3.2389E-04    15.6233   2.1020   122.6256
 44      0.0000     0.0000E+00    0.0000E+00    5.088000E+08  0.02000  5.028E-04    0   0.6449   age130_m62            0.0000     2.6079E-04    13.9918   1.7206   126.5765
 45      0.0000     0.0000E+00    0.0000E+00    9.047900E+08  0.02000  2.428E-04    0   0.6179   age135_m62            0.0000     2.0858E-04    12.6262   1.1222   126.8660
 46      0.0000     0.0000E+00    0.0000E+00    1.434000E+09  0.02000  1.263E-04    0   0.5908   age139_m62            0.0000     1.8103E-04    11.7955   0.6746   125.5163
 47      0.0000     0.0000E+00    0.0000E+00    2.500000E+09  0.02000  5.985E-05    0   0.5673   age150_m62            0.0000     1.3979E-04    10.2965   0.3051   124.4894
 48      0.0000     0.0000E+00    0.0000E+00    4.250000E+09  0.02000  3.271E-05    0   0.5468   age158_m62            0.0000     1.0382E-04     8.7884  -0.0028   124.0072
 49      0.0000     0.0000E+00    0.0000E+00    1.000000E+10  0.02000  1.360E-05    0   0.5167   age181_m62            0.0000     7.6834E-05     7.4198  -0.3571   124.1469
 50      0.0000     0.0000E+00    0.0000E+00    1.800000E+10  0.02000  7.124E-06    0   0.5013   age213_m62            0.0000     6.2436E-05     6.5769  -0.5716   123.6107
 51      0.0000     0.0000E+00    0.0000E+00    1.000000E+06  0.05000  2.592E-02    0   0.9998   age020_m72            0.0000     3.3074E-04    15.4363   3.7406   106.0086
 52      0.0000     0.0000E+00    0.0000E+00    3.160000E+06  0.05000  4.845E-02    0   0.9577   age045_m72            0.0000     3.1842E-04    15.2011   3.5802   107.8729
 53      0.0000     0.0000E+00    0.0000E+00    5.010000E+06  0.05000  3.072E-02    0   0.9147   age055_m72            0.0000     4.2307E-04    17.7676   3.0528   113.1668
 54      0.0000     0.0000E+00    0.0000E+00    6.610000E+06  0.05000  1.455E-02    0   0.8877   age061_m72            0.0000     7.5693E-04    24.1603   2.2423   119.4996
 55      0.0000     0.0000E+00    0.0000E+00    1.000000E+07  0.05000  9.074E-03    0   0.8524   age070_m72            0.0000     4.7241E-04    18.3159   3.1953   113.5888
 56      0.0000     0.0000E+00    0.0000E+00    2.512000E+07  0.05000  4.250E-03    0   0.7902   age090_m72            0.0000     4.4704E-04    18.1452   2.9298   114.6380
 57      0.0000     0.0000E+00    0.0000E+00    4.000000E+07  0.05000  3.087E-03    0   0.7618   age104_m72            0.0000     4.6018E-04    18.4509   2.7036   116.2924
 58      0.0000     0.0000E+00    0.0000E+00    1.015200E+08  0.05000  1.700E-03    0   0.7096   age116_m72            0.0000     3.8392E-04    17.0046   2.4834   118.6927
 59      0.0000     0.0000E+00    0.0000E+00    2.861200E+08  0.05000  7.384E-04    0   0.6633   age125_m72            0.0000     2.8960E-04    14.7762   1.9682   124.6613
 60      0.0000     0.0000E+00    0.0000E+00    5.088000E+08  0.05000  3.819E-04    0   0.6372   age130_m72            0.0000     2.2052E-04    12.9927   1.4744   127.4919
 61      0.0000     0.0000E+00    0.0000E+00    9.047900E+08  0.05000  1.676E-04    0   0.6110   age135_m72            0.0000     1.4654E-04    10.6947   0.7737   126.3893
 62      0.0000     0.0000E+00    0.0000E+00    1.434000E+09  0.05000  8.837E-05    0   0.5874   age139_m72            0.0000     1.3589E-04    10.1301   0.3000   126.5335
 63      0.0000     0.0000E+00    0.0000E+00    2.500000E+09  0.05000  4.233E-05    0   0.5598   age150_m72            0.0000     9.4241E-05     8.3564  -0.0071   125.3921
 64      0.0000     0.0000E+00    0.0000E+00    6.250000E+09  0.05000  1.435E-05    0   0.5249   age166_m72            0.0000     7.0356E-05     7.0542  -0.4571   123.8913
 65      0.0000     0.0000E+00    0.0000E+00    1.300000E+10  0.05000  6.513E-06    0   0.5036   age193_m72            0.0000     5.7299E-05     6.1945  -0.7407   125.4627
 66    125.3297     1.0000E+02    1.0000E+02    1.800000E+10  0.05000  4.527E-06    0   0.4945   age213_m72            0.0000     5.3489E-05     5.8431  -0.9041   125.4057


## Synthesis Results - Average & Chains ##

# j      x_j: min, <> & last-chain-values for 1 ...  7 chains
  1      0.0000      0.1130      0.0068      0.0000      0.0031      0.0000      0.0518      0.0000      0.0000
  2      0.0000      0.1250      0.0430      0.0175      0.0000      0.0790      0.0005      0.0000      0.0654
  3      0.0000      0.0982      0.0264      0.0223      0.0054      0.0169      0.0072      0.0198      0.0291
  4      0.0000      0.1142      0.0000      0.0491      0.0165      0.0558      0.0087      0.0398      0.0000
  5      0.0000      0.1024      0.0000      0.0057      0.0000      0.0677      0.0000      0.0206      0.0325
  6      0.0000      0.0984      0.0000      0.0228      0.0115      0.0516      0.0021      0.0000      0.0389
  7      0.0000      0.0939      0.0077      0.0276      0.0179      0.0093      0.0052      0.0120      0.0349
  8      0.0000      0.1340      0.0142      0.0099      0.0016      0.0548      0.0133      0.0000      0.0000
  9      0.0000      0.1311      0.0000      0.0676      0.0553      0.0708      0.0098      0.0096      0.0000
 10      0.0000      0.1246      0.0764      0.0364      0.0119      0.0151      0.0021      0.0249      0.1163
 11      0.0000      0.0904      0.0327      0.0600      0.0137      0.0000      0.0000      0.0000      0.0000
 12      0.0000      0.1097      0.0041      0.0529      0.0051      0.0881      0.0000      0.0105      0.0102
 13      0.0000      0.1281      0.0000      0.0363      0.0000      0.0215      0.0311      0.0101      0.0000
 14      0.0000      0.1327      0.0000      0.0130      0.0057      0.0373      0.0324      0.0506      0.0108
 15      0.0000      0.1395      0.0179      0.0084      0.0140      0.0698      0.0175      0.0110      0.0494
 16      0.0000     23.6586     24.2386     25.0051     26.2618     25.4771     24.7228     24.5792     29.8201
 17      0.0000     23.1005     23.2066     23.3067     31.8611     23.4162     23.5044     22.4258     20.9034
 18      0.0000      0.1187      0.0056      0.0177      0.0019      0.0025      0.0367      0.0412      0.0000
 19      0.0000      0.1276      0.0000      0.0000      0.0197      0.0402      0.0000      0.0133      0.0118
 20      0.0000      0.0894      0.0263      0.0048      0.0000      0.0568      0.0145      0.0000      0.0158
 21      0.0000      0.1193      0.0078      0.0000      0.0000      0.0324      0.0018      0.0018      0.0000
 22      0.0000      0.1286      0.0000      0.0200      0.0228      0.0180      0.0039      0.0055      0.0280
 23      0.0000      0.1226      0.0276      0.0253      0.0347      0.0000      0.0409      0.0011      0.0106
 24      0.0000      0.1132      0.0262      0.0213      0.0000      0.0000      0.0061      0.0245      0.0486
 25      0.0000      0.1337      0.0634      0.0222      0.0088      0.0000      0.0230      0.0000      0.0157
 26      0.0000      0.1502      0.0000      0.0303      0.0013      0.0989      0.0000      0.0703      0.0157
 27      0.0000      0.0717      0.0013      0.0001      0.0093      0.0322      0.0000      0.0213      0.0008
 28      0.0000      0.1097      0.0070      0.0326      0.0035      0.0276      0.0300      0.0107      0.0000
 29      0.0000      0.1218      0.0370      0.0733      0.0005      0.0211      0.0149      0.0142      0.0588
 30      0.0000      0.1261      0.0000      0.0174      0.0037      0.0172      0.0122      0.0000      0.0111
 31      0.0000      0.1038      0.0000      0.0258      0.0304      0.0379      0.0251      0.0000      0.0171
 32      0.0000      6.8215      9.1812      8.7010      0.3523      8.5950      8.7899     11.7747      5.0997
 33      0.0000      0.1125      0.0645      0.0334      0.0046      0.0063      0.0408      0.0012      0.0000
 34      0.0000     17.9480     20.0674     19.5544     17.6275     18.8371     19.7660     18.8181     20.9379
 35      0.0000      0.1404      0.0000      0.0763      0.0315      0.0096      0.0000      0.0342      0.0000
 36      0.0000      0.0750      0.0157      0.0255      0.0152      0.0047      0.0000      0.0000      0.0000
 37      0.0000      0.1135      0.0000      0.0104      0.0000      0.0263      0.0381      0.0000      0.0000
 38      0.0000      0.0886      0.0000      0.0000      0.0029      0.0244      0.0130      0.0000      0.0278
 39      0.0000      0.1192      0.0058      0.0194      0.0024      0.0443      0.0264      0.0119      0.0000
 40      0.0000      0.1615      0.0894      0.0152      0.0050      0.0939      0.0076      0.0101      0.0803
 41      0.0000      0.1176      0.0000      0.0157      0.0211      0.0203      0.0189      0.0000      0.1410
 42      0.0000      0.0951      0.0736      0.0000      0.0212      0.0549      0.0000      0.0222      0.0390
 43      0.0000      0.1049      0.0007      0.0187      0.0000      0.0959      0.0000      0.0000      0.0009
 44      0.0000      0.1497      0.0190      0.0056      0.0000      0.0000      0.0000      0.0273      0.0376
 45      0.0000      0.1239      0.0000      0.0076      0.0148      0.0176      0.1052      0.0023      0.0313
 46      0.0000      0.1498      0.0367      0.0132      0.0000      0.0000      0.0217      0.0000      0.0000
