###################################################################
## OUTPUT of StarlightChains_v04.for    [Cid@UFSC - 01/Apr/2007] ##
###################################################################

## Some input info
KUG0210-078._47_29.txt                   [arq_obs]
Base.CB07.vall.4m                        [arq_base]
Masks.EmLines.NEW.gm                     [arq_masks]
StCv04.C11.config                        [arq_config]
   66                                    [N_base]
    0                                    [N_YAV_components = # of components with extra extinction!]
    0                                    [i_FitPowerLaw (1/0 = Yes/No)]
-9.99                                    [alpha_PowerLaw]
CCM                                      [red_law_option]
 1.458241                                [q_norm = A(l_norm)/A(V)]

## (Re)Sampling Parameters
 3741.00                                 [l_ini (A)]
 7218.00                                 [l_fin (A)]
    1.00                                 [dl    (A)]     (OBS: dl_cushion =    50.00 A)

## Normalization info
 4020.00                                 [l_norm (A) - for base]
 4010.00                                 [llow_norm (A) - window for f_obs]
 4060.00                                 [lupp_norm (A) - window for f_obs]
2.190666E-18                             [fobs_norm (in input units)]

## S/N
 3691.00                                 [llow_SN (A) - window for S/N]
 7268.00                                 [lupp_SN (A) - window for S/N]
   2.471                                 [S/N in S/N window]
   1.030                                 [S/N in norm. window]
   0.006                                 [S/N_err in S/N window]
   0.002                                 [S/N_err in norm. window]
  1.0000                                 [fscale_chi2]

## etc...
    -2007905                             [idum_orig]
  2241                                   [NOl_eff]
  2166                                   [Nl_eff]
    75    NSIGMA                         [Ntot_cliped & clip_method]
  6108620                                [Nglobal_steps]
   7                                     [N_chains]
  37                                     [NEX0s_base = N_base in EX0s-fits]
 0   0   1       75   2.0   8.480E+02    [Clip-Bug, RC-Crash & Burn-In warning-flags, n_censored_weights, wei_nsig_threshold & wei_limit]
    56     55.345     54.637      0.708  [idt_all, wdt_TotTime, wdt_UsrTime & wdt_SysTime (sec)]

## Synthesis Results - Best model ##

 3.13175E-05                             [chi2/Nl_eff]
    36.74604                             [adev (%)]

   129.99998                             [sum-of-x (%)]
 1.87729E-16                             [Flux_tot (units of input spectrum!)]
 1.76117E-14                             [Mini_tot (???)]
 1.41042E-14                             [Mcor_tot (???)]

 479.34                                  [v0_min  (km/s)]
   3.84                                  [vd_min  (km/s)]
 3.1185                                  [AV_min  (mag)]
 0.0000                                  [YAV_min (mag)]

# j     x_j(%)      Mini_j(%)     Mcor_j(%)     age_j(yr)     Z_j      (L/M)_j    YAV?  Mstars   component_j        a/Fe...       SSP_chi2r SSP_adev(%)   SSP_AV   SSP_x(%)
  1      0.0000     0.0000E+00    0.0000E+00    1.000000E+06  0.00400  1.094E-02    0   1.0000   age020_m42            0.0000     1.3678E-05    36.1167   1.6207   331.5012
  2      0.0000     0.0000E+00    0.0000E+00    3.160000E+06  0.00400  4.007E-02    0   0.9999   age045_m42            0.0000     1.4174E-05    36.7960   0.9733   340.4728
  3      0.0000     0.0000E+00    0.0000E+00    5.010000E+06  0.00400  2.539E-02    0   0.9488   age055_m42            0.0000     1.3925E-05    36.3243   1.2638   338.1593
  4     10.9396     3.4236E+00    3.9416E+00    6.610000E+06  0.00400  2.620E-02    0   0.9220   age061_m42            0.0000     1.4251E-05    36.8633   0.9042   340.4969
  5      0.0000     0.0000E+00    0.0000E+00    1.000000E+07  0.00400  1.322E-02    0   0.8862   age070_m42            0.0000     1.4591E-05    37.7175   0.6179   345.9130
  6      0.0000     0.0000E+00    0.0000E+00    1.445000E+07  0.00400  7.883E-03    0   0.8571   age078_m42            0.0000     1.4321E-05    37.2547   0.9248   341.7760
  7      0.0000     0.0000E+00    0.0000E+00    2.512000E+07  0.00400  5.251E-03    0   0.8174   age090_m42            0.0000     1.4689E-05    37.8886   0.4937   346.4539
  8      0.0000     0.0000E+00    0.0000E+00    4.000000E+07  0.00400  3.649E-03    0   0.7851   age104_m42            0.0000     1.4772E-05    38.1348   0.2681   347.7770
  9      0.0000     0.0000E+00    0.0000E+00    5.500000E+07  0.00400  3.098E-03    0   0.7629   age110_m42            0.0000     1.4737E-05    37.8751   0.4361   346.2900
 10      1.1061     4.0706E+00    3.6632E+00    1.015200E+08  0.00400  2.228E-03    0   0.7207   age116_m42            0.0000     1.4715E-05    37.6091   0.4768   345.1084
 11      0.0000     0.0000E+00    0.0000E+00    2.861200E+08  0.00400  1.093E-03    0   0.6648   age125_m42            0.0000     1.4876E-05    37.9405  -0.0217   348.4160
 12      1.1890     1.4779E+01    1.1746E+01    5.088000E+08  0.00400  6.597E-04    0   0.6365   age130_m42            0.0000     1.4852E-05    37.7813  -0.0278   350.0048
 13      0.0000     0.0000E+00    0.0000E+00    1.434000E+09  0.00400  2.132E-04    0   0.5798   age139_m42            0.0000     1.4713E-05    38.2420  -1.0000   354.6754
 14      0.0000     0.0000E+00    0.0000E+00    4.250000E+09  0.00400  5.895E-05    0   0.5377   age158_m42            0.0000     1.5500E-05    33.7253  -1.0000   297.9410
 15      0.0000     0.0000E+00    0.0000E+00    7.500000E+09  0.00400  3.510E-05    0   0.5212   age171_m42            0.0000     1.6525E-05    32.9248  -1.0000   276.5182
 16      0.0000     0.0000E+00    0.0000E+00    1.300000E+10  0.00400  2.005E-05    0   0.5034   age193_m42            0.0000     1.7781E-05    32.6153  -1.0000   257.5150
 17      0.0000     0.0000E+00    0.0000E+00    1.800000E+10  0.00400  1.525E-05    0   0.4967   age213_m42            0.0000     1.7852E-05    32.6174  -1.0000   254.8064
 18      0.0000     0.0000E+00    0.0000E+00    1.000000E+06  0.00800  1.238E-02    0   1.0000   age020_m52            0.0000     1.3687E-05    36.1634   1.6142   332.4371
 19     13.5929     3.6257E+00    4.5120E+00    3.160000E+06  0.00800  3.074E-02    0   0.9966   age045_m52            0.0000     1.3657E-05    36.1983   1.5374   335.1889
 20      0.9805     3.0134E-01    3.5532E-01    5.010000E+06  0.00800  2.668E-02    0   0.9443   age055_m52            0.0000     1.3880E-05    36.5584   1.3155   338.0495
 21      0.0000     0.0000E+00    0.0000E+00    6.610000E+06  0.00800  2.136E-02    0   0.9177   age061_m52            0.0000     1.4542E-05    38.1887   0.0844   352.5252
 22      0.0000     0.0000E+00    0.0000E+00    1.000000E+07  0.00800  1.215E-02    0   0.8827   age070_m52            0.0000     1.4484E-05    37.6769   0.7969   347.0020
 23      0.0000     0.0000E+00    0.0000E+00    1.445000E+07  0.00800  8.717E-03    0   0.8552   age078_m52            0.0000     1.4412E-05    37.4637   0.8929   345.3298
 24      2.3103     3.3876E+00    3.4526E+00    2.512000E+07  0.00800  5.592E-03    0   0.8162   age090_m52            0.0000     1.4724E-05    38.0138   0.5654   349.8914
 25      0.0000     0.0000E+00    0.0000E+00    4.000000E+07  0.00800  3.896E-03    0   0.7841   age104_m52            0.0000     1.4753E-05    38.0485   0.4925   350.2893
 26      0.0000     0.0000E+00    0.0000E+00    1.015200E+08  0.00800  2.148E-03    0   0.7226   age116_m52            0.0000     1.4735E-05    37.9331   0.4361   348.3019
 27      0.0000     0.0000E+00    0.0000E+00    2.861200E+08  0.00800  9.925E-04    0   0.6683   age125_m52            0.0000     1.5044E-05    38.3054   0.0118   353.7505
 28      0.0000     0.0000E+00    0.0000E+00    9.047900E+08  0.00800  3.141E-04    0   0.6138   age135_m52            0.0000     1.4782E-05    38.5132  -0.7551   364.9280
 29      0.0195     9.2899E-01    6.7895E-01    1.434000E+09  0.00800  1.719E-04    0   0.5853   age139_m52            0.0000     1.4977E-05    35.4041  -1.0000   325.0649
 30      0.0000     0.0000E+00    0.0000E+00    2.500000E+09  0.00800  7.872E-05    0   0.5600   age150_m52            0.0000     1.6435E-05    33.1936  -1.0000   285.6848
 31      0.0000     0.0000E+00    0.0000E+00    4.250000E+09  0.00800  4.336E-05    0   0.5426   age158_m52            0.0000     1.6585E-05    33.0184  -1.0000   280.9487
 32      0.0000     0.0000E+00    0.0000E+00    6.250000E+09  0.00800  3.159E-05    0   0.5319   age166_m52            0.0000     1.8139E-05    32.4969  -1.0000   258.7821
 33      0.0000     0.0000E+00    0.0000E+00    1.300000E+10  0.00800  1.361E-05    0   0.5073   age193_m52            0.0000     2.2764E-05    32.5208  -1.0000   208.7637
 34      0.0000     0.0000E+00    0.0000E+00    1.800000E+10  0.00800  9.886E-06    0   0.4990   age213_m52            0.0000     2.3897E-05    32.4316  -1.0000   197.8333
 35      0.0000     0.0000E+00    0.0000E+00    1.000000E+06  0.02000  1.544E-02    0   1.0000   age020_m62            0.0000     1.3672E-05    36.1945   1.6060   333.8234
 36      0.0000     0.0000E+00    0.0000E+00    3.160000E+06  0.02000  3.762E-02    0   0.9858   age045_m62            0.0000     1.3610E-05    36.2143   1.5420   337.4193
 37     16.3171     4.0592E+00    4.7352E+00    5.010000E+06  0.02000  3.296E-02    0   0.9342   age055_m62            0.0000     1.4099E-05    36.7309   1.2195   340.9077
 38      0.0000     0.0000E+00    0.0000E+00    8.710000E+06  0.02000  1.154E-02    0   0.8861   age067_m62            0.0000     1.4925E-05    39.3279   0.2439   357.5960
 39      0.0000     0.0000E+00    0.0000E+00    1.445000E+07  0.02000  7.663E-03    0   0.8472   age078_m62            0.0000     1.4635E-05    38.3381   0.4612   353.3985
 40      0.0000     0.0000E+00    0.0000E+00    2.512000E+07  0.02000  4.532E-03    0   0.8099   age090_m62            0.0000     1.4668E-05    38.2984   0.4731   350.8636
 41      0.0000     0.0000E+00    0.0000E+00    5.500000E+07  0.02000  2.733E-03    0   0.7595   age110_m62            0.0000     1.4730E-05    37.9988   0.4649   349.0960
 42      0.0000     0.0000E+00    0.0000E+00    1.609000E+08  0.02000  1.369E-03    0   0.6985   age120_m62            0.0000     1.5017E-05    38.2232   0.3334   352.3645
 43      0.0000     0.0000E+00    0.0000E+00    2.861200E+08  0.02000  9.013E-04    0   0.6714   age125_m62            0.0000     1.5270E-05    38.5717   0.1030   357.5057
 44      0.0000     0.0000E+00    0.0000E+00    5.088000E+08  0.02000  5.028E-04    0   0.6449   age130_m62            0.0000     1.5122E-05    38.7359  -0.2592   364.6049
 45      0.0000     0.0000E+00    0.0000E+00    9.047900E+08  0.02000  2.428E-04    0   0.6179   age135_m62            0.0000     1.4609E-05    38.7827  -0.8754   367.6465
 46      0.0000     0.0000E+00    0.0000E+00    1.434000E+09  0.02000  1.263E-04    0   0.5908   age139_m62            0.0000     1.4893E-05    35.1854  -1.0000   329.0129
 47      0.0000     0.0000E+00    0.0000E+00    2.500000E+09  0.02000  5.985E-05    0   0.5673   age150_m62            0.0000     1.6816E-05    32.7555  -1.0000   284.6802
 48      0.0000     0.0000E+00    0.0000E+00    4.250000E+09  0.02000  3.271E-05    0   0.5468   age158_m62            0.0000     1.9337E-05    31.8123  -1.0000   248.7485
 49      0.0000     0.0000E+00    0.0000E+00    1.000000E+10  0.02000  1.360E-05    0   0.5167   age181_m62            0.0000     2.2827E-05    31.6620  -1.0000   212.0283
 50      0.0000     0.0000E+00    0.0000E+00    1.800000E+10  0.02000  7.124E-06    0   0.5013   age213_m62            0.0000     2.5112E-05    31.7736  -1.0000   190.9046
 51     30.1496     9.5375E+00    1.1907E+01    1.000000E+06  0.05000  2.592E-02    0   0.9998   age020_m72            0.0000     1.3602E-05    36.1589   1.5919   334.9930
 52     30.3630     5.1385E+00    6.1450E+00    3.160000E+06  0.05000  4.845E-02    0   0.9577   age045_m72            0.0000     1.3755E-05    36.2779   1.4451   338.5489
 53      0.0000     0.0000E+00    0.0000E+00    5.010000E+06  0.05000  3.072E-02    0   0.9147   age055_m72            0.0000     1.4030E-05    37.1878   1.0501   345.7599
 54      0.0000     0.0000E+00    0.0000E+00    6.610000E+06  0.05000  1.455E-02    0   0.8877   age061_m72            0.0000     1.4632E-05    40.4571   0.4696   356.2425
 55      0.0000     0.0000E+00    0.0000E+00    1.000000E+07  0.05000  9.074E-03    0   0.8524   age070_m72            0.0000     1.3899E-05    37.5258   1.2808   343.3360
 56     22.3444     4.3109E+01    4.2536E+01    2.512000E+07  0.05000  4.250E-03    0   0.7902   age090_m72            0.0000     1.4284E-05    37.4705   0.9971   343.7959
 57      0.0000     0.0000E+00    0.0000E+00    4.000000E+07  0.05000  3.087E-03    0   0.7618   age104_m72            0.0000     1.4484E-05    37.7143   0.7997   345.6505
 58      0.0000     0.0000E+00    0.0000E+00    1.015200E+08  0.05000  1.700E-03    0   0.7096   age116_m72            0.0000     1.4971E-05    38.0099   0.5031   350.3356
 59      0.6880     7.6396E+00    6.3276E+00    2.861200E+08  0.05000  7.384E-04    0   0.6633   age125_m72            0.0000     1.5153E-05    38.5352  -0.0223   361.7987
 60      0.0000     0.0000E+00    0.0000E+00    5.088000E+08  0.05000  3.819E-04    0   0.6372   age130_m72            0.0000     1.4838E-05    38.8917  -0.5484   370.7524
 61      0.0000     0.0000E+00    0.0000E+00    9.047900E+08  0.05000  1.676E-04    0   0.6110   age135_m72            0.0000     1.4734E-05    35.5587  -1.0000   340.2078
 62      0.0000     0.0000E+00    0.0000E+00    1.434000E+09  0.05000  8.837E-05    0   0.5874   age139_m72            0.0000     1.6863E-05    32.9058  -1.0000   288.6982
 63      0.0000     0.0000E+00    0.0000E+00    2.500000E+09  0.05000  4.233E-05    0   0.5598   age150_m72            0.0000     1.9239E-05    31.7128  -1.0000   251.7099
 64      0.0000     0.0000E+00    0.0000E+00    6.250000E+09  0.05000  1.435E-05    0   0.5249   age166_m72            0.0000     2.3835E-05    31.7425  -1.0000   202.2726
 65      0.0000     0.0000E+00    0.0000E+00    1.300000E+10  0.05000  6.513E-06    0   0.5036   age193_m72            0.0000     2.6967E-05    32.2266  -1.0000   178.9211
 66      0.0000     0.0000E+00    0.0000E+00    1.800000E+10  0.05000  4.527E-06    0   0.4945   age213_m72            0.0000     2.8740E-05    32.6382  -1.0000   165.4893


## Synthesis Results - Average & Chains ##

# j      x_j: min, <> & last-chain-values for 1 ...  7 chains
  1      0.0000     28.5930     28.5117     24.3590     28.2727     28.0138     22.8695     24.7928     28.7030
  2      0.0000      0.1382      0.0000      0.2240      0.0957      0.1911      0.0000      0.6290      0.4303
  3      0.0000      0.1350      0.1089      1.2833      0.0000      0.1818      0.3987      0.0651      0.2103
  4     10.9396      0.1235      0.0162      0.5007      0.0000      0.0000      0.2182      0.3594      0.0871
  5      0.0000      0.1499      0.0000      0.3983      0.3765      0.0000      0.8491      0.3142      0.2707
  6      0.0000      0.1795      0.4944      0.2318      0.0000      0.0038      0.1713      0.1839      0.3085
  7      0.0000      0.1317      0.0000      0.0000      0.2719      0.0103      0.1902      0.1707      0.2180
  8      0.0000      0.1178      0.0000      0.7025      0.0519      0.0000      0.4338      0.0000      0.0376
  9      0.0000      0.1521      0.0476      0.0000      0.0128      0.0000      0.0307      0.2452      0.0000
 10      1.1061      0.1556      0.3869      0.3604      0.2377      0.1694      0.5805      0.3608      0.4811
 11      0.0000      0.1246      0.0000      1.2121      0.0531      0.0823      0.1426      0.3773      0.1464
 12      1.1890      0.1515      0.1479      1.1198      0.4028      0.4500      0.2216      0.6053      0.2552
 13      0.0000      0.1714      0.8938      0.5927      0.8069      0.2486      0.7388      0.2537      0.1359
 14      0.0000      0.1862      0.4016      0.8520      0.1839      0.2063      0.3768      0.0000      0.3776
 15      0.0000      0.1462      0.9658      0.1366      0.1093      0.1640      0.0000      0.1334      0.0000
 16      0.0000      0.1345      0.0000      0.0000      0.6852      0.2311      0.5083      0.0000      0.2958
 17      0.0000      0.1790      0.1673      1.4648      0.3770      0.3529      1.7642      0.3934      0.7142
 18      0.0000     22.5448     20.6679     19.1129     21.5716     22.2134     20.8081     20.9112     21.8264
 19     13.5929      0.1456      0.0150      0.5577      0.1399      0.3379      1.7324      0.7758      0.0000
 20      0.9805      0.1220      0.0000      0.2799      0.1150      0.2720      0.2365      0.1697      0.0000
 21      0.0000      0.1538      0.2938      1.8028      0.1819      0.2056      0.4804      0.5190      0.0000
 22      0.0000      0.2369      0.1812      0.2588      0.0977      0.0908      0.2624      0.0000      0.3168
 23      0.0000      0.1466      0.2196      0.0000      0.0639      0.1290      0.0596      0.0000      0.0818
 24      2.3103      0.1757      0.0000      0.8461      0.1686      0.0805      0.0832      0.4624      0.0029
 25      0.0000      0.1430      0.2177      0.0000      0.0000      0.0000      0.0000      0.1058      0.2025
 26      0.0000      0.1989      0.1624      1.3490      0.2229      0.0129      0.1516      1.0846      0.0000
 27      0.0000      0.1210      0.0000      0.0000      0.2405      0.1099      0.2420      0.5872      0.3175
 28      0.0000      0.1407      0.1155      0.0240      0.3701      0.3160      0.3066      0.0000      0.0990
 29      0.0195      0.1487      0.4954      1.3092      0.0000      0.0000      0.4672      0.8289      0.0535
 30      0.0000      0.2281      0.1183      1.1799      0.2082      0.3138      0.8349      0.0000      0.0327
 31      0.0000      0.1518      0.2789      0.1890      0.4889      0.2220      0.4056      0.1624      0.5346
 32      0.0000      0.1431      0.0000      0.1487      0.1102      0.2215      0.2919      1.1889      0.2051
 33      0.0000      0.1614      0.7901      0.0668      0.1339      0.1421      0.2755      0.4329      0.0944
 34      0.0000     23.1587     22.5465     23.1110     22.7356     23.2726     23.8141     23.6148     22.7103
 35      0.0000      2.3374      2.6630      2.3156      1.3702      1.9610      2.4048      2.5177      2.6577
 36      0.0000      0.1293      0.0222      0.0000      0.4449      0.3551      0.0000      0.0000      0.3555
 37     16.3171      0.1548      0.1024      1.0861      0.2551      0.0729      0.0000      0.3955      0.1465
 38      0.0000      0.1367      0.0000      0.0000      0.0148      0.0000      0.2699      0.0981      0.0387
 39      0.0000      0.1788      0.0572      0.0000      0.1459      0.1865      0.1560      0.0000      0.0101
 40      0.0000      0.1371      0.1016      0.4137      0.0000      0.1350      0.2372      0.0000      0.0613
 41      0.0000      0.1040      0.1087      0.1656      0.1911      0.2009      0.0297      0.0000      0.0000
 42      0.0000      0.1524      0.6779      0.0309      0.0000      0.1083      0.0000      0.0497      0.0000
 43      0.0000      0.1866      0.1188      0.3531      0.4649      0.0993      0.7739      0.2924      0.0641
 44      0.0000      0.1065      0.0000      0.1113      0.1537      0.2445      0.4955      0.1509      0.1935
 45      0.0000      0.1728      0.2825      0.3613      0.3464      0.3876      0.4661      0.5943      0.3074
 46      0.0000      0.2057      0.2273      0.0888      0.6757      0.0789      1.3909      0.6482      0.2719
