###################################################################
## OUTPUT of StarlightChains_v04.for    [Cid@UFSC - 01/Apr/2007] ##
###################################################################

## Some input info
KUG0210-078._47_53.txt                   [arq_obs]
Base.CB07.vall.4m                        [arq_base]
Masks.EmLines.NEW.gm                     [arq_masks]
StCv04.C11.config                        [arq_config]
   66                                    [N_base]
    0                                    [N_YAV_components = # of components with extra extinction!]
    0                                    [i_FitPowerLaw (1/0 = Yes/No)]
-9.99                                    [alpha_PowerLaw]
CCM                                      [red_law_option]
 1.458241                                [q_norm = A(l_norm)/A(V)]

## (Re)Sampling Parameters
 3741.00                                 [l_ini (A)]
 7218.00                                 [l_fin (A)]
    1.00                                 [dl    (A)]     (OBS: dl_cushion =    50.00 A)

## Normalization info
 4020.00                                 [l_norm (A) - for base]
 4010.00                                 [llow_norm (A) - window for f_obs]
 4060.00                                 [lupp_norm (A) - window for f_obs]
5.180796E-18                             [fobs_norm (in input units)]

## S/N
 3691.00                                 [llow_SN (A) - window for S/N]
 7268.00                                 [lupp_SN (A) - window for S/N]
   2.805                                 [S/N in S/N window]
   2.714                                 [S/N in norm. window]
   0.006                                 [S/N_err in S/N window]
   0.006                                 [S/N_err in norm. window]
  1.0000                                 [fscale_chi2]

## etc...
    -2007924                             [idum_orig]
  2359                                   [NOl_eff]
  2336                                   [Nl_eff]
    23    NSIGMA                         [Ntot_cliped & clip_method]
  1200220                                [Nglobal_steps]
   7                                     [N_chains]
  38                                     [NEX0s_base = N_base in EX0s-fits]
 0   0   1       23   2.0   1.052E+03    [Clip-Bug, RC-Crash & Burn-In warning-flags, n_censored_weights, wei_nsig_threshold & wei_limit]
    24     24.034     23.522      0.512  [idt_all, wdt_TotTime, wdt_UsrTime & wdt_SysTime (sec)]

## Synthesis Results - Best model ##

 1.55781E-05                             [chi2/Nl_eff]
    68.28378                             [adev (%)]

   111.41238                             [sum-of-x (%)]
 9.03179E-17                             [Flux_tot (units of input spectrum!)]
 1.63929E-13                             [Mini_tot (???)]
 8.83445E-14                             [Mcor_tot (???)]

  60.72                                  [v0_min  (km/s)]
  10.05                                  [vd_min  (km/s)]
 2.0477                                  [AV_min  (mag)]
 0.0000                                  [YAV_min (mag)]

# j     x_j(%)      Mini_j(%)     Mcor_j(%)     age_j(yr)     Z_j      (L/M)_j    YAV?  Mstars   component_j        a/Fe...       SSP_chi2r SSP_adev(%)   SSP_AV   SSP_x(%)
  1      6.0194     2.7210E-01    5.0489E-01    1.000000E+06  0.00400  1.094E-02    0   1.0000   age020_m42            0.0000     1.5166E-05    63.5380   2.8566   101.5033
  2      0.0000     0.0000E+00    0.0000E+00    3.160000E+06  0.00400  4.007E-02    0   0.9999   age045_m42            0.0000     1.6234E-05    62.8860   2.1450   107.2608
  3      0.0000     0.0000E+00    0.0000E+00    5.010000E+06  0.00400  2.539E-02    0   0.9488   age055_m42            0.0000     1.5797E-05    63.9082   2.4597   105.1060
  4      0.0000     0.0000E+00    0.0000E+00    6.610000E+06  0.00400  2.620E-02    0   0.9220   age061_m42            0.0000     1.6498E-05    63.3822   2.0806   107.0113
  5      0.0000     0.0000E+00    0.0000E+00    1.000000E+07  0.00400  1.322E-02    0   0.8862   age070_m42            0.0000     1.6474E-05    65.2990   1.8129   108.3261
  6      0.0011     7.1173E-05    1.1319E-04    1.445000E+07  0.00400  7.883E-03    0   0.8571   age078_m42            0.0000     1.6114E-05    65.3710   2.1308   106.2039
  7      6.7839     6.3889E-01    9.6902E-01    2.512000E+07  0.00400  5.251E-03    0   0.8174   age090_m42            0.0000     1.6561E-05    65.6438   1.6882   108.6467
  8      0.0000     0.0000E+00    0.0000E+00    4.000000E+07  0.00400  3.649E-03    0   0.7851   age104_m42            0.0000     1.6733E-05    65.0962   1.4620   109.4815
  9      0.0000     0.0000E+00    0.0000E+00    5.500000E+07  0.00400  3.098E-03    0   0.7629   age110_m42            0.0000     1.7019E-05    64.0668   1.6119   109.6416
 10      0.0000     0.0000E+00    0.0000E+00    1.015200E+08  0.00400  2.228E-03    0   0.7207   age116_m42            0.0000     1.7383E-05    63.3460   1.6407   109.4891
 11      0.0000     0.0000E+00    0.0000E+00    2.861200E+08  0.00400  1.093E-03    0   0.6648   age125_m42            0.0000     1.7889E-05    63.6945   1.0840   111.5209
 12      0.0000     0.0000E+00    0.0000E+00    5.088000E+08  0.00400  6.597E-04    0   0.6365   age130_m42            0.0000     1.8216E-05    62.5434   1.0770   112.4452
 13      0.0000     0.0000E+00    0.0000E+00    1.434000E+09  0.00400  2.132E-04    0   0.5798   age139_m42            0.0000     1.8113E-05    60.4176   0.0992   115.0785
 14      0.0166     1.3918E-01    1.3887E-01    4.250000E+09  0.00400  5.895E-05    0   0.5377   age158_m42            0.0000     1.7272E-05    59.7121  -0.3724   112.4537
 15      0.0000     0.0000E+00    0.0000E+00    7.500000E+09  0.00400  3.510E-05    0   0.5212   age171_m42            0.0000     1.7260E-05    59.2778  -0.5725   112.1452
 16      1.8158     4.4786E+01    4.1834E+01    1.300000E+10  0.00400  2.005E-05    0   0.5034   age193_m42            0.0000     1.7310E-05    58.5123  -0.7426   111.7076
 17      0.0000     0.0000E+00    0.0000E+00    1.800000E+10  0.00400  1.525E-05    0   0.4967   age213_m42            0.0000     1.7229E-05    58.6679  -0.7656   111.2615
 18      0.0000     0.0000E+00    0.0000E+00    1.000000E+06  0.00800  1.238E-02    0   1.0000   age020_m52            0.0000     1.5142E-05    63.5984   2.8507   101.7810
 19      0.0000     0.0000E+00    0.0000E+00    3.160000E+06  0.00800  3.074E-02    0   0.9966   age045_m52            0.0000     1.5188E-05    63.7439   2.7717   102.7864
 20      0.0000     0.0000E+00    0.0000E+00    5.010000E+06  0.00800  2.668E-02    0   0.9443   age055_m52            0.0000     1.5636E-05    63.9973   2.5396   104.3907
 21      0.0000     0.0000E+00    0.0000E+00    6.610000E+06  0.00800  2.136E-02    0   0.9177   age061_m52            0.0000     1.6023E-05    64.8261   1.3045   110.1988
 22      0.0000     0.0000E+00    0.0000E+00    1.000000E+07  0.00800  1.215E-02    0   0.8827   age070_m52            0.0000     1.6249E-05    65.9975   1.9897   108.1550
 23      0.0000     0.0000E+00    0.0000E+00    1.445000E+07  0.00800  8.717E-03    0   0.8552   age078_m52            0.0000     1.6185E-05    65.4406   2.0938   107.6722
 24      0.0000     0.0000E+00    0.0000E+00    2.512000E+07  0.00800  5.592E-03    0   0.8162   age090_m52            0.0000     1.6615E-05    65.7761   1.7508   109.8916
 25      0.0000     0.0000E+00    0.0000E+00    4.000000E+07  0.00800  3.896E-03    0   0.7841   age104_m52            0.0000     1.6873E-05    65.3117   1.6608   110.6819
 26      0.0000     0.0000E+00    0.0000E+00    1.015200E+08  0.00800  2.148E-03    0   0.7226   age116_m52            0.0000     1.7308E-05    64.1568   1.6083   110.1817
 27      0.0000     0.0000E+00    0.0000E+00    2.861200E+08  0.00800  9.925E-04    0   0.6683   age125_m52            0.0000     1.8315E-05    62.3126   1.1405   113.4494
 28      0.0000     0.0000E+00    0.0000E+00    9.047900E+08  0.00800  3.141E-04    0   0.6138   age135_m52            0.0000     1.8382E-05    60.3918   0.3189   119.1632
 29      0.0000     0.0000E+00    0.0000E+00    1.434000E+09  0.00800  1.719E-04    0   0.5853   age139_m52            0.0000     1.7756E-05    60.4887  -0.2791   117.5924
 30      0.0000     0.0000E+00    0.0000E+00    2.500000E+09  0.00800  7.872E-05    0   0.5600   age150_m52            0.0000     1.7581E-05    59.3526  -0.5597   115.4259
 31      4.2298     4.8241E+01    4.8571E+01    4.250000E+09  0.00800  4.336E-05    0   0.5426   age158_m52            0.0000     1.7512E-05    59.3879  -0.5793   114.5320
 32      0.0000     0.0000E+00    0.0000E+00    6.250000E+09  0.00800  3.159E-05    0   0.5319   age166_m52            0.0000     1.7790E-05    58.1994  -0.7821   114.5455
 33      0.0000     0.0000E+00    0.0000E+00    1.300000E+10  0.00800  1.361E-05    0   0.5073   age193_m52            0.0000     1.8324E-05    55.6292  -1.0000   107.1647
 34      0.0000     0.0000E+00    0.0000E+00    1.800000E+10  0.00800  9.886E-06    0   0.4990   age213_m52            0.0000     1.8843E-05    54.3131  -1.0000   103.5701
 35     26.3851     8.4508E-01    1.5681E+00    1.000000E+06  0.02000  1.544E-02    0   1.0000   age020_m62            0.0000     1.5108E-05    63.6257   2.8448   102.0968
 36     49.9104     6.5608E-01    1.2001E+00    3.160000E+06  0.02000  3.762E-02    0   0.9858   age045_m62            0.0000     1.5081E-05    63.8146   2.7790   103.2639
 37      0.0048     7.1416E-05    1.2380E-04    5.010000E+06  0.02000  3.296E-02    0   0.9342   age055_m62            0.0000     1.6080E-05    63.3861   2.4177   106.3805
 38      0.0000     0.0000E+00    0.0000E+00    8.710000E+06  0.02000  1.154E-02    0   0.8861   age067_m62            0.0000     1.6107E-05    69.8457   1.4575   109.7138
 39      0.0000     0.0000E+00    0.0000E+00    1.445000E+07  0.02000  7.663E-03    0   0.8472   age078_m62            0.0000     1.6186E-05    67.2855   1.6334   110.3244
 40      0.0000     0.0000E+00    0.0000E+00    2.512000E+07  0.02000  4.532E-03    0   0.8099   age090_m62            0.0000     1.6450E-05    67.7182   1.6311   109.5479
 41      0.0000     0.0000E+00    0.0000E+00    5.500000E+07  0.02000  2.733E-03    0   0.7595   age110_m62            0.0000     1.6874E-05    65.2928   1.6467   109.7794
 42      0.5860     2.1168E-01    2.7437E-01    1.609000E+08  0.02000  1.369E-03    0   0.6985   age120_m62            0.0000     1.7929E-05    63.1182   1.5050   111.7834
 43      0.0000     0.0000E+00    0.0000E+00    2.861200E+08  0.02000  9.013E-04    0   0.6714   age125_m62            0.0000     1.8599E-05    61.7077   1.2666   114.3768
 44      0.9554     9.3969E-01    1.1245E+00    5.088000E+08  0.02000  5.028E-04    0   0.6449   age130_m62            0.0000     1.8758E-05    59.6816   0.8692   118.3741
 45      0.0000     0.0000E+00    0.0000E+00    9.047900E+08  0.02000  2.428E-04    0   0.6179   age135_m62            0.0000     1.8096E-05    59.8376   0.2532   119.1429
 46      0.7222     2.8279E+00    3.1001E+00    1.434000E+09  0.02000  1.263E-04    0   0.5908   age139_m62            0.0000     1.7698E-05    59.7519  -0.2078   118.2223
 47      0.0000     0.0000E+00    0.0000E+00    2.500000E+09  0.02000  5.985E-05    0   0.5673   age150_m62            0.0000     1.7675E-05    58.8005  -0.5891   117.3983
 48      0.0000     0.0000E+00    0.0000E+00    4.250000E+09  0.02000  3.271E-05    0   0.5468   age158_m62            0.0000     1.8143E-05    56.6882  -0.8940   116.3628
 49      0.0000     0.0000E+00    0.0000E+00    1.000000E+10  0.02000  1.360E-05    0   0.5167   age181_m62            0.0000     1.8961E-05    53.6072  -1.0000   109.2038
 50      0.0000     0.0000E+00    0.0000E+00    1.800000E+10  0.02000  7.124E-06    0   0.5013   age213_m62            0.0000     1.9778E-05    52.0460  -1.0000   102.2196
 51      0.0000     0.0000E+00    0.0000E+00    1.000000E+06  0.05000  2.592E-02    0   0.9998   age020_m72            0.0000     1.5003E-05    63.7867   2.8375   102.1620
 52      0.0000     0.0000E+00    0.0000E+00    3.160000E+06  0.05000  4.845E-02    0   0.9577   age045_m72            0.0000     1.5460E-05    63.7299   2.6675   104.2865
 53      8.3199     1.3393E-01    2.2732E-01    5.010000E+06  0.05000  3.072E-02    0   0.9147   age055_m72            0.0000     1.5817E-05    66.4226   2.1915   107.4261
 54      0.0000     0.0000E+00    0.0000E+00    6.610000E+06  0.05000  1.455E-02    0   0.8877   age061_m72            0.0000     1.6448E-05    72.9083   1.4685   110.2670
 55      5.6618     3.0856E-01    4.8805E-01    1.000000E+07  0.05000  9.074E-03    0   0.8524   age070_m72            0.0000     1.5961E-05    67.2517   2.3451   107.3907
 56      0.0000     0.0000E+00    0.0000E+00    2.512000E+07  0.05000  4.250E-03    0   0.7902   age090_m72            0.0000     1.6578E-05    66.7186   2.0828   108.1390
 57      0.0000     0.0000E+00    0.0000E+00    4.000000E+07  0.05000  3.087E-03    0   0.7618   age104_m72            0.0000     1.6972E-05    66.6925   1.8668   109.2135
 58      0.0000     0.0000E+00    0.0000E+00    1.015200E+08  0.05000  1.700E-03    0   0.7096   age116_m72            0.0000     1.7827E-05    64.0639   1.6467   111.1593
 59      0.0000     0.0000E+00    0.0000E+00    2.861200E+08  0.05000  7.384E-04    0   0.6633   age125_m72            0.0000     1.8747E-05    60.4460   1.1264   116.3316
 60      0.0000     0.0000E+00    0.0000E+00    5.088000E+08  0.05000  3.819E-04    0   0.6372   age130_m72            0.0000     1.8372E-05    59.2559   0.6061   119.8224
 61      0.0000     0.0000E+00    0.0000E+00    9.047900E+08  0.05000  1.676E-04    0   0.6110   age135_m72            0.0000     1.7822E-05    58.1516  -0.1313   119.7942
 62      0.0000     0.0000E+00    0.0000E+00    1.434000E+09  0.05000  8.837E-05    0   0.5874   age139_m72            0.0000     1.7828E-05    58.1174  -0.5960   119.2855
 63      0.0000     0.0000E+00    0.0000E+00    2.500000E+09  0.05000  4.233E-05    0   0.5598   age150_m72            0.0000     1.8271E-05    56.4322  -0.9079   117.8803
 64      0.0000     0.0000E+00    0.0000E+00    6.250000E+09  0.05000  1.435E-05    0   0.5249   age166_m72            0.0000     1.9158E-05    53.0696  -1.0000   106.1132
 65      0.0000     0.0000E+00    0.0000E+00    1.300000E+10  0.05000  6.513E-06    0   0.5036   age193_m72            0.0000     2.0430E-05    51.3541  -1.0000    98.4617
 66      0.0000     7.1219E-12    6.5349E-12    1.800000E+10  0.05000  4.527E-06    0   0.4945   age213_m72            0.0000     2.1258E-05    50.8548  -1.0000    93.1802


## Synthesis Results - Average & Chains ##

# j      x_j: min, <> & last-chain-values for 1 ...  7 chains
  1      6.0194      1.4237      3.4445      0.3888      0.8749      0.6467      0.5995      0.2958      0.0000
  2      0.0000      1.0363      0.0000      1.5817      0.4695      1.0874      0.3369      0.5762      0.0000
  3      0.0000      1.3613      2.2577      0.8827      0.7358      0.0000      0.5021      0.3600      1.7745
  4      0.0000      1.4022      1.2052      0.9636      3.6411      0.0000      0.0000      0.0000      0.1778
  5      0.0000      1.5897      0.2543      0.0000      0.4079      0.0000      1.2811      0.5168      1.4609
  6      0.0011      1.1611      0.0000      1.2681      0.0000      0.5513      1.2796      0.5828      0.8612
  7      6.7839      1.9524      1.2620      0.4243      0.7785      1.6156      2.0706      2.3113      1.1950
  8      0.0000      1.5497      0.0000      1.4662      0.0000      0.5949      0.4965      0.0000      0.0000
  9      0.0000      1.5150      0.1195      1.0585      0.0000      2.1737      2.1144      0.8430      0.0000
 10      0.0000      1.4100      2.2611      0.5365      0.3848      2.2263      0.4738      0.9574      0.0000
 11      0.0000      1.6825      0.0000      0.4315      2.6491      0.0000      0.7773      0.0000      1.0889
 12      0.0000      3.3372      6.5161      9.2622      6.9355      2.7864      8.2377      6.4133      6.9217
 13      0.0000      1.6611      1.9590      0.1931      0.0000      0.3804      0.6154      0.4098      1.0352
 14      0.0166      1.1523      0.0000      0.7819      0.0000      0.6507      0.0891      0.0000      3.5753
 15      0.0000      1.6116      1.4245      0.3257      4.4312      0.0000      2.3034      0.0000      0.0000
 16      1.8158      1.0312      0.5181      0.4087      0.7243      1.1557      2.9907      1.1336      1.3670
 17      0.0000      1.0956      0.0000      0.8889      0.1091      0.0000      0.5608      0.5004      0.9064
 18      0.0000      1.2335      1.2883      0.0000      2.0364      1.1113      0.0000      1.6445      0.0000
 19      0.0000      2.1182      2.0046      0.5457      0.0168      8.0851      0.4043      1.4078      3.2129
 20      0.0000      1.0670      0.0000      3.1911      0.0000      1.2430      1.7059      0.0793      0.0000
 21      0.0000      1.4198      1.1396      0.1541      0.4844      1.7987      2.7183      0.0000      0.8289
 22      0.0000      1.4989      0.0000      1.7370      0.8989      0.0000      0.0000      1.0213      0.3902
 23      0.0000      1.2667      2.4663      0.7308      1.4865      0.7736      0.0000      1.0556      0.2735
 24      0.0000      1.3691      1.3415      0.6683      0.9698      0.6092      0.4171      3.9881      0.9519
 25      0.0000      1.0192      0.0172      0.0000      0.0000      0.0000      2.5691      0.6922      0.0000
 26      0.0000      1.5869      0.4582      0.0643      0.0000      0.0000      1.1724      0.2979      0.9984
 27      0.0000      1.6730      1.3613      0.0000      0.0000      1.6989      2.4029      0.0000      0.0000
 28      0.0000      0.9697      1.7315      0.3299      0.0348      0.0000      1.4042      0.0000      0.0174
 29      0.0000      1.9473      1.4673      0.4533      1.1215      0.0000      0.0000      3.3051      0.0789
 30      0.0000      1.6645      0.1117      1.4249      0.1496      0.0000      0.9427      0.0000      2.6465
 31      4.2298      1.2364      0.0000      1.4491      2.9171      2.3558      0.8764      1.2245      0.0000
 32      0.0000      1.4663      0.0000      0.7123      0.0000      0.0000      0.0000      2.3105      0.2306
 33      0.0000      1.0159      0.5282      0.0000      2.2978      0.6081      0.0000      0.0000      0.7815
 34      0.0000      1.3253      5.0600      0.0920      0.0000      0.2339      0.0000      0.0000      0.2573
 35     26.3851      1.2310      0.0000      0.0000      0.1806      0.7911      1.1208      0.0000      0.0000
 36     49.9104      2.2075      2.8683      5.7143      3.7196      5.5188      4.8040      3.1683      4.9713
 37      0.0048      1.1719      0.0000      0.0000      2.5436      1.1465      0.0000      2.2743      0.0000
 38      0.0000      1.5473      3.0056      3.6829      2.4992      1.9973      2.7406      4.7973      2.8555
 39      0.0000      1.4228      1.0752      0.0000      0.4629      5.0993      0.1989      0.0000      1.3113
 40      0.0000      1.2245      0.0000      1.5274      1.3414      1.9843      2.1705      4.4234      0.0000
 41      0.0000      1.8346      1.8050      1.4656      0.8356      0.0000      0.2592      2.0663      1.7173
 42      0.5860      1.4705      0.0412      0.8695      0.0000      2.3766      0.6519      0.8340      0.0000
 43      0.0000      1.0241      1.7629      0.0000      0.5276      0.0000      0.0030      0.2922      0.0000
 44      0.9554      1.1677      0.0000      1.8859      0.5847      0.8729      0.0000      0.6674      3.0150
 45      0.0000      1.7100      1.6698      0.6350      0.0468      0.1849      0.4128      0.6382      0.0000
 46      0.7222      1.3904      0.0000      0.0000      1.3086      0.7117      0.8809      0.0000      0.0000
