###################################################################
## OUTPUT of StarlightChains_v04.for    [Cid@UFSC - 01/Apr/2007] ##
###################################################################

## Some input info
KUG0210-078._39_45.txt                   [arq_obs]
Base.CB07.vall.4m                        [arq_base]
Masks.EmLines.NEW.gm                     [arq_masks]
StCv04.C11.config                        [arq_config]
   66                                    [N_base]
    0                                    [N_YAV_components = # of components with extra extinction!]
    0                                    [i_FitPowerLaw (1/0 = Yes/No)]
-9.99                                    [alpha_PowerLaw]
CCM                                      [red_law_option]
 1.458241                                [q_norm = A(l_norm)/A(V)]

## (Re)Sampling Parameters
 3741.00                                 [l_ini (A)]
 7218.00                                 [l_fin (A)]
    1.00                                 [dl    (A)]     (OBS: dl_cushion =    50.00 A)

## Normalization info
 4020.00                                 [l_norm (A) - for base]
 4010.00                                 [llow_norm (A) - window for f_obs]
 4060.00                                 [lupp_norm (A) - window for f_obs]
4.566985E-18                             [fobs_norm (in input units)]

## S/N
 3691.00                                 [llow_SN (A) - window for S/N]
 7268.00                                 [lupp_SN (A) - window for S/N]
   3.831                                 [S/N in S/N window]
   1.603                                 [S/N in norm. window]
   0.014                                 [S/N_err in S/N window]
   0.006                                 [S/N_err in norm. window]
  1.0000                                 [fscale_chi2]

## etc...
    -2007701                             [idum_orig]
  2324                                   [NOl_eff]
  2312                                   [Nl_eff]
    12    NSIGMA                         [Ntot_cliped & clip_method]
  1128120                                [Nglobal_steps]
   7                                     [N_chains]
  40                                     [NEX0s_base = N_base in EX0s-fits]
 0   0   1       12   2.0   6.678E+02    [Clip-Bug, RC-Crash & Burn-In warning-flags, n_censored_weights, wei_nsig_threshold & wei_limit]
    41     40.460     39.657      0.802  [idt_all, wdt_TotTime, wdt_UsrTime & wdt_SysTime (sec)]

## Synthesis Results - Best model ##

 1.34461E-05                             [chi2/Nl_eff]
    32.51728                             [adev (%)]

   130.00000                             [sum-of-x (%)]
 1.60169E-17                             [Flux_tot (units of input spectrum!)]
 1.09881E-12                             [Mini_tot (???)]
 5.60380E-13                             [Mcor_tot (???)]

 -37.38                                  [v0_min  (km/s)]
 263.19                                  [vd_min  (km/s)]
 0.7389                                  [AV_min  (mag)]
 0.0000                                  [YAV_min (mag)]

# j     x_j(%)      Mini_j(%)     Mcor_j(%)     age_j(yr)     Z_j      (L/M)_j    YAV?  Mstars   component_j        a/Fe...       SSP_chi2r SSP_adev(%)   SSP_AV   SSP_x(%)
  1      0.0000     0.0000E+00    0.0000E+00    1.000000E+06  0.00400  1.094E-02    0   1.0000   age020_m42            0.0000     1.2843E-05    56.5854   3.9689   155.8022
  2      0.0000     0.0000E+00    0.0000E+00    3.160000E+06  0.00400  4.007E-02    0   0.9999   age045_m42            0.0000     1.2513E-05    54.6089   3.2572   165.3512
  3      0.0000     0.0000E+00    0.0000E+00    5.010000E+06  0.00400  2.539E-02    0   0.9488   age055_m42            0.0000     1.2697E-05    56.1978   3.5706   161.8264
  4      0.0000     0.0000E+00    0.0000E+00    6.610000E+06  0.00400  2.620E-02    0   0.9220   age061_m42            0.0000     1.2639E-05    55.3497   3.1829   165.7114
  5      0.0000     0.0000E+00    0.0000E+00    1.000000E+07  0.00400  1.322E-02    0   0.8862   age070_m42            0.0000     1.3810E-05    58.3582   2.8973   169.3197
  6      0.0000     0.0000E+00    0.0000E+00    1.445000E+07  0.00400  7.883E-03    0   0.8571   age078_m42            0.0000     1.3713E-05    58.6236   3.2203   165.3863
  7      0.0000     0.0000E+00    0.0000E+00    2.512000E+07  0.00400  5.251E-03    0   0.8174   age090_m42            0.0000     1.4046E-05    58.7017   2.7694   170.1104
  8      2.9339     9.0154E-03    1.3879E-02    4.000000E+07  0.00400  3.649E-03    0   0.7851   age104_m42            0.0000     1.3828E-05    57.5516   2.5447   171.3533
  9      0.0000     0.0000E+00    0.0000E+00    5.500000E+07  0.00400  3.098E-03    0   0.7629   age110_m42            0.0000     1.3254E-05    56.4765   2.7014   171.1847
 10      0.6083     3.0612E-03    4.3260E-03    1.015200E+08  0.00400  2.228E-03    0   0.7207   age116_m42            0.0000     1.2922E-05    55.7382   2.7237   171.3609
 11      0.0000     0.0000E+00    0.0000E+00    2.861200E+08  0.00400  1.093E-03    0   0.6648   age125_m42            0.0000     1.3419E-05    55.2489   2.1523   176.1816
 12      0.0000     0.0000E+00    0.0000E+00    5.088000E+08  0.00400  6.597E-04    0   0.6365   age130_m42            0.0000     1.2718E-05    53.1081   2.1464   177.5063
 13      0.0000     0.0000E+00    0.0000E+00    1.434000E+09  0.00400  2.132E-04    0   0.5798   age139_m42            0.0000     1.1905E-05    47.6760   1.1885   180.3228
 14      9.5238     1.8115E+00    1.9099E+00    4.250000E+09  0.00400  5.895E-05    0   0.5377   age158_m42            0.0000     1.0830E-05    40.7529   0.7495   173.5461
 15      0.0000     0.0000E+00    0.0000E+00    7.500000E+09  0.00400  3.510E-05    0   0.5212   age171_m42            0.0000     1.0460E-05    38.5942   0.5623   172.3639
 16      8.0749     4.5158E+00    4.4575E+00    1.300000E+10  0.00400  2.005E-05    0   0.5034   age193_m42            0.0000     1.0214E-05    37.0310   0.3970   171.4270
 17      0.0000     0.0000E+00    0.0000E+00    1.800000E+10  0.00400  1.525E-05    0   0.4967   age213_m42            0.0000     1.0271E-05    37.2900   0.3733   170.7270
 18      0.0000     0.0000E+00    0.0000E+00    1.000000E+06  0.00800  1.238E-02    0   1.0000   age020_m52            0.0000     1.2818E-05    56.5287   3.9653   156.1253
 19      0.0000     0.0000E+00    0.0000E+00    3.160000E+06  0.00800  3.074E-02    0   0.9966   age045_m52            0.0000     1.2725E-05    56.4411   3.8876   157.5945
 20      0.0000     0.0000E+00    0.0000E+00    5.010000E+06  0.00800  2.668E-02    0   0.9443   age055_m52            0.0000     1.2730E-05    56.3710   3.6499   160.6330
 21      0.0000     0.0000E+00    0.0000E+00    6.610000E+06  0.00800  2.136E-02    0   0.9177   age061_m52            0.0000     1.3354E-05    55.1865   2.4013   171.1853
 22      0.0000     0.0000E+00    0.0000E+00    1.000000E+07  0.00800  1.215E-02    0   0.8827   age070_m52            0.0000     1.4185E-05    59.2820   3.0700   169.3252
 23      0.0000     0.0000E+00    0.0000E+00    1.445000E+07  0.00800  8.717E-03    0   0.8552   age078_m52            0.0000     1.3700E-05    58.3901   3.1858   167.6754
 24      0.0000     0.0000E+00    0.0000E+00    2.512000E+07  0.00800  5.592E-03    0   0.8162   age090_m52            0.0000     1.4082E-05    58.5560   2.8315   172.1988
 25      0.0000     0.0000E+00    0.0000E+00    4.000000E+07  0.00800  3.896E-03    0   0.7841   age104_m52            0.0000     1.3750E-05    57.3307   2.7443   173.4387
 26      0.0000     0.0000E+00    0.0000E+00    1.015200E+08  0.00800  2.148E-03    0   0.7226   age116_m52            0.0000     1.3130E-05    55.0897   2.6895   172.7534
 27      0.0000     0.0000E+00    0.0000E+00    2.861200E+08  0.00800  9.925E-04    0   0.6683   age125_m52            0.0000     1.2726E-05    52.7607   2.2121   179.1009
 28      0.0000     0.0000E+00    0.0000E+00    9.047900E+08  0.00800  3.141E-04    0   0.6138   age135_m52            0.0000     1.1365E-05    43.3066   1.4183   186.3546
 29      0.0000     0.0000E+00    0.0000E+00    1.434000E+09  0.00800  1.719E-04    0   0.5853   age139_m52            0.0000     1.1131E-05    42.2043   0.8395   182.4555
 30      0.0000     0.0000E+00    0.0000E+00    2.500000E+09  0.00800  7.872E-05    0   0.5600   age150_m52            0.0000     1.0137E-05    38.4500   0.5773   177.5357
 31      0.0000     0.0000E+00    0.0000E+00    4.250000E+09  0.00800  4.336E-05    0   0.5426   age158_m52            0.0000     1.0058E-05    37.4069   0.5626   175.8659
 32     10.9842     3.8988E+00    4.0663E+00    6.250000E+09  0.00800  3.159E-05    0   0.5319   age166_m52            0.0000     9.6344E-06    35.5483   0.3644   175.6483
 33     30.2203     2.4897E+01    2.4766E+01    1.300000E+10  0.00800  1.361E-05    0   0.5073   age193_m52            0.0000     9.1350E-06    33.6188  -0.1009   174.4333
 34      2.6096     2.9598E+00    2.8960E+00    1.800000E+10  0.00800  9.886E-06    0   0.4990   age213_m52            0.0000     8.7544E-06    32.2271  -0.2086   173.6341
 35      0.0000     0.0000E+00    0.0000E+00    1.000000E+06  0.02000  1.544E-02    0   1.0000   age020_m62            0.0000     1.2819E-05    56.5531   3.9593   156.6161
 36      0.0000     0.0000E+00    0.0000E+00    3.160000E+06  0.02000  3.762E-02    0   0.9858   age045_m62            0.0000     1.2751E-05    56.6103   3.8972   158.0956
 37      1.8370     6.2494E-04    1.1448E-03    5.010000E+06  0.02000  3.296E-02    0   0.9342   age055_m62            0.0000     1.2508E-05    55.6280   3.5322   163.7231
 38      0.0000     0.0000E+00    0.0000E+00    8.710000E+06  0.02000  1.154E-02    0   0.8861   age067_m62            0.0000     1.7334E-05    65.2600   2.5026   174.9021
 39      0.0000     0.0000E+00    0.0000E+00    1.445000E+07  0.02000  7.663E-03    0   0.8472   age078_m62            0.0000     1.5017E-05    60.1882   2.7096   173.3876
 40      0.1551     3.8367E-04    6.0930E-04    2.512000E+07  0.02000  4.532E-03    0   0.8099   age090_m62            0.0000     1.5271E-05    61.1451   2.7022   172.7570
 41      0.0000     0.0000E+00    0.0000E+00    5.500000E+07  0.02000  2.733E-03    0   0.7595   age110_m62            0.0000     1.3746E-05    57.7848   2.7288   172.1002
 42      4.2982     3.5205E-02    4.8218E-02    1.609000E+08  0.02000  1.369E-03    0   0.6985   age120_m62            0.0000     1.3045E-05    55.4142   2.5743   176.3349
 43      0.0000     0.0000E+00    0.0000E+00    2.861200E+08  0.02000  9.013E-04    0   0.6714   age125_m62            0.0000     1.2634E-05    53.0424   2.3290   181.0941
 44      0.0000     0.0000E+00    0.0000E+00    5.088000E+08  0.02000  5.028E-04    0   0.6449   age130_m62            0.0000     1.1528E-05    46.6761   1.9549   185.8065
 45      0.0000     0.0000E+00    0.0000E+00    9.047900E+08  0.02000  2.428E-04    0   0.6179   age135_m62            0.0000     1.0590E-05    40.8734   1.3680   184.8645
 46      0.0000     0.0000E+00    0.0000E+00    1.434000E+09  0.02000  1.263E-04    0   0.5908   age139_m62            0.0000     1.0175E-05    38.3507   0.9271   182.0454
 47      8.9082     1.6689E+00    1.8565E+00    2.500000E+09  0.02000  5.985E-05    0   0.5673   age150_m62            0.0000     9.5113E-06    35.8426   0.5637   179.5479
 48      0.3325     1.1397E-01    1.2220E-01    4.250000E+09  0.02000  3.271E-05    0   0.5468   age158_m62            0.0000     8.9376E-06    33.9462   0.2622   177.9056
 49      2.0260     1.6704E+00    1.6924E+00    1.000000E+10  0.02000  1.360E-05    0   0.5167   age181_m62            0.0000     8.3367E-06    31.5317  -0.0871   177.3501
 50     26.8859     4.2317E+01    4.1596E+01    1.800000E+10  0.02000  7.124E-06    0   0.5013   age213_m62            0.0000     7.9306E-06    30.3086  -0.2983   176.1359
 51      0.0000     0.0000E+00    0.0000E+00    1.000000E+06  0.05000  2.592E-02    0   0.9998   age020_m72            0.0000     1.2868E-05    56.5149   3.9503   156.7355
 52      0.0000     0.0000E+00    0.0000E+00    3.160000E+06  0.05000  4.845E-02    0   0.9577   age045_m72            0.0000     1.2572E-05    56.1709   3.7857   159.8029
 53      0.0000     0.0000E+00    0.0000E+00    5.010000E+06  0.05000  3.072E-02    0   0.9147   age055_m72            0.0000     1.4144E-05    59.2353   3.2860   167.4221
 54      0.0000     0.0000E+00    0.0000E+00    6.610000E+06  0.05000  1.455E-02    0   0.8877   age061_m72            0.0000     1.9856E-05    68.7816   2.5145   177.3760
 55      0.0000     0.0000E+00    0.0000E+00    1.000000E+07  0.05000  9.074E-03    0   0.8524   age070_m72            0.0000     1.4656E-05    60.2376   3.4487   167.5136
 56      0.0000     0.0000E+00    0.0000E+00    2.512000E+07  0.05000  4.250E-03    0   0.7902   age090_m72            0.0000     1.4419E-05    59.6353   3.1687   169.6957
 57      0.0000     0.0000E+00    0.0000E+00    4.000000E+07  0.05000  3.087E-03    0   0.7618   age104_m72            0.0000     1.4683E-05    59.8941   2.9439   172.2425
 58      0.0000     0.0000E+00    0.0000E+00    1.015200E+08  0.05000  1.700E-03    0   0.7096   age116_m72            0.0000     1.3572E-05    56.6586   2.7110   175.8107
 59      0.0000     0.0000E+00    0.0000E+00    2.861200E+08  0.05000  7.384E-04    0   0.6633   age125_m72            0.0000     1.1964E-05    49.8777   2.1966   183.7145
 60      0.0000     0.0000E+00    0.0000E+00    5.088000E+08  0.05000  3.819E-04    0   0.6372   age130_m72            0.0000     1.0740E-05    43.4996   1.7074   186.8094
 61      0.0000     0.0000E+00    0.0000E+00    9.047900E+08  0.05000  1.676E-04    0   0.6110   age135_m72            0.0000     9.4460E-06    36.8813   1.0177   183.4146
 62      0.0000     0.0000E+00    0.0000E+00    1.434000E+09  0.05000  8.837E-05    0   0.5874   age139_m72            0.0000     9.3272E-06    35.0524   0.5593   182.4846
 63      0.0000     0.0000E+00    0.0000E+00    2.500000E+09  0.05000  4.233E-05    0   0.5598   age150_m72            0.0000     8.6920E-06    33.0978   0.2580   179.7741
 64     20.6022     1.6098E+01    1.6569E+01    6.250000E+09  0.05000  1.435E-05    0   0.5249   age166_m72            0.0000     8.1756E-06    31.9769  -0.1848   176.7633
 65      0.0000     0.0000E+00    0.0000E+00    1.300000E+10  0.05000  6.513E-06    0   0.5036   age193_m72            0.0000     7.7860E-06    30.2437  -0.4683   178.7367
 66      0.0000     0.0000E+00    0.0000E+00    1.800000E+10  0.05000  4.527E-06    0   0.4945   age213_m72            0.0000     7.5828E-06    29.4052  -0.6331   178.6496


## Synthesis Results - Average & Chains ##

# j      x_j: min, <> & last-chain-values for 1 ...  7 chains
  1      0.0000      0.9888      3.8984      0.6681      5.6347      2.7049      2.0638      0.0000      1.5811
  2      0.0000      1.1580      1.5475      3.1004      2.7985      3.4376      2.4945      0.0000      4.0506
  3      0.0000      2.2381      3.8723      2.0566      4.4373      7.3086      0.0000     10.6474      5.7802
  4      0.0000      1.5931      0.9056      0.0000      0.4827      7.3585      0.8252      0.1840      2.0707
  5      0.0000      1.4925      0.3145      9.1270      4.0328      1.8573      4.4062      6.0979      5.5211
  6      0.0000      1.3623      0.0000      0.0000      0.0000      1.6359      2.6615      0.5682      0.5339
  7      0.0000      1.4929      0.0000      2.9446      0.1431      1.0373      0.0000      6.8468      0.9199
  8      2.9339      1.5684      2.2966      2.3698      4.3968      0.5734      0.0000      0.0000      4.1198
  9      0.0000      1.5381      2.5267      6.3833      0.0014      3.3586      0.0000      0.0000      1.4402
 10      0.6083      0.9617      0.0479      2.4623      0.0000      0.2101      0.2018      1.1829      0.2596
 11      0.0000      1.0764      3.5219      0.0000      0.0000      0.6277      0.0000      0.3776      0.3956
 12      0.0000      1.5692      2.3090      0.0000      4.8161      0.2138      2.2420      1.2885      1.0503
 13      0.0000      1.4197      6.0756      4.0900      0.0000      5.4403      0.4766      0.0000      0.0000
 14      9.5238      1.6407      0.8287      1.5957      0.3510      0.0000      0.0000      1.3492      0.4479
 15      0.0000      1.7989      3.2155      0.0000      2.6693      5.8264      0.6350      0.0000      2.2660
 16      8.0749      1.9797      3.3390      4.0758      1.7357      5.0069      1.1339      1.3652      0.0677
 17      0.0000      1.4861      0.8731      0.2974      1.2481      0.0000      0.4981      0.6081      3.7583
 18      0.0000      1.6268      5.3079      7.6265      4.5904      0.0000      0.1170      0.0000      1.4177
 19      0.0000      1.4239      3.3490      1.5300      0.0000      0.5888      8.4614      1.9801      1.2175
 20      0.0000      1.5664      6.4287      6.5790      0.0000      0.0000      0.1636      2.9323      0.7551
 21      0.0000      1.5260      6.9987      1.1355      0.0000      3.5155      0.2652      3.8084      0.6259
 22      0.0000      1.3631      4.4783      0.0000      0.0000      6.9187      0.0000      0.8745      2.2183
 23      0.0000      1.5549      1.4943      1.2456      2.1877      4.0128      8.8862      4.6962      0.4763
 24      0.0000      1.0662      1.1048      0.0000      0.1870      1.9895      1.0368      0.8839      1.6801
 25      0.0000      1.2598      1.8886      0.0000      0.7378      2.0884      4.8647      1.8982      0.4158
 26      0.0000      1.5125      0.4133      0.0000      2.4476      0.0000      3.9298      1.5446      0.0000
 27      0.0000      1.4490      1.7051      2.4581      0.0000      1.1810      1.0269      0.0000      0.6560
 28      0.0000      1.3530      2.7866      0.8904      1.6257      4.1491      0.3062      0.2287      1.8076
 29      0.0000      1.3670      1.7627      1.0579      0.0000      0.0000      1.1233      1.0875      0.0000
 30      0.0000      1.1745      0.8029      0.0000      1.2325      1.6016      1.1609      1.9442      0.8377
 31      0.0000      1.0587      1.7233      0.0534      0.0000      0.0000      2.1339      4.2652      2.6183
 32     10.9842      1.2997      0.4784      2.7641      3.0793      4.4482      0.0000      2.4482      0.0000
 33     30.2203      1.4309      0.0584      1.1214      0.0000      0.0000      3.5282      0.0666      1.5026
 34      2.6096      2.0219      0.0000      1.2156      0.0000      2.0043      1.9740      0.3750      3.8048
 35      0.0000      1.8406      0.0000      0.7393      4.2475      1.7063      1.0221      6.9247      4.3744
 36      0.0000      2.4332     10.9431      3.1141      3.6608     10.1585      8.1924     10.3963      6.8928
 37      1.8370      1.5587      3.0416      2.5632      4.9508      0.9190      4.0827      0.7406      0.3152
 38      0.0000      1.3735      0.4427      0.0000      2.2354      0.2786      6.7363      0.0000      0.0000
 39      0.0000      1.3401      5.2685      1.9474      3.8922      0.0000      4.7339      0.0000      0.6868
 40      0.1551      1.5357      0.0000      2.7040      3.7852      1.6795      0.0000      1.4552      0.0000
 41      0.0000      1.6434      0.0000      0.3796      1.5903      0.0000      3.0108      0.0000      0.9636
 42      4.2982      1.0443      0.0000      2.7004      3.3990      0.6809      0.0000      0.3638      1.2829
 43      0.0000      1.3106      0.0000      1.7979      1.9575      0.0000      0.0000      3.0640      4.3014
 44      0.0000      1.0341      0.0000      0.0000      0.0000      0.1446      0.7279      0.0000      4.0064
 45      0.0000      0.7714      0.0000      0.6755      1.9189      0.6544      0.0000      1.3737      2.4729
 46      0.0000      1.3451      0.0000      0.0000      6.5864      0.6281      1.8007      0.0000      4.3608
