###################################################################
## OUTPUT of StarlightChains_v04.for    [Cid@UFSC - 01/Apr/2007] ##
###################################################################

## Some input info
KUG0210-078._31_32.txt                   [arq_obs]
Base.CB07.vall.4m                        [arq_base]
Masks.EmLines.NEW.gm                     [arq_masks]
StCv04.C11.config                        [arq_config]
   66                                    [N_base]
    0                                    [N_YAV_components = # of components with extra extinction!]
    0                                    [i_FitPowerLaw (1/0 = Yes/No)]
-9.99                                    [alpha_PowerLaw]
CCM                                      [red_law_option]
 1.458241                                [q_norm = A(l_norm)/A(V)]

## (Re)Sampling Parameters
 3741.00                                 [l_ini (A)]
 7218.00                                 [l_fin (A)]
    1.00                                 [dl    (A)]     (OBS: dl_cushion =    50.00 A)

## Normalization info
 4020.00                                 [l_norm (A) - for base]
 4010.00                                 [llow_norm (A) - window for f_obs]
 4060.00                                 [lupp_norm (A) - window for f_obs]
9.118129E-17                             [fobs_norm (in input units)]

## S/N
 3691.00                                 [llow_SN (A) - window for S/N]
 7268.00                                 [lupp_SN (A) - window for S/N]
   4.517                                 [S/N in S/N window]
   3.145                                 [S/N in norm. window]
   0.247                                 [S/N_err in S/N window]
   0.172                                 [S/N_err in norm. window]
  1.0000                                 [fscale_chi2]

## etc...
    -2007457                             [idum_orig]
  2432                                   [NOl_eff]
  2043                                   [Nl_eff]
   389    NSIGMA                         [Ntot_cliped & clip_method]
 15121890                                [Nglobal_steps]
   7                                     [N_chains]
   9                                     [NEX0s_base = N_base in EX0s-fits]
 0   0   1      389   2.0   8.017E+04    [Clip-Bug, RC-Crash & Burn-In warning-flags, n_censored_weights, wei_nsig_threshold & wei_limit]
   102    100.691     99.713      0.979  [idt_all, wdt_TotTime, wdt_UsrTime & wdt_SysTime (sec)]

## Synthesis Results - Best model ##

 1.50335E-04                             [chi2/Nl_eff]
     2.82654                             [adev (%)]

   130.00000                             [sum-of-x (%)]
 2.45556E-16                             [Flux_tot (units of input spectrum!)]
 6.68125E-12                             [Mini_tot (???)]
 3.51527E-12                             [Mcor_tot (???)]

 -50.11                                  [v0_min  (km/s)]
 280.70                                  [vd_min  (km/s)]
 0.5423                                  [AV_min  (mag)]
 0.0000                                  [YAV_min (mag)]

# j     x_j(%)      Mini_j(%)     Mcor_j(%)     age_j(yr)     Z_j      (L/M)_j    YAV?  Mstars   component_j        a/Fe...       SSP_chi2r SSP_adev(%)   SSP_AV   SSP_x(%)
  1      0.0000     0.0000E+00    0.0000E+00    1.000000E+06  0.00400  1.094E-02    0   1.0000   age020_m42            0.0000     3.9912E-04     5.9506   3.4176   121.5661
  2      0.0000     0.0000E+00    0.0000E+00    3.160000E+06  0.00400  4.007E-02    0   0.9999   age045_m42            0.0000     3.4183E-04     5.2340   2.7502   126.4344
  3      0.0000     0.0000E+00    0.0000E+00    5.010000E+06  0.00400  2.539E-02    0   0.9488   age055_m42            0.0000     3.5014E-04     5.4348   3.0422   124.9748
  4      0.0000     0.0000E+00    0.0000E+00    6.610000E+06  0.00400  2.620E-02    0   0.9220   age061_m42            0.0000     3.1584E-04     4.9991   2.6726   126.9534
  5      0.0000     0.0000E+00    0.0000E+00    1.000000E+07  0.00400  1.322E-02    0   0.8862   age070_m42            0.0000     2.3966E-04     3.9672   2.3451   132.4576
  6      0.0000     0.0000E+00    0.0000E+00    1.445000E+07  0.00400  7.883E-03    0   0.8571   age078_m42            0.0000     2.6330E-04     4.2994   2.6644   129.5269
  7      0.0000     0.0000E+00    0.0000E+00    2.512000E+07  0.00400  5.251E-03    0   0.8174   age090_m42            0.0000     2.3045E-04     3.7802   2.2144   133.2768
  8      0.0000     0.0000E+00    0.0000E+00    4.000000E+07  0.00400  3.649E-03    0   0.7851   age104_m42            0.0000     2.2340E-04     3.6987   2.0007   133.5494
  9      0.0000     0.0000E+00    0.0000E+00    5.500000E+07  0.00400  3.098E-03    0   0.7629   age110_m42            0.0000     2.4970E-04     4.0143   2.1833   131.7149
 10      0.0000     0.0000E+00    0.0000E+00    1.015200E+08  0.00400  2.228E-03    0   0.7207   age116_m42            0.0000     2.6114E-04     4.1926   2.2203   130.9081
 11      0.0000     0.0000E+00    0.0000E+00    2.861200E+08  0.00400  1.093E-03    0   0.6648   age125_m42            0.0000     2.3449E-04     3.9214   1.6371   135.4294
 12      0.0000     0.0000E+00    0.0000E+00    5.088000E+08  0.00400  6.597E-04    0   0.6365   age130_m42            0.0000     2.3658E-04     3.9390   1.6580   134.6736
 13      0.0000     0.0000E+00    0.0000E+00    1.434000E+09  0.00400  2.132E-04    0   0.5798   age139_m42            0.0000     1.5789E-04     3.0320   0.7212   135.4206
 14      0.0000     0.0000E+00    0.0000E+00    4.250000E+09  0.00400  5.895E-05    0   0.5377   age158_m42            0.0000     1.7449E-04     3.7093   0.2958   129.3881
 15      0.0000     0.0000E+00    0.0000E+00    7.500000E+09  0.00400  3.510E-05    0   0.5212   age171_m42            0.0000     1.8720E-04     3.9736   0.1184   127.8834
 16      0.0000     0.0000E+00    0.0000E+00    1.300000E+10  0.00400  2.005E-05    0   0.5034   age193_m42            0.0000     2.0902E-04     4.3051  -0.0407   126.7993
 17      0.0000     0.0000E+00    0.0000E+00    1.800000E+10  0.00400  1.525E-05    0   0.4967   age213_m42            0.0000     2.0552E-04     4.2603  -0.0674   126.4526
 18     29.3873     6.7110E-02    1.2755E-01    1.000000E+06  0.00800  1.238E-02    0   1.0000   age020_m52            0.0000     3.9825E-04     5.9495   3.4139   121.8000
 19      7.0011     6.4389E-03    1.2196E-02    3.160000E+06  0.00800  3.074E-02    0   0.9966   age045_m52            0.0000     3.9217E-04     5.9019   3.3445   122.5103
 20      0.0000     0.0000E+00    0.0000E+00    5.010000E+06  0.00800  2.668E-02    0   0.9443   age055_m52            0.0000     3.4667E-04     5.4348   3.1160   124.3647
 21      0.0000     0.0000E+00    0.0000E+00    6.610000E+06  0.00800  2.136E-02    0   0.9177   age061_m52            0.0000     1.9995E-04     3.7434   1.8463   134.0451
 22      0.0000     0.0000E+00    0.0000E+00    1.000000E+07  0.00800  1.215E-02    0   0.8827   age070_m52            0.0000     2.3390E-04     3.8563   2.5040   133.3205
 23      0.0000     0.0000E+00    0.0000E+00    1.445000E+07  0.00800  8.717E-03    0   0.8552   age078_m52            0.0000     2.4944E-04     4.0847   2.6342   131.0853
 24      0.0000     0.0000E+00    0.0000E+00    2.512000E+07  0.00800  5.592E-03    0   0.8162   age090_m52            0.0000     2.2192E-04     3.6122   2.2802   134.6610
 25      0.0000     0.0000E+00    0.0000E+00    4.000000E+07  0.00800  3.896E-03    0   0.7841   age104_m52            0.0000     2.2576E-04     3.6888   2.2121   134.4005
 26      0.0000     0.0000E+00    0.0000E+00    1.015200E+08  0.00800  2.148E-03    0   0.7226   age116_m52            0.0000     2.3720E-04     3.9106   2.1788   132.4691
 27      0.0000     0.0000E+00    0.0000E+00    2.861200E+08  0.00800  9.925E-04    0   0.6683   age125_m52            0.0000     2.2285E-04     3.7936   1.7252   135.7603
 28      0.0000     0.0000E+00    0.0000E+00    9.047900E+08  0.00800  3.141E-04    0   0.6138   age135_m52            0.0000     1.8517E-04     3.3804   0.9920   137.1945
 29      0.0000     0.0000E+00    0.0000E+00    1.434000E+09  0.00800  1.719E-04    0   0.5853   age139_m52            0.0000     1.4941E-04     3.3107   0.3957   135.4063
 30      0.0000     0.0000E+00    0.0000E+00    2.500000E+09  0.00800  7.872E-05    0   0.5600   age150_m52            0.0000     1.7175E-04     3.7825   0.1618   130.0240
 31      0.0000     0.0000E+00    0.0000E+00    4.250000E+09  0.00800  4.336E-05    0   0.5426   age158_m52            0.0000     1.7940E-04     3.9058   0.1468   128.7914
 32      0.0000     0.0000E+00    0.0000E+00    6.250000E+09  0.00800  3.159E-05    0   0.5319   age166_m52            0.0000     2.0604E-04     4.2849  -0.0364   127.7051
 33      0.0000     0.0000E+00    0.0000E+00    1.300000E+10  0.00800  1.361E-05    0   0.5073   age193_m52            0.0000     2.5346E-04     4.7733  -0.4781   125.4020
 34      0.0000     0.0000E+00    0.0000E+00    1.800000E+10  0.00800  9.886E-06    0   0.4990   age213_m52            0.0000     3.0110E-04     5.2210  -0.5644   123.5851
 35      1.6946     3.1029E-03    5.8975E-03    1.000000E+06  0.02000  1.544E-02    0   1.0000   age020_m62            0.0000     4.0022E-04     5.9695   3.4080   122.1975
 36      0.0000     0.0000E+00    0.0000E+00    3.160000E+06  0.02000  3.762E-02    0   0.9858   age045_m62            0.0000     3.9759E-04     5.9712   3.3496   123.1232
 37      0.0000     0.0000E+00    0.0000E+00    5.010000E+06  0.02000  3.296E-02    0   0.9342   age055_m62            0.0000     3.4483E-04     5.3793   3.0156   125.7424
 38      0.0000     0.0000E+00    0.0000E+00    8.710000E+06  0.02000  1.154E-02    0   0.8861   age067_m62            0.0000     2.1918E-04     3.5919   1.8463   144.2383
 39      0.0000     0.0000E+00    0.0000E+00    1.445000E+07  0.02000  7.663E-03    0   0.8472   age078_m62            0.0000     2.1577E-04     3.6691   2.1212   138.0885
 40      0.0000     0.0000E+00    0.0000E+00    2.512000E+07  0.02000  4.532E-03    0   0.8099   age090_m62            0.0000     2.1960E-04     3.7210   2.1102   137.8657
 41      0.0000     0.0000E+00    0.0000E+00    5.500000E+07  0.02000  2.733E-03    0   0.7595   age110_m62            0.0000     2.0946E-04     3.5811   2.1861   134.0238
 42      0.0000     0.0000E+00    0.0000E+00    1.609000E+08  0.02000  1.369E-03    0   0.6985   age120_m62            0.0000     2.2381E-04     3.7628   2.0710   134.7578
 43      0.0000     0.0000E+00    0.0000E+00    2.861200E+08  0.02000  9.013E-04    0   0.6714   age125_m62            0.0000     2.2034E-04     3.6145   1.8522   136.6600
 44      0.0000     0.0000E+00    0.0000E+00    5.088000E+08  0.02000  5.028E-04    0   0.6449   age130_m62            0.0000     2.2822E-04     3.7280   1.5320   136.6245
 45      0.0000     0.0000E+00    0.0000E+00    9.047900E+08  0.02000  2.428E-04    0   0.6179   age135_m62            0.0000     1.7060E-04     3.4638   0.9646   134.6450
 46      0.0000     0.0000E+00    0.0000E+00    1.434000E+09  0.02000  1.263E-04    0   0.5908   age139_m62            0.0000     1.5150E-04     3.4820   0.5242   132.5144
 47     71.6708     3.3855E+01    3.6504E+01    2.500000E+09  0.02000  5.985E-05    0   0.5673   age150_m62            0.0000     1.9048E-04     4.1496   0.1788   129.5987
 48      0.0000     0.0000E+00    0.0000E+00    4.250000E+09  0.02000  3.271E-05    0   0.5468   age158_m62            0.0000     2.5150E-04     4.8471  -0.0998   127.0170
 49      0.0000     0.0000E+00    0.0000E+00    1.000000E+10  0.02000  1.360E-05    0   0.5167   age181_m62            0.0000     3.2347E-04     5.3957  -0.4075   124.2269
 50      0.0000     0.0000E+00    0.0000E+00    1.800000E+10  0.02000  7.124E-06    0   0.5013   age213_m62            0.0000     3.9607E-04     5.8947  -0.5879   121.5988
 51      1.9329     2.1082E-03    4.0062E-03    1.000000E+06  0.05000  2.592E-02    0   0.9998   age020_m72            0.0000     4.0192E-04     5.9867   3.3939   122.5644
 52      0.0000     0.0000E+00    0.0000E+00    3.160000E+06  0.05000  4.845E-02    0   0.9577   age045_m72            0.0000     3.8324E-04     5.8224   3.2536   123.5812
 53      0.0000     0.0000E+00    0.0000E+00    5.010000E+06  0.05000  3.072E-02    0   0.9147   age055_m72            0.0000     2.7820E-04     4.7040   2.7132   132.1377
 54      0.0000     0.0000E+00    0.0000E+00    6.610000E+06  0.05000  1.455E-02    0   0.8877   age061_m72            0.0000     5.3406E-04     6.8112   1.8124   149.6257
 55      0.0000     0.0000E+00    0.0000E+00    1.000000E+07  0.05000  9.074E-03    0   0.8524   age070_m72            0.0000     4.0988E-04     6.2465   2.8676   132.5373
 56      0.0000     0.0000E+00    0.0000E+00    2.512000E+07  0.05000  4.250E-03    0   0.7902   age090_m72            0.0000     3.0938E-04     5.0336   2.6082   133.1808
 57      0.0000     0.0000E+00    0.0000E+00    4.000000E+07  0.05000  3.087E-03    0   0.7618   age104_m72            0.0000     2.9998E-04     4.8471   2.3835   135.2435
 58      0.0000     0.0000E+00    0.0000E+00    1.015200E+08  0.05000  1.700E-03    0   0.7096   age116_m72            0.0000     2.3547E-04     3.8324   2.1921   135.3722
 59      0.0000     0.0000E+00    0.0000E+00    2.861200E+08  0.05000  7.384E-04    0   0.6633   age125_m72            0.0000     2.0848E-04     3.4956   1.7539   136.3597
 60      0.0000     0.0000E+00    0.0000E+00    5.088000E+08  0.05000  3.819E-04    0   0.6372   age130_m72            0.0000     1.7920E-04     3.4977   1.3110   135.6216
 61      3.2186     5.4293E-01    6.3050E-01    9.047900E+08  0.05000  1.676E-04    0   0.6110   age135_m72            0.0000     1.8694E-04     4.1322   0.6526   131.1594
 62      0.0000     0.0000E+00    0.0000E+00    1.434000E+09  0.05000  8.837E-05    0   0.5874   age139_m72            0.0000     1.8155E-04     4.0725   0.1915   130.6435
 63      0.0000     0.0000E+00    0.0000E+00    2.500000E+09  0.05000  4.233E-05    0   0.5598   age150_m72            0.0000     2.6019E-04     4.9640  -0.0841   127.1906
 64      0.0000     0.0000E+00    0.0000E+00    6.250000E+09  0.05000  1.435E-05    0   0.5249   age166_m72            0.0000     3.4621E-04     5.5753  -0.4927   123.0633
 65     15.0947     6.5523E+01    6.2716E+01    1.300000E+10  0.05000  6.513E-06    0   0.5036   age193_m72            0.0000     4.5297E-04     6.2065  -0.7388   122.3240
 66      0.0000     0.0000E+00    0.0000E+00    1.800000E+10  0.05000  4.527E-06    0   0.4945   age213_m72            0.0000     5.2515E-04     6.5713  -0.8766   120.7628


## Synthesis Results - Average & Chains ##

# j      x_j: min, <> & last-chain-values for 1 ...  7 chains
  1      0.0000      0.8008      0.1288      0.7228      1.5405      0.7214      0.8316      0.8235      0.7503
  2      0.0000      0.2525      0.0022      0.0293      0.1553      0.0000      0.0139      0.0000      0.0486
  3      0.0000      0.2953      0.0000      0.1452      0.0854      0.0106      0.0313      0.0769      0.0000
  4      0.0000      0.2551      0.0272      0.0350      0.2032      0.0000      0.0000      0.0133      0.0238
  5      0.0000      0.3244      0.0000      0.0676      0.0000      0.0056      0.0000      0.0082      0.0000
  6      0.0000      0.3615      0.0161      0.1215      0.0040      0.0005      0.0012      0.0393      0.0882
  7      0.0000      0.3273      0.0073      0.1579      0.0000      0.0000      0.0027      0.0057      0.0197
  8      0.0000      0.2439      0.0287      0.0547      0.0130      0.0034      0.0000      0.0259      0.0268
  9      0.0000      0.3577      0.0045      0.0279      0.0322      0.0030      0.0000      0.0316      0.0678
 10      0.0000      0.3007      0.0000      0.1404      0.0300      0.0000      0.0000      0.0104      0.1421
 11      0.0000      0.2458      0.0000      0.1071      0.0427      0.0006      0.0024      0.0769      0.1154
 12      0.0000      0.3342      0.0000      0.1880      0.0070      0.0072      0.0068      0.0687      0.0489
 13      0.0000      0.2761      0.0053      0.0292      0.0417      0.0076      0.0015      0.0843      0.0137
 14      0.0000      0.2815      0.0000      0.1457      0.1084      0.0569      0.0301      0.0325      0.0001
 15      0.0000      0.3886      0.0161      0.0752      0.0033      0.0027      0.0014      0.0425      0.0697
 16      0.0000      0.2401      0.0362      0.0000      0.0000      0.0000      0.0001      0.0097      0.0610
 17      0.0000      0.2440      0.0796      0.2972      0.0444      0.0001      0.0020      0.0548      0.1945
 18     29.3873      2.3447      1.8019      2.1317      0.9750      5.4882      1.7582      2.1498      2.2263
 19      7.0011      2.0913      1.6344      2.9163      2.3714      2.2456      2.5366      2.8908      2.7781
 20      0.0000      0.2502      0.0072      0.0757      0.0536      0.0000      0.0113      0.0211      0.0000
 21      0.0000      0.2930      0.0061      0.1835      0.0686      0.0000      0.0000      0.0576      0.0502
 22      0.0000      0.3887      0.0583      0.1707      0.0000      0.0000      0.0000      0.0055      0.0067
 23      0.0000      0.2478      0.0067      0.0168      0.0125      0.0000      0.0009      0.0317      0.0764
 24      0.0000      0.2126      0.0000      0.2628      0.0000      0.0000      0.0764      0.0535      0.1328
 25      0.0000      0.2161      0.0255      0.0880      0.0000      0.0000      0.0027      0.0548      0.0227
 26      0.0000      0.2629      0.0000      0.0378      0.0000      0.0000      0.0186      0.0357      0.0995
 27      0.0000      0.3046      0.0967      0.2618      0.0484      0.0023      0.0211      0.2680      0.1146
 28      0.0000      0.3476      0.0000      0.0550      0.0900      0.0000      0.0000      0.1269      0.1247
 29      0.0000      0.3947      0.0039      0.1929      0.0599      0.0065      0.0186      0.2573      0.0247
 30      0.0000      0.2913      0.0145      0.1256      0.0000      0.0004      0.0011      0.0321      0.0000
 31      0.0000      0.2838      0.0000      0.1103      0.0479      0.0000      0.0045      0.0611      0.0695
 32      0.0000      0.3146      0.0257      0.1538      0.0074      0.0000      0.0320      0.0000      0.1152
 33      0.0000      0.2942      0.0000      0.3199      0.0476      0.0022      0.0017      0.0817      0.0195
 34      0.0000      0.3374      0.0010      0.1106      0.1975      0.0069      0.0000      0.1175      0.0000
 35      1.6946      1.9734      4.4008      1.7286      1.8961      1.2297      1.6611      1.9477      1.7186
 36      0.0000      1.7750      2.9888      1.6252      1.5545      1.2547      1.5690      1.8048      1.8749
 37      0.0000      0.2920      0.0000      0.0253      0.0092      0.0000      0.0095      0.0105      0.0000
 38      0.0000      0.3378      0.0030      0.0000      0.0000      0.0000      0.0000      0.0675      0.0000
 39      0.0000      0.3822      0.0000      0.0000      0.0043      0.0070      0.0000      0.0216      0.0431
 40      0.0000      0.2730      0.0056      0.0149      0.1056      0.0000      0.0000      0.1434      0.0000
 41      0.0000      0.3171      0.0000      0.0000      0.0063      0.0007      0.0025      0.2020      0.0000
 42      0.0000      0.2561      0.0096      0.0297      0.0976      0.0537      0.0000      0.0421      0.0000
 43      0.0000      0.2975      0.0603      0.2351      0.0935      0.0000      0.0000      0.0925      0.0433
 44      0.0000      0.3517      0.0328      0.0919      0.0762      0.0000      0.0033      0.0373      0.1473
 45      0.0000      0.1750      0.0099      0.0000      0.0155      0.0031      0.0060      0.0819      0.1215
 46      0.0000      0.2476      0.0147      0.0157      0.1135      0.0056      0.0038      0.0000      0.0000
