###################################################################
## OUTPUT of StarlightChains_v04.for    [Cid@UFSC - 01/Apr/2007] ##
###################################################################

## Some input info
KUG0210-078._22_36.txt                   [arq_obs]
Base.CB07.vall.4m                        [arq_base]
Masks.EmLines.NEW.gm                     [arq_masks]
StCv04.C11.config                        [arq_config]
   66                                    [N_base]
    0                                    [N_YAV_components = # of components with extra extinction!]
    0                                    [i_FitPowerLaw (1/0 = Yes/No)]
-9.99                                    [alpha_PowerLaw]
CCM                                      [red_law_option]
 1.458241                                [q_norm = A(l_norm)/A(V)]

## (Re)Sampling Parameters
 3741.00                                 [l_ini (A)]
 7218.00                                 [l_fin (A)]
    1.00                                 [dl    (A)]     (OBS: dl_cushion =    50.00 A)

## Normalization info
 4020.00                                 [l_norm (A) - for base]
 4010.00                                 [llow_norm (A) - window for f_obs]
 4060.00                                 [lupp_norm (A) - window for f_obs]
7.639153E-18                             [fobs_norm (in input units)]

## S/N
 3691.00                                 [llow_SN (A) - window for S/N]
 7268.00                                 [lupp_SN (A) - window for S/N]
   4.058                                 [S/N in S/N window]
   3.842                                 [S/N in norm. window]
   0.011                                 [S/N_err in S/N window]
   0.010                                 [S/N_err in norm. window]
  1.0000                                 [fscale_chi2]

## etc...
    -2007250                             [idum_orig]
  2415                                   [NOl_eff]
  2042                                   [Nl_eff]
   373    NSIGMA                         [Ntot_cliped & clip_method]
 10595410                                [Nglobal_steps]
   7                                     [N_chains]
  43                                     [NEX0s_base = N_base in EX0s-fits]
 0   0   1      373   2.0   6.597E+03    [Clip-Bug, RC-Crash & Burn-In warning-flags, n_censored_weights, wei_nsig_threshold & wei_limit]
    69     68.642     68.152      0.490  [idt_all, wdt_TotTime, wdt_UsrTime & wdt_SysTime (sec)]

## Synthesis Results - Best model ##

 3.90275E-06                             [chi2/Nl_eff]
    10.97924                             [adev (%)]

   130.00000                             [sum-of-x (%)]
 2.59234E-18                             [Flux_tot (units of input spectrum!)]
 1.48401E-13                             [Mini_tot (???)]
 7.68945E-14                             [Mcor_tot (???)]

 -83.73                                  [v0_min  (km/s)]
 209.35                                  [vd_min  (km/s)]
-1.0000                                  [AV_min  (mag)]
 0.0000                                  [YAV_min (mag)]

# j     x_j(%)      Mini_j(%)     Mcor_j(%)     age_j(yr)     Z_j      (L/M)_j    YAV?  Mstars   component_j        a/Fe...       SSP_chi2r SSP_adev(%)   SSP_AV   SSP_x(%)
  1      2.0417     2.5078E-03    4.8399E-03    1.000000E+06  0.00400  1.094E-02    0   1.0000   age020_m42            0.0000     4.7145E-06    12.4083   2.3030   132.1133
  2      0.0000     0.0000E+00    0.0000E+00    3.160000E+06  0.00400  4.007E-02    0   0.9999   age045_m42            0.0000     4.6850E-06    11.8532   1.6571   136.8931
  3      0.0000     0.0000E+00    0.0000E+00    5.010000E+06  0.00400  2.539E-02    0   0.9488   age055_m42            0.0000     4.6307E-06    12.0001   1.9408   135.5123
  4      0.0000     0.0000E+00    0.0000E+00    6.610000E+06  0.00400  2.620E-02    0   0.9220   age061_m42            0.0000     4.5957E-06    11.6723   1.5845   137.3137
  5      0.0000     0.0000E+00    0.0000E+00    1.000000E+07  0.00400  1.322E-02    0   0.8862   age070_m42            0.0000     4.4086E-06    11.0223   1.2963   141.9100
  6      0.0000     0.0000E+00    0.0000E+00    1.445000E+07  0.00400  7.883E-03    0   0.8571   age078_m42            0.0000     4.4552E-06    11.1788   1.6069   139.0207
  7      0.0000     0.0000E+00    0.0000E+00    2.512000E+07  0.00400  5.251E-03    0   0.8174   age090_m42            0.0000     4.3843E-06    10.9368   1.1724   142.6305
  8      0.0000     0.0000E+00    0.0000E+00    4.000000E+07  0.00400  3.649E-03    0   0.7851   age104_m42            0.0000     4.3661E-06    10.9306   0.9578   142.9722
  9      0.1386     6.0124E-04    8.8523E-04    5.500000E+07  0.00400  3.098E-03    0   0.7629   age110_m42            0.0000     4.4595E-06    11.0943   1.1264   141.5342
 10      1.7545     1.0582E-02    1.4718E-02    1.015200E+08  0.00400  2.228E-03    0   0.7207   age116_m42            0.0000     4.4937E-06    11.1893   1.1588   140.8042
 11      1.6590     2.0395E-02    2.6167E-02    2.861200E+08  0.00400  1.093E-03    0   0.6648   age125_m42            0.0000     4.3653E-06    10.8388   0.6010   144.7542
 12      0.0000     0.0000E+00    0.0000E+00    5.088000E+08  0.00400  6.597E-04    0   0.6365   age130_m42            0.0000     4.3730E-06    10.9413   0.6063   144.5265
 13      0.0000     0.0000E+00    0.0000E+00    1.434000E+09  0.00400  2.132E-04    0   0.5798   age139_m42            0.0000     4.0380E-06    10.8020  -0.3360   145.4428
 14      0.0000     0.0000E+00    0.0000E+00    4.250000E+09  0.00400  5.895E-05    0   0.5377   age158_m42            0.0000     3.9151E-06    11.1690  -0.7864   139.3961
 15      0.0000     0.0000E+00    0.0000E+00    7.500000E+09  0.00400  3.510E-05    0   0.5212   age171_m42            0.0000     3.8826E-06    11.2734  -0.9699   137.8688
 16      0.0000     0.0000E+00    0.0000E+00    1.300000E+10  0.00400  2.005E-05    0   0.5034   age193_m42            0.0000     3.9284E-06    11.0364  -1.0000   131.5045
 17      0.0000     0.0000E+00    0.0000E+00    1.800000E+10  0.00400  1.525E-05    0   0.4967   age213_m42            0.0000     3.9485E-06    11.0339  -1.0000   130.1012
 18      0.1282     1.3915E-04    2.6856E-04    1.000000E+06  0.00800  1.238E-02    0   1.0000   age020_m52            0.0000     4.7099E-06    12.4156   2.2985   132.3860
 19      0.0000     0.0000E+00    0.0000E+00    3.160000E+06  0.00800  3.074E-02    0   0.9966   age045_m52            0.0000     4.6919E-06    12.3873   2.2291   133.1758
 20      5.3948     2.7171E-03    4.9517E-03    5.010000E+06  0.00800  2.668E-02    0   0.9443   age055_m52            0.0000     4.6050E-06    12.0060   2.0139   134.8277
 21      0.0000     0.0000E+00    0.0000E+00    6.610000E+06  0.00800  2.136E-02    0   0.9177   age061_m52            0.0000     4.2197E-06    11.0365   0.7873   143.8284
 22      0.0000     0.0000E+00    0.0000E+00    1.000000E+07  0.00800  1.215E-02    0   0.8827   age070_m52            0.0000     4.3850E-06    10.9109   1.4662   142.4104
 23      6.8942     1.0627E-02    1.7540E-02    1.445000E+07  0.00800  8.717E-03    0   0.8552   age078_m52            0.0000     4.4254E-06    11.1025   1.5781   140.6680
 24      0.4241     1.0191E-03    1.6053E-03    2.512000E+07  0.00800  5.592E-03    0   0.8162   age090_m52            0.0000     4.3590E-06    10.8707   1.2455   143.8593
 25      0.0000     0.0000E+00    0.0000E+00    4.000000E+07  0.00800  3.896E-03    0   0.7841   age104_m52            0.0000     4.3696E-06    10.8781   1.1766   143.6035
 26      0.0000     0.0000E+00    0.0000E+00    1.015200E+08  0.00800  2.148E-03    0   0.7226   age116_m52            0.0000     4.4082E-06    11.0123   1.1292   142.0062
 27      0.0000     0.0000E+00    0.0000E+00    2.861200E+08  0.00800  9.925E-04    0   0.6683   age125_m52            0.0000     4.3401E-06    10.9367   0.6790   145.4659
 28      0.0000     0.0000E+00    0.0000E+00    9.047900E+08  0.00800  3.141E-04    0   0.6138   age135_m52            0.0000     4.1665E-06    10.9070  -0.0575   146.9348
 29      2.4444     1.9107E-01    2.1583E-01    1.434000E+09  0.00800  1.719E-04    0   0.5853   age139_m52            0.0000     3.8887E-06    10.7882  -0.6544   144.6787
 30      0.0000     0.0000E+00    0.0000E+00    2.500000E+09  0.00800  7.872E-05    0   0.5600   age150_m52            0.0000     3.8567E-06    11.1771  -0.9175   139.7008
 31      7.1944     2.2295E+00    2.3347E+00    4.250000E+09  0.00800  4.336E-05    0   0.5426   age158_m52            0.0000     3.8548E-06    11.2255  -0.9354   138.4592
 32      0.0000     0.0000E+00    0.0000E+00    6.250000E+09  0.00800  3.159E-05    0   0.5319   age166_m52            0.0000     3.8930E-06    11.0783  -1.0000   132.4232
 33      0.3140     3.1001E-01    3.0351E-01    1.300000E+10  0.00800  1.361E-05    0   0.5073   age193_m52            0.0000     4.9316E-06    13.6812  -1.0000   112.7864
 34      0.0008     1.1334E-03    1.0915E-03    1.800000E+10  0.00800  9.886E-06    0   0.4990   age213_m52            0.0000     5.3561E-06    14.5444  -1.0000   107.7844
 35      7.5583     6.5779E-03    1.2695E-02    1.000000E+06  0.02000  1.544E-02    0   1.0000   age020_m62            0.0000     4.7177E-06    12.4300   2.2926   132.7979
 36      0.0000     0.0000E+00    0.0000E+00    3.160000E+06  0.02000  3.762E-02    0   0.9858   age045_m62            0.0000     4.7025E-06    12.4093   2.2327   133.8907
 37      0.0000     0.0000E+00    0.0000E+00    5.010000E+06  0.02000  3.296E-02    0   0.9342   age055_m62            0.0000     4.6281E-06    11.9754   1.9143   136.3647
 38      0.0000     0.0000E+00    0.0000E+00    8.710000E+06  0.02000  1.154E-02    0   0.8861   age067_m62            0.0000     4.2081E-06    10.9266   0.8720   151.8832
 39      0.0019     3.2879E-06    5.3758E-06    1.445000E+07  0.02000  7.663E-03    0   0.8472   age078_m62            0.0000     4.2699E-06    10.7581   1.1072   146.7028
 40      0.0000     0.0000E+00    0.0000E+00    2.512000E+07  0.02000  4.532E-03    0   0.8099   age090_m62            0.0000     4.2454E-06    10.7637   1.1049   146.1662
 41      0.0047     2.3205E-05    3.4013E-05    5.500000E+07  0.02000  2.733E-03    0   0.7595   age110_m62            0.0000     4.2843E-06    10.8297   1.1478   143.2186
 42      0.0050     4.9442E-05    6.6650E-05    1.609000E+08  0.02000  1.369E-03    0   0.6985   age120_m62            0.0000     4.3692E-06    10.9351   1.0222   144.4482
 43      0.0000     0.0000E+00    0.0000E+00    2.861200E+08  0.02000  9.013E-04    0   0.6714   age125_m62            0.0000     4.3899E-06    10.9629   0.8017   146.6183
 44      0.0000     0.0000E+00    0.0000E+00    5.088000E+08  0.02000  5.028E-04    0   0.6449   age130_m62            0.0000     4.4164E-06    11.1231   0.4672   147.0484
 45      0.0000     0.0000E+00    0.0000E+00    9.047900E+08  0.02000  2.428E-04    0   0.6179   age135_m62            0.0000     4.0826E-06    11.0554  -0.1012   144.5497
 46      1.1754     1.2505E-01    1.4259E-01    1.434000E+09  0.02000  1.263E-04    0   0.5908   age139_m62            0.0000     3.8732E-06    11.0637  -0.5449   142.0878
 47      2.7973     6.2803E-01    6.8760E-01    2.500000E+09  0.02000  5.985E-05    0   0.5673   age150_m62            0.0000     3.8354E-06    11.4012  -0.9075   139.2755
 48      0.0000     0.0000E+00    0.0000E+00    4.250000E+09  0.02000  3.271E-05    0   0.5468   age158_m62            0.0000     3.9687E-06    11.2952  -1.0000   128.9305
 49     28.1426     2.7806E+01    2.7728E+01    1.000000E+10  0.02000  1.360E-05    0   0.5167   age181_m62            0.0000     4.7213E-06    12.8696  -1.0000   114.0743
 50     11.1057     2.0948E+01    2.0266E+01    1.800000E+10  0.02000  7.124E-06    0   0.5013   age213_m62            0.0000     5.4997E-06    14.6020  -1.0000   104.8673
 51      0.0126     6.5320E-06    1.2604E-05    1.000000E+06  0.05000  2.592E-02    0   0.9998   age020_m72            0.0000     4.7233E-06    12.4398   2.2802   133.0803
 52      0.0000     0.0000E+00    0.0000E+00    3.160000E+06  0.05000  4.845E-02    0   0.9577   age045_m72            0.0000     4.6591E-06    12.3024   2.1382   134.3977
 53      0.0000     0.0000E+00    0.0000E+00    5.010000E+06  0.05000  3.072E-02    0   0.9147   age055_m72            0.0000     4.4009E-06    11.0571   1.6777   140.8513
 54      0.0220     2.0302E-05    3.4781E-05    6.610000E+06  0.05000  1.455E-02    0   0.8877   age061_m72            0.0000     4.5302E-06    12.2315   0.8915   155.5237
 55      0.0000     0.0000E+00    0.0000E+00    1.000000E+07  0.05000  9.074E-03    0   0.8524   age070_m72            0.0000     4.5244E-06    11.5961   1.8513   140.5828
 56      0.0000     0.0000E+00    0.0000E+00    2.512000E+07  0.05000  4.250E-03    0   0.7902   age090_m72            0.0000     4.4246E-06    11.1001   1.5899   141.5020
 57      0.0000     0.0000E+00    0.0000E+00    4.000000E+07  0.05000  3.087E-03    0   0.7618   age104_m72            0.0000     4.4049E-06    11.0549   1.3739   143.4681
 58      0.0992     7.8434E-04    1.0741E-03    1.015200E+08  0.05000  1.700E-03    0   0.7096   age116_m72            0.0000     4.3939E-06    10.8869   1.1583   144.5820
 59      0.0000     0.0000E+00    0.0000E+00    2.861200E+08  0.05000  7.384E-04    0   0.6633   age125_m72            0.0000     4.3440E-06    11.0013   0.7006   146.3095
 60      1.1389     4.0074E-02    4.9281E-02    5.088000E+08  0.05000  3.819E-04    0   0.6372   age130_m72            0.0000     4.1676E-06    11.1480   0.2456   145.7026
 61      0.0039     3.1436E-04    3.7069E-04    9.047900E+08  0.05000  1.676E-04    0   0.6110   age135_m72            0.0000     3.9268E-06    11.5131  -0.4348   141.1597
 62      0.0000     0.0000E+00    0.0000E+00    1.434000E+09  0.05000  8.837E-05    0   0.5874   age139_m72            0.0000     3.7842E-06    11.3547  -0.8916   140.2824
 63      0.0000     0.0000E+00    0.0000E+00    2.500000E+09  0.05000  4.233E-05    0   0.5598   age150_m72            0.0000     3.9428E-06    11.3410  -1.0000   129.6110
 64     48.5737     4.5484E+01    4.6076E+01    6.250000E+09  0.05000  1.435E-05    0   0.5249   age166_m72            0.0000     5.0366E-06    13.6739  -1.0000   109.7514
 65      0.7714     1.5915E+00    1.5468E+00    1.300000E+10  0.05000  6.513E-06    0   0.5036   age193_m72            0.0000     6.2977E-06    16.3091  -1.0000    99.9164
 66      0.1986     5.8961E-01    5.6269E-01    1.800000E+10  0.05000  4.527E-06    0   0.4945   age213_m72            0.0000     7.1722E-06    17.9176  -1.0000    93.7271


## Synthesis Results - Average & Chains ##

# j      x_j: min, <> & last-chain-values for 1 ...  7 chains
  1      2.0417     20.9374     25.2485     20.3996     24.6095     19.8362     21.1010     12.3186     13.5773
  2      0.0000      0.7246      0.7729      0.1098      0.4456      0.6539      0.0000      3.3074      0.9687
  3      0.0000      0.6219      0.2938      0.9816      0.5709      1.0739      0.1671      0.2247      4.7710
  4      0.0000      0.9005      0.6498      0.0150      1.3028      0.0000      1.2624      5.0087      1.5672
  5      0.0000      0.8382      0.3117      1.0774      1.1820      1.1300      0.8807      0.0000      0.6527
  6      0.0000      0.5335      0.6309      0.0000      0.1666      0.0622      0.5987      1.3687      0.1392
  7      0.0000      0.4460      0.3747      0.0019      0.5170      0.0000      0.0000      1.1147      0.0000
  8      0.0000      0.4087      0.0000      0.0210      0.0000      0.2030      0.3392      0.5830      0.0000
  9      0.1386      0.6607      0.3508      1.4021      0.7017      0.0000      0.0176      0.3403      2.8377
 10      1.7545      0.6992      0.4616      0.0733      0.3283      1.4712      0.2503      0.0000      0.5216
 11      1.6590     10.2163     11.2169      9.0845     10.7079     10.3711     11.7134      6.8511      4.5852
 12      0.0000      0.5568      0.5148      0.0000      0.4415      0.0000      0.2496      0.0415      0.5236
 13      0.0000      0.5610      0.0000      0.8761      0.6710      0.0929      0.5479      0.0000      0.0000
 14      0.0000      0.7057      1.0635      1.9816      0.0000      0.0000      0.7451      2.2206      2.3491
 15      0.0000      0.7016      0.0000      1.1625      1.0618      0.9520      0.6321      0.7856      1.7543
 16      0.0000      0.6750      0.1080      2.6263      0.2473      1.4232      2.0688      4.5692      0.5399
 17      0.0000      0.9235      0.3352      2.4190      0.2096      0.7422      0.3676     13.3227      1.1750
 18      0.1282     16.3618     19.9240     12.6705     17.1925     11.8996     15.1834     13.4345      7.7747
 19      0.0000      0.5834      0.1781      1.6086      0.0000      0.7900      2.2370      0.0000      0.3329
 20      5.3948      0.5088      0.1191      1.0014      0.5951      0.0000      0.6297      0.0000      0.7363
 21      0.0000      0.5922      0.6383      0.1489      0.0000      0.8403      0.4694      0.0000      0.0000
 22      0.0000      0.5775      0.2385      0.0000      0.2073      0.8839      0.9852      0.5133      1.5250
 23      6.8942      0.5109      0.0495      0.0000      0.3433      0.5833      1.4649      0.0000      3.0430
 24      0.4241      0.5031      0.1436      2.2602      0.4089      1.5254      0.1407      1.3733      1.0563
 25      0.0000      0.5289      0.3907      0.7290      0.2980      0.4226      0.0000      0.1139      0.0000
 26      0.0000      0.6943      0.4383      0.3468      0.2671      2.1821      1.0648      0.6002      0.0000
 27      0.0000      0.7516      0.0508      0.7456      0.1399      3.4738      0.0000      0.0000      0.0000
 28      0.0000      0.5691      0.5304      0.3093      0.0000      0.5431      0.0000      4.1498      0.5933
 29      2.4444      0.4621      0.2162      0.8150      0.4915      0.0457      0.9680      0.0000      0.4291
 30      0.0000      0.6065      0.5317      2.4588      0.0000      0.0000      0.3276      0.0000      0.7521
 31      7.1944      0.5082      0.6446      0.8274      1.5864      1.0541      0.5586      0.0000      0.7505
 32      0.0000      0.6001      0.9550      1.3880      0.7461      0.4737      0.8253      0.4263      2.4535
 33      0.3140      0.6785      1.7781      0.0519      0.9368      0.6260      1.6214      0.3925      2.8509
 34      0.0008      0.6764      0.5472      0.4921      0.5303      0.8496      0.1846      0.0000      2.3594
 35      7.5583      0.8045      0.2590      1.8540      1.7310      0.3364      0.4117      0.1612      0.0000
 36      0.0000      0.5952      0.0000      1.1866      0.0124      1.9244      0.0000      0.0075      2.1465
 37      0.0000      0.8521      0.4929      0.2447      0.2874      0.0000      0.6159      0.2980      2.0227
 38      0.0000      0.5031      0.2550      0.4887      0.0582      0.7519      0.1220      0.0000      0.0000
 39      0.0019      0.6075      0.0043      0.0000      0.2919      0.0000      0.5149      0.7150      3.1989
 40      0.0000      0.5420      0.0000      0.2598      0.2277      0.0134      0.0000      1.5050      0.0000
 41      0.0047      0.6522      0.2765      0.1319      0.8290      1.2916      0.6358      1.0049      1.6661
 42      0.0050      0.8671      0.5601      1.0255      0.5922      0.0000      1.5301      2.6479      0.0000
 43      0.0000      0.8277      0.4205      0.5222      0.1302      1.4573      1.8499      3.9872      0.6693
 44      0.0000      0.6682      0.3826      1.7415      0.0000      1.3671      0.6180      1.0240      1.3477
 45      0.0000      0.5157      0.2766      0.6610      0.5928      1.4506      1.3338      1.1966      0.0000
 46      1.1754      0.7904      0.4094      2.0992      0.5285      0.0000      0.0000      0.2498      0.8334
