###################################################################
## OUTPUT of StarlightChains_v04.for    [Cid@UFSC - 01/Apr/2007] ##
###################################################################

## Some input info
KUG0210-078._30_34.txt                   [arq_obs]
Base.CB07.vall.4m                        [arq_base]
Masks.EmLines.NEW.gm                     [arq_masks]
StCv04.C11.config                        [arq_config]
   66                                    [N_base]
    0                                    [N_YAV_components = # of components with extra extinction!]
    0                                    [i_FitPowerLaw (1/0 = Yes/No)]
-9.99                                    [alpha_PowerLaw]
CCM                                      [red_law_option]
 1.458241                                [q_norm = A(l_norm)/A(V)]

## (Re)Sampling Parameters
 3741.00                                 [l_ini (A)]
 7218.00                                 [l_fin (A)]
    1.00                                 [dl    (A)]     (OBS: dl_cushion =    50.00 A)

## Normalization info
 4020.00                                 [l_norm (A) - for base]
 4010.00                                 [llow_norm (A) - window for f_obs]
 4060.00                                 [lupp_norm (A) - window for f_obs]
1.923568E-16                             [fobs_norm (in input units)]

## S/N
 3691.00                                 [llow_SN (A) - window for S/N]
 7268.00                                 [lupp_SN (A) - window for S/N]
  10.373                                 [S/N in S/N window]
  13.127                                 [S/N in norm. window]
   0.262                                 [S/N_err in S/N window]
   0.332                                 [S/N_err in norm. window]
  1.0000                                 [fscale_chi2]

## etc...
    -2007435                             [idum_orig]
  2432                                   [NOl_eff]
  2354                                   [Nl_eff]
    78    NSIGMA                         [Ntot_cliped & clip_method]
 15671040                                [Nglobal_steps]
   7                                     [N_chains]
  36                                     [NEX0s_base = N_base in EX0s-fits]
 0   0   1       78   2.0   7.281E+04    [Clip-Bug, RC-Crash & Burn-In warning-flags, n_censored_weights, wei_nsig_threshold & wei_limit]
    93     92.058     91.104      0.954  [idt_all, wdt_TotTime, wdt_UsrTime & wdt_SysTime (sec)]

## Synthesis Results - Best model ##

 1.09318E-03                             [chi2/Nl_eff]
     6.41669                             [adev (%)]

    97.07352                             [sum-of-x (%)]
 4.75729E-16                             [Flux_tot (units of input spectrum!)]
 5.97576E-12                             [Mini_tot (???)]
 2.98841E-12                             [Mcor_tot (???)]

 -15.98                                  [v0_min  (km/s)]
 470.60                                  [vd_min  (km/s)]
 0.6963                                  [AV_min  (mag)]
 0.0000                                  [YAV_min (mag)]

# j     x_j(%)      Mini_j(%)     Mcor_j(%)     age_j(yr)     Z_j      (L/M)_j    YAV?  Mstars   component_j        a/Fe...       SSP_chi2r SSP_adev(%)   SSP_AV   SSP_x(%)
  1      1.4438     1.0823E-02    2.1642E-02    1.000000E+06  0.00400  1.094E-02    0   1.0000   age020_m42            0.0000     2.1803E-03    13.5053   2.4707    89.6910
  2      0.0000     0.0000E+00    0.0000E+00    3.160000E+06  0.00400  4.007E-02    0   0.9999   age045_m42            0.0000     2.3195E-03    13.4053   1.7489    95.2013
  3      0.0000     0.0000E+00    0.0000E+00    5.010000E+06  0.00400  2.539E-02    0   0.9488   age055_m42            0.0000     2.1801E-03    13.2939   2.0746    92.9457
  4      0.0000     0.0000E+00    0.0000E+00    6.610000E+06  0.00400  2.620E-02    0   0.9220   age061_m42            0.0000     2.2900E-03    13.1022   1.6873    95.0638
  5      0.0598     3.7082E-04    6.5713E-04    1.000000E+07  0.00400  1.322E-02    0   0.8862   age070_m42            0.0000     1.8480E-03    11.0354   1.4620    95.5612
  6      0.0000     0.0000E+00    0.0000E+00    1.445000E+07  0.00400  7.883E-03    0   0.8571   age078_m42            0.0000     1.8417E-03    11.3742   1.7805    93.5174
  7      0.0000     0.0000E+00    0.0000E+00    2.512000E+07  0.00400  5.251E-03    0   0.8174   age090_m42            0.0000     1.7973E-03    10.6265   1.3424    95.8044
  8      0.0000     0.0000E+00    0.0000E+00    4.000000E+07  0.00400  3.649E-03    0   0.7851   age104_m42            0.0000     1.9009E-03    10.8773   1.1049    96.8369
  9      0.1349     3.5721E-03    5.4494E-03    5.500000E+07  0.00400  3.098E-03    0   0.7629   age110_m42            0.0000     2.2168E-03    11.8277   1.2359    97.3356
 10      0.0000     0.0000E+00    0.0000E+00    1.015200E+08  0.00400  2.228E-03    0   0.7207   age116_m42            0.0000     2.4662E-03    12.3839   1.2438    97.7466
 11      0.0000     0.0000E+00    0.0000E+00    2.861200E+08  0.00400  1.093E-03    0   0.6648   age125_m42            0.0000     2.4760E-03    11.7324   0.6882   100.0640
 12      0.0000     0.0000E+00    0.0000E+00    5.088000E+08  0.00400  6.597E-04    0   0.6365   age130_m42            0.0000     2.9721E-03    12.8034   0.6464   101.7383
 13      0.0000     0.0000E+00    0.0000E+00    1.434000E+09  0.00400  2.132E-04    0   0.5798   age139_m42            0.0000     3.4953E-03    13.6499  -0.3726   105.2080
 14      0.0000     0.0000E+00    0.0000E+00    4.250000E+09  0.00400  5.895E-05    0   0.5377   age158_m42            0.0000     4.1286E-03    15.5122  -0.8959   103.8473
 15      0.0000     0.0000E+00    0.0000E+00    7.500000E+09  0.00400  3.510E-05    0   0.5212   age171_m42            0.0000     4.7615E-03    15.4708  -1.0000   102.1941
 16      0.2139     8.7476E-01    8.8055E-01    1.300000E+10  0.00400  2.005E-05    0   0.5034   age193_m42            0.0000     5.6538E-03    14.8650  -1.0000    99.0032
 17      0.0000     0.0000E+00    0.0000E+00    1.800000E+10  0.00400  1.525E-05    0   0.4967   age213_m42            0.0000     5.5759E-03    14.6324  -1.0000    98.1310
 18      0.4740     3.1397E-03    6.2782E-03    1.000000E+06  0.00800  1.238E-02    0   1.0000   age020_m52            0.0000     2.1903E-03    13.5128   2.4679    89.8506
 19      0.0000     0.0000E+00    0.0000E+00    3.160000E+06  0.00800  3.074E-02    0   0.9966   age045_m52            0.0000     2.1988E-03    13.5420   2.3925    90.5791
 20      0.0000     0.0000E+00    0.0000E+00    5.010000E+06  0.00800  2.668E-02    0   0.9443   age055_m52            0.0000     2.1471E-03    13.2145   2.1596    92.1361
 21      0.0000     0.0000E+00    0.0000E+00    6.610000E+06  0.00800  2.136E-02    0   0.9177   age061_m52            0.0000     1.8602E-03    11.4677   0.9322    97.7505
 22      0.0000     0.0000E+00    0.0000E+00    1.000000E+07  0.00800  1.215E-02    0   0.8827   age070_m52            0.0000     1.7064E-03    10.5182   1.6540    95.0654
 23      0.0000     0.0000E+00    0.0000E+00    1.445000E+07  0.00800  8.717E-03    0   0.8552   age078_m52            0.0000     1.8322E-03    11.2398   1.7494    94.6886
 24      0.0000     0.0000E+00    0.0000E+00    2.512000E+07  0.00800  5.592E-03    0   0.8162   age090_m52            0.0000     1.7983E-03    10.5034   1.4081    96.8379
 25      0.0000     0.0000E+00    0.0000E+00    4.000000E+07  0.00800  3.896E-03    0   0.7841   age104_m52            0.0000     1.9641E-03    10.9724   1.3059    97.8782
 26      0.0000     0.0000E+00    0.0000E+00    1.015200E+08  0.00800  2.148E-03    0   0.7226   age116_m52            0.0000     2.2707E-03    11.9021   1.2201    98.3167
 27      0.0000     0.0000E+00    0.0000E+00    2.861200E+08  0.00800  9.925E-04    0   0.6683   age125_m52            0.0000     2.9860E-03    12.6505   0.7134   102.6216
 28      0.0000     0.0000E+00    0.0000E+00    9.047900E+08  0.00800  3.141E-04    0   0.6138   age135_m52            0.0000     4.3578E-03    14.7449  -0.1737   109.4285
 29      0.0000     0.0000E+00    0.0000E+00    1.434000E+09  0.00800  1.719E-04    0   0.5853   age139_m52            0.0000     4.0434E-03    14.9309  -0.7732   107.9882
 30      0.0000     0.0000E+00    0.0000E+00    2.500000E+09  0.00800  7.872E-05    0   0.5600   age150_m52            0.0000     5.0027E-03    15.8094  -1.0000   105.4226
 31      0.0000     0.0000E+00    0.0000E+00    4.250000E+09  0.00800  4.336E-05    0   0.5426   age158_m52            0.0000     5.2488E-03    15.8515  -1.0000   104.3336
 32      0.0000     0.0000E+00    0.0000E+00    6.250000E+09  0.00800  3.159E-05    0   0.5319   age166_m52            0.0000     6.6276E-03    15.3380  -1.0000   100.8970
 33      2.9397     1.7714E+01    1.7969E+01    1.300000E+10  0.00800  1.361E-05    0   0.5073   age193_m52            0.0000     1.0572E-02    18.6240  -1.0000    90.2681
 34      1.9142     1.5879E+01    1.5844E+01    1.800000E+10  0.00800  9.886E-06    0   0.4990   age213_m52            0.0000     1.2613E-02    20.5838  -1.0000    87.2124
 35      0.0000     0.0000E+00    0.0000E+00    1.000000E+06  0.02000  1.544E-02    0   1.0000   age020_m62            0.0000     2.1978E-03    13.5101   2.4656    90.0279
 36      0.0000     0.0000E+00    0.0000E+00    3.160000E+06  0.02000  3.762E-02    0   0.9858   age045_m62            0.0000     2.2063E-03    13.5807   2.4044    90.8149
 37      0.0000     0.0000E+00    0.0000E+00    5.010000E+06  0.02000  3.296E-02    0   0.9342   age055_m62            0.0000     2.2692E-03    13.4656   2.0317    94.0871
 38     32.5814     2.3154E-01    4.1027E-01    8.710000E+06  0.02000  1.154E-02    0   0.8861   age067_m62            0.0000     1.1581E-03     6.5564   1.1930    95.3854
 39      0.0000     0.0000E+00    0.0000E+00    1.445000E+07  0.02000  7.663E-03    0   0.8472   age078_m62            0.0000     1.5011E-03     9.3851   1.3200    96.6796
 40      0.0000     0.0000E+00    0.0000E+00    2.512000E+07  0.02000  4.532E-03    0   0.8099   age090_m62            0.0000     1.4828E-03     9.0817   1.3223    96.0398
 41      0.0000     0.0000E+00    0.0000E+00    5.500000E+07  0.02000  2.733E-03    0   0.7595   age110_m62            0.0000     1.9143E-03    10.9209   1.2904    97.1834
 42      0.0000     0.0000E+00    0.0000E+00    1.609000E+08  0.02000  1.369E-03    0   0.6985   age120_m62            0.0000     2.5510E-03    12.0011   1.1026   100.3023
 43      0.0000     0.0000E+00    0.0000E+00    2.861200E+08  0.02000  9.013E-04    0   0.6714   age125_m62            0.0000     3.1553E-03    12.6535   0.8331   103.6129
 44      0.0000     0.0000E+00    0.0000E+00    5.088000E+08  0.02000  5.028E-04    0   0.6449   age130_m62            0.0000     4.1948E-03    14.5921   0.3847   108.3646
 45      0.0000     0.0000E+00    0.0000E+00    9.047900E+08  0.02000  2.428E-04    0   0.6179   age135_m62            0.0000     4.6455E-03    15.7736  -0.2677   109.8737
 46      0.0000     0.0000E+00    0.0000E+00    1.434000E+09  0.02000  1.263E-04    0   0.5908   age139_m62            0.0000     4.9491E-03    16.3501  -0.7458   109.4331
 47      0.0000     0.0000E+00    0.0000E+00    2.500000E+09  0.02000  5.985E-05    0   0.5673   age150_m62            0.0000     5.9977E-03    16.4729  -1.0000   106.8181
 48      0.0000     0.0000E+00    0.0000E+00    4.250000E+09  0.02000  3.271E-05    0   0.5468   age158_m62            0.0000     8.2472E-03    16.5327  -1.0000   100.3499
 49      0.0025     1.5196E-02    1.5701E-02    1.000000E+10  0.02000  1.360E-05    0   0.5167   age181_m62            0.0000     1.2415E-02    19.4888  -1.0000    92.0207
 50      0.0000     0.0000E+00    0.0000E+00    1.800000E+10  0.02000  7.124E-06    0   0.5013   age213_m62            0.0000     1.5693E-02    22.6177  -1.0000    85.9884
 51      0.3989     1.2620E-03    2.5230E-03    1.000000E+06  0.05000  2.592E-02    0   0.9998   age020_m72            0.0000     2.2083E-03    13.4389   2.4611    89.9849
 52      0.0000     0.0000E+00    0.0000E+00    3.160000E+06  0.05000  4.845E-02    0   0.9577   age045_m72            0.0000     2.2369E-03    13.6835   2.2861    91.9140
 53      0.0000     0.0000E+00    0.0000E+00    5.010000E+06  0.05000  3.072E-02    0   0.9147   age055_m72            0.0000     1.7435E-03    11.0634   1.8677    94.0776
 54     53.0352     2.9893E-01    5.3062E-01    6.610000E+06  0.05000  1.455E-02    0   0.8877   age061_m72            0.0000     1.2096E-03     7.1248   1.2534    95.2344
 55      0.0000     0.0000E+00    0.0000E+00    1.000000E+07  0.05000  9.074E-03    0   0.8524   age070_m72            0.0000     1.7863E-03    11.3948   2.0399    93.7642
 56      0.0000     0.0000E+00    0.0000E+00    2.512000E+07  0.05000  4.250E-03    0   0.7902   age090_m72            0.0000     1.7940E-03    10.8439   1.7567    95.0522
 57      0.0000     0.0000E+00    0.0000E+00    4.000000E+07  0.05000  3.087E-03    0   0.7618   age104_m72            0.0000     1.8015E-03    10.4265   1.5416    96.1745
 58      0.0000     0.0000E+00    0.0000E+00    1.015200E+08  0.05000  1.700E-03    0   0.7096   age116_m72            0.0000     2.3070E-03    11.3462   1.2661    99.2896
 59      0.0448     4.9804E-03    6.6058E-03    2.861200E+08  0.05000  7.384E-04    0   0.6633   age125_m72            0.0000     3.6470E-03    13.6357   0.6645   106.0613
 60      0.0000     0.0000E+00    0.0000E+00    5.088000E+08  0.05000  3.819E-04    0   0.6372   age130_m72            0.0000     4.3695E-03    15.3774   0.0931   110.2710
 61      0.0000     0.0000E+00    0.0000E+00    9.047900E+08  0.05000  1.676E-04    0   0.6110   age135_m72            0.0000     5.5695E-03    17.5174  -0.7044   111.5764
 62      0.0000     0.0000E+00    0.0000E+00    1.434000E+09  0.05000  8.837E-05    0   0.5874   age139_m72            0.0000     6.3758E-03    16.6483  -1.0000   108.4885
 63      0.2738     5.3044E-01    5.9377E-01    2.500000E+09  0.05000  4.233E-05    0   0.5598   age150_m72            0.0000     8.8200E-03    17.0028  -1.0000   101.3471
 64      0.0000     0.0000E+00    0.0000E+00    6.250000E+09  0.05000  1.435E-05    0   0.5249   age166_m72            0.0000     1.3475E-02    20.8773  -1.0000    89.3432
 65      0.0000     0.0000E+00    0.0000E+00    1.300000E+10  0.05000  6.513E-06    0   0.5036   age193_m72            0.0000     1.7982E-02    25.4144  -1.0000    82.7379
 66      3.5567     6.4432E+01    6.3712E+01    1.800000E+10  0.05000  4.527E-06    0   0.4945   age213_m72            0.0000     2.0837E-02    27.8405  -1.0000    78.1159


## Synthesis Results - Average & Chains ##

# j      x_j: min, <> & last-chain-values for 1 ...  7 chains
  1      1.4438      4.9428      6.8406      6.5987      4.3300      5.9150     10.1213      2.6765      4.7044
  2      0.0000      0.4202      0.0059      0.3674      0.0051      0.2420      0.0000      2.0468      0.0767
  3      0.0000      0.3867      0.0006      0.1455      0.0010      0.1962      0.0092      0.0000      0.0017
  4      0.0000      0.4995      0.0002      0.0689      0.0012      0.0127      0.0000      0.0000      0.0000
  5      0.0598      0.4974      0.0004      0.0685      0.0009      0.2083      0.0000      0.5177      0.0075
  6      0.0000      0.5997      0.0003      0.0407      0.0036      0.1443      0.0000      0.0000      0.0429
  7      0.0000      0.5512      0.0002      0.0025      0.0000      0.3272      0.0145      1.3700      0.0032
  8      0.0000      0.4471      0.0002      0.0701      0.0001      0.1073      0.0108      0.0998      0.0037
  9      0.1349      0.4985      0.0000      0.0028      0.0009      0.6718      0.0086      0.0546      0.0018
 10      0.0000      0.4828      0.0002      0.0348      0.0005      0.1637      0.0049      0.5245      0.0000
 11      0.0000      0.5279      0.0001      0.0000      0.0035      0.1774      0.1231      0.2716      0.0000
 12      0.0000      0.5202      0.0002      0.1243      0.0045      0.0512      0.0000      0.0000      0.0000
 13      0.0000      0.3724      0.0002      0.1010      0.0029      0.0000      0.0000      0.0000      0.0014
 14      0.0000      0.5768      0.0025      0.3091      0.0049      0.6782      1.6053      0.9459      0.0189
 15      0.0000      0.3396      0.0003      0.0000      0.0006      0.6545      0.0154      0.0000      0.0000
 16      0.2139      1.1915      2.8670      0.7489      0.0097      1.0024      0.0679      1.4626      2.3024
 17      0.0000      2.9847      4.9839      3.5466      9.9034      1.2264      2.6207      2.8081      4.4875
 18      0.4740     12.3024     15.4553     14.7478     19.5212     24.2724     16.4964     13.3930     12.9207
 19      0.0000      0.4214      0.0027      0.0372      0.0032      0.0000      0.0000      1.7872      0.0000
 20      0.0000      0.4957      0.0007      0.0055      0.0027      0.0000      0.0289      0.1261      0.0085
 21      0.0000      0.4328      0.0007      0.1531      0.0007      0.0000      0.0220      1.9551      0.0000
 22      0.0000      0.4033      0.0003      0.0932      0.0000      0.1276      0.0112      0.3517      0.0017
 23      0.0000      0.5116      0.0003      0.1024      0.0017      0.1043      0.0208      0.0314      0.0000
 24      0.0000      0.4005      0.0003      0.0793      0.0009      0.0000      0.0005      0.0000      0.0079
 25      0.0000      0.3765      0.0002      0.1491      0.0022      0.1810      0.0014      0.3276      0.0101
 26      0.0000      0.3973      0.0001      0.0550      0.0000      0.0000      0.0120      0.0877      0.0008
 27      0.0000      0.5258      0.0001      0.0082      0.0014      0.1463      0.0006      0.0000      0.0000
 28      0.0000      0.4480      0.0006      0.1256      0.0000      0.1966      0.0095      0.5924      0.0014
 29      0.0000      0.3841      0.0001      0.0864      0.0003      0.0143      0.0185      0.0000      0.0009
 30      0.0000      0.4244      0.0003      0.0932      0.0045      0.0987      0.0398      0.1221      0.0015
 31      0.0000      0.4120      0.0003      0.0898      0.0000      0.0300      0.0009      0.0000      0.0000
 32      0.0000      0.4691      0.0003      0.1502      0.0002      0.0730      0.0000      1.5341      0.0032
 33      2.9397      3.6757      3.5000      4.3435      3.1539      8.4237      7.0037      0.1917      3.2064
 34      1.9142      2.0614      2.0823      2.3410      1.4431      0.9407      4.1014      0.7959      5.3265
 35      0.0000     15.4270     21.6857     21.0132     16.4977     14.9731     18.9875     18.3079     29.5645
 36      0.0000      0.3565      0.0015      0.0703      0.0008      0.0186      0.0112      0.0000      0.0000
 37      0.0000      0.3755      0.0004      0.0606      0.0014      0.0000      0.0376      0.8925      0.0263
 38     32.5814      0.5232      0.0004      0.0405      0.0000      0.1930      0.1481      0.2719      0.0308
 39      0.0000      0.3973      0.0003      0.0000      0.0000      0.1139      0.0413      0.7073      0.0000
 40      0.0000      0.4191      0.0001      0.0411      0.0014      0.4282      0.0000      0.0592      0.0022
 41      0.0000      0.3329      0.0001      0.0656      0.0000      0.0000      0.0437      0.2767      0.0025
 42      0.0000      0.3171      0.0001      0.0511      0.0051      0.3622      0.0038      0.3246      0.0523
 43      0.0000      0.5359      0.0002      0.0815      0.0011      0.3612      0.0000      0.0000      0.0000
 44      0.0000      0.4392      0.0099      0.0000      0.0015      0.1460      0.0029      0.0502      0.0018
 45      0.0000      0.3392      0.0009      0.1134      0.0017      0.4027      0.0175      0.0000      0.0013
 46      0.0000      1.3760      0.0024      1.6928      0.0093      1.3371      0.0782      0.0000      0.0000
