###################################################################
## OUTPUT of StarlightChains_v04.for    [Cid@UFSC - 01/Apr/2007] ##
###################################################################

## Some input info
KUG0210-078._33_26.txt                   [arq_obs]
Base.CB07.vall.4m                        [arq_base]
Masks.EmLines.NEW.gm                     [arq_masks]
StCv04.C11.config                        [arq_config]
   66                                    [N_base]
    0                                    [N_YAV_components = # of components with extra extinction!]
    0                                    [i_FitPowerLaw (1/0 = Yes/No)]
-9.99                                    [alpha_PowerLaw]
CCM                                      [red_law_option]
 1.458241                                [q_norm = A(l_norm)/A(V)]

## (Re)Sampling Parameters
 3741.00                                 [l_ini (A)]
 7218.00                                 [l_fin (A)]
    1.00                                 [dl    (A)]     (OBS: dl_cushion =    50.00 A)

## Normalization info
 4020.00                                 [l_norm (A) - for base]
 4010.00                                 [llow_norm (A) - window for f_obs]
 4060.00                                 [lupp_norm (A) - window for f_obs]
1.947931E-17                             [fobs_norm (in input units)]

## S/N
 3691.00                                 [llow_SN (A) - window for S/N]
 7268.00                                 [lupp_SN (A) - window for S/N]
   4.285                                 [S/N in S/N window]
   5.046                                 [S/N in norm. window]
   0.022                                 [S/N_err in S/N window]
   0.026                                 [S/N_err in norm. window]
  1.0000                                 [fscale_chi2]

## etc...
    -2007501                             [idum_orig]
  2426                                   [NOl_eff]
  2092                                   [Nl_eff]
   334    NSIGMA                         [Ntot_cliped & clip_method]
 10526180                                [Nglobal_steps]
   7                                     [N_chains]
  40                                     [NEX0s_base = N_base in EX0s-fits]
 0   0   1      334   2.0   1.586E+04    [Clip-Bug, RC-Crash & Burn-In warning-flags, n_censored_weights, wei_nsig_threshold & wei_limit]
    66     65.077     64.225      0.852  [idt_all, wdt_TotTime, wdt_UsrTime & wdt_SysTime (sec)]

## Synthesis Results - Best model ##

 1.58566E-05                             [chi2/Nl_eff]
     7.29417                             [adev (%)]

    97.82245                             [sum-of-x (%)]
 5.46774E-18                             [Flux_tot (units of input spectrum!)]
 3.97887E-13                             [Mini_tot (???)]
 2.01187E-13                             [Mcor_tot (???)]

 242.88                                  [v0_min  (km/s)]
 292.84                                  [vd_min  (km/s)]
-0.9296                                  [AV_min  (mag)]
 0.0000                                  [YAV_min (mag)]

# j     x_j(%)      Mini_j(%)     Mcor_j(%)     age_j(yr)     Z_j      (L/M)_j    YAV?  Mstars   component_j        a/Fe...       SSP_chi2r SSP_adev(%)   SSP_AV   SSP_x(%)
  1      0.0000     0.0000E+00    0.0000E+00    1.000000E+06  0.00400  1.094E-02    0   1.0000   age020_m42            0.0000     2.1236E-05     8.6100   2.7370    90.7751
  2      0.0000     0.0000E+00    0.0000E+00    3.160000E+06  0.00400  4.007E-02    0   0.9999   age045_m42            0.0000     2.2097E-05     9.0064   2.0938    93.5925
  3      0.0000     0.0000E+00    0.0000E+00    5.010000E+06  0.00400  2.539E-02    0   0.9488   age055_m42            0.0000     2.1605E-05     8.7814   2.3739    92.9011
  4      0.0000     0.0000E+00    0.0000E+00    6.610000E+06  0.00400  2.620E-02    0   0.9220   age061_m42            0.0000     2.2035E-05     9.0286   2.0185    93.8697
  5      0.0000     0.0000E+00    0.0000E+00    1.000000E+07  0.00400  1.322E-02    0   0.8862   age070_m42            0.0000     2.2463E-05     9.5990   1.7206    96.6913
  6      0.0000     0.0000E+00    0.0000E+00    1.445000E+07  0.00400  7.883E-03    0   0.8571   age078_m42            0.0000     2.2306E-05     9.3889   2.0295    94.9321
  7      0.0000     0.0000E+00    0.0000E+00    2.512000E+07  0.00400  5.251E-03    0   0.8174   age090_m42            0.0000     2.2755E-05     9.8446   1.5964    97.0389
  8      0.8686     3.3438E-03    5.1919E-03    4.000000E+07  0.00400  3.649E-03    0   0.7851   age104_m42            0.0000     2.2661E-05     9.8397   1.3835    97.2563
  9      0.0000     0.0000E+00    0.0000E+00    5.500000E+07  0.00400  3.098E-03    0   0.7629   age110_m42            0.0000     2.2764E-05     9.6046   1.5552    96.3565
 10      0.0000     0.0000E+00    0.0000E+00    1.015200E+08  0.00400  2.228E-03    0   0.7207   age116_m42            0.0000     2.2728E-05     9.4762   1.5882    95.9546
 11      0.0000     0.0000E+00    0.0000E+00    2.861200E+08  0.00400  1.093E-03    0   0.6648   age125_m42            0.0000     2.3003E-05     9.9288   1.0250    98.3590
 12      2.6419     5.6258E-02    7.0818E-02    5.088000E+08  0.00400  6.597E-04    0   0.6365   age130_m42            0.0000     2.2591E-05     9.5739   1.0363    98.2522
 13      0.0000     0.0000E+00    0.0000E+00    1.434000E+09  0.00400  2.132E-04    0   0.5798   age139_m42            0.0000     2.0305E-05     9.1425   0.0923    99.2945
 14      0.0000     0.0000E+00    0.0000E+00    4.250000E+09  0.00400  5.895E-05    0   0.5377   age158_m42            0.0000     1.7781E-05     8.1157  -0.3774    96.6616
 15      1.6571     6.6323E-01    6.8364E-01    7.500000E+09  0.00400  3.510E-05    0   0.5212   age171_m42            0.0000     1.7174E-05     7.8132  -0.5673    95.9948
 16     25.5578     1.7907E+01    1.7828E+01    1.300000E+10  0.00400  2.005E-05    0   0.5034   age193_m42            0.0000     1.6820E-05     7.5897  -0.7364    95.5587
 17      0.0000     0.0000E+00    0.0000E+00    1.800000E+10  0.00400  1.525E-05    0   0.4967   age213_m42            0.0000     1.6800E-05     7.6314  -0.7620    95.2686
 18      0.0000     0.0000E+00    0.0000E+00    1.000000E+06  0.00800  1.238E-02    0   1.0000   age020_m52            0.0000     2.1228E-05     8.5966   2.7324    90.9722
 19      0.0000     0.0000E+00    0.0000E+00    3.160000E+06  0.00800  3.074E-02    0   0.9966   age045_m52            0.0000     2.1191E-05     8.5940   2.6630    91.5296
 20      0.0000     0.0000E+00    0.0000E+00    5.010000E+06  0.00800  2.668E-02    0   0.9443   age055_m52            0.0000     2.1451E-05     8.7098   2.4442    92.5499
 21      0.0000     0.0000E+00    0.0000E+00    6.610000E+06  0.00800  2.136E-02    0   0.9177   age061_m52            0.0000     2.0811E-05     9.1613   1.2113    98.3508
 22      0.0000     0.0000E+00    0.0000E+00    1.000000E+07  0.00800  1.215E-02    0   0.8827   age070_m52            0.0000     2.2677E-05     9.7538   1.8855    97.0084
 23      0.0000     0.0000E+00    0.0000E+00    1.445000E+07  0.00800  8.717E-03    0   0.8552   age078_m52            0.0000     2.2340E-05     9.4433   2.0029    95.9452
 24      0.0000     0.0000E+00    0.0000E+00    2.512000E+07  0.00800  5.592E-03    0   0.8162   age090_m52            0.0000     2.2905E-05     9.9472   1.6658    97.8840
 25      0.0000     0.0000E+00    0.0000E+00    4.000000E+07  0.00800  3.896E-03    0   0.7841   age104_m52            0.0000     2.2871E-05     9.9018   1.5955    97.8019
 26      0.0000     0.0000E+00    0.0000E+00    1.015200E+08  0.00800  2.148E-03    0   0.7226   age116_m52            0.0000     2.2456E-05     9.5971   1.5507    96.8924
 27      0.0000     0.0000E+00    0.0000E+00    2.861200E+08  0.00800  9.925E-04    0   0.6683   age125_m52            0.0000     2.2388E-05     9.5370   1.0998    99.2326
 28      0.0000     0.0000E+00    0.0000E+00    9.047900E+08  0.00800  3.141E-04    0   0.6138   age135_m52            0.0000     2.0422E-05     9.0798   0.3469   101.2303
 29      0.0000     0.0000E+00    0.0000E+00    1.434000E+09  0.00800  1.719E-04    0   0.5853   age139_m52            0.0000     1.8319E-05     8.5210  -0.2674   100.6572
 30      0.0000     0.0000E+00    0.0000E+00    2.500000E+09  0.00800  7.872E-05    0   0.5600   age150_m52            0.0000     1.6932E-05     7.7334  -0.5379    98.1973
 31      0.0000     0.0000E+00    0.0000E+00    4.250000E+09  0.00800  4.336E-05    0   0.5426   age158_m52            0.0000     1.6762E-05     7.6840  -0.5558    97.3710
 32     23.0359     1.0244E+01    1.0776E+01    6.250000E+09  0.00800  3.159E-05    0   0.5319   age166_m52            0.0000     1.6242E-05     7.4407  -0.7558    97.2129
 33      0.0000     0.0000E+00    0.0000E+00    1.300000E+10  0.00800  1.361E-05    0   0.5073   age193_m52            0.0000     1.6871E-05     9.4941  -1.0000    90.8748
 34      0.0000     0.0000E+00    0.0000E+00    1.800000E+10  0.00800  9.886E-06    0   0.4990   age213_m52            0.0000     1.8103E-05    10.7659  -1.0000    87.5723
 35      0.0000     0.0000E+00    0.0000E+00    1.000000E+06  0.02000  1.544E-02    0   1.0000   age020_m62            0.0000     2.1200E-05     8.5833   2.7265    91.2704
 36      0.0000     0.0000E+00    0.0000E+00    3.160000E+06  0.02000  3.762E-02    0   0.9858   age045_m62            0.0000     2.1241E-05     8.5713   2.6666    92.0383
 37      0.0000     0.0000E+00    0.0000E+00    5.010000E+06  0.02000  3.296E-02    0   0.9342   age055_m62            0.0000     2.1695E-05     8.7604   2.3460    93.5452
 38      0.0000     0.0000E+00    0.0000E+00    8.710000E+06  0.02000  1.154E-02    0   0.8861   age067_m62            0.0000     2.4467E-05    11.6801   1.2830   102.3974
 39      0.0000     0.0000E+00    0.0000E+00    1.445000E+07  0.02000  7.663E-03    0   0.8472   age078_m62            0.0000     2.3057E-05    10.3561   1.5210    99.6702
 40      0.2433     7.5406E-04    1.2078E-03    2.512000E+07  0.02000  4.532E-03    0   0.8099   age090_m62            0.0000     2.3392E-05    10.5832   1.5151    99.2635
 41      0.0000     0.0000E+00    0.0000E+00    5.500000E+07  0.02000  2.733E-03    0   0.7595   age110_m62            0.0000     2.2320E-05     9.7129   1.5648    97.7061
 42      0.0000     0.0000E+00    0.0000E+00    1.609000E+08  0.02000  1.369E-03    0   0.6985   age120_m62            0.0000     2.2488E-05     9.5609   1.4420    98.6362
 43      0.0000     0.0000E+00    0.0000E+00    2.861200E+08  0.02000  9.013E-04    0   0.6714   age125_m62            0.0000     2.2612E-05     9.5364   1.2209   100.2023
 44      0.0000     0.0000E+00    0.0000E+00    5.088000E+08  0.02000  5.028E-04    0   0.6449   age130_m62            0.0000     2.1824E-05     9.1463   0.8816   101.0627
 45      0.0000     0.0000E+00    0.0000E+00    9.047900E+08  0.02000  2.428E-04    0   0.6179   age135_m62            0.0000     1.8971E-05     8.4619   0.2904   100.6096
 46      0.0000     0.0000E+00    0.0000E+00    1.434000E+09  0.02000  1.263E-04    0   0.5908   age139_m62            0.0000     1.7223E-05     7.9634  -0.1719    99.9442
 47      0.0000     0.0000E+00    0.0000E+00    2.500000E+09  0.02000  5.985E-05    0   0.5673   age150_m62            0.0000     1.6166E-05     7.4582  -0.5515    99.1214
 48      0.0000     0.0000E+00    0.0000E+00    4.250000E+09  0.02000  3.271E-05    0   0.5468   age158_m62            0.0000     1.5657E-05     7.1898  -0.8579    98.2510
 49      0.0000     0.0000E+00    0.0000E+00    1.000000E+10  0.02000  1.360E-05    0   0.5167   age181_m62            0.0000     1.6437E-05     8.7041  -1.0000    92.4011
 50     26.9098     5.3064E+01    5.2608E+01    1.800000E+10  0.02000  7.124E-06    0   0.5013   age213_m62            0.0000     1.9669E-05    11.3927  -1.0000    86.1477
 51      1.7756     9.6231E-04    1.9028E-03    1.000000E+06  0.05000  2.592E-02    0   0.9998   age020_m72            0.0000     2.1120E-05     8.5715   2.7132    91.5146
 52      0.0000     0.0000E+00    0.0000E+00    3.160000E+06  0.05000  4.845E-02    0   0.9577   age045_m72            0.0000     2.1389E-05     8.6171   2.5712    92.3753
 53      0.0000     0.0000E+00    0.0000E+00    5.010000E+06  0.05000  3.072E-02    0   0.9147   age055_m72            0.0000     2.2380E-05     9.5947   2.0851    96.4156
 54      0.0000     0.0000E+00    0.0000E+00    6.610000E+06  0.05000  1.455E-02    0   0.8877   age061_m72            0.0000     2.8111E-05    13.9703   1.2794   104.4309
 55      0.0000     0.0000E+00    0.0000E+00    1.000000E+07  0.05000  9.074E-03    0   0.8524   age070_m72            0.0000     2.3561E-05    10.2599   2.2446    96.3432
 56      0.5015     1.6576E-03    2.5905E-03    2.512000E+07  0.05000  4.250E-03    0   0.7902   age090_m72            0.0000     2.3500E-05    10.1866   1.9919    96.6414
 57      0.0000     0.0000E+00    0.0000E+00    4.000000E+07  0.05000  3.087E-03    0   0.7618   age104_m72            0.0000     2.3877E-05    10.5365   1.7791    97.6920
 58      0.0000     0.0000E+00    0.0000E+00    1.015200E+08  0.05000  1.700E-03    0   0.7096   age116_m72            0.0000     2.3075E-05     9.8893   1.5749    98.5248
 59      1.1455     2.1794E-02    2.8589E-02    2.861200E+08  0.05000  7.384E-04    0   0.6633   age125_m72            0.0000     2.1883E-05     9.2986   1.1094   100.5873
 60      0.7985     2.9373E-02    3.7015E-02    5.088000E+08  0.05000  3.819E-04    0   0.6372   age130_m72            0.0000     1.9655E-05     8.6615   0.6366   101.4077
 61      0.0000     0.0000E+00    0.0000E+00    9.047900E+08  0.05000  1.676E-04    0   0.6110   age135_m72            0.0000     1.6640E-05     7.7064  -0.0758   100.3014
 62      5.7955     9.2129E-01    1.0703E+00    1.434000E+09  0.05000  8.837E-05    0   0.5874   age139_m72            0.0000     1.5932E-05     7.4690  -0.5410   100.0406
 63      0.0000     0.0000E+00    0.0000E+00    2.500000E+09  0.05000  4.233E-05    0   0.5598   age150_m72            0.0000     1.5521E-05     7.1587  -0.8591    99.0795
 64      0.0000     0.0000E+00    0.0000E+00    6.250000E+09  0.05000  1.435E-05    0   0.5249   age166_m72            0.0000     1.7590E-05     9.9500  -1.0000    89.5126
 65      4.5418     9.7963E+00    9.7568E+00    1.300000E+10  0.05000  6.513E-06    0   0.5036   age193_m72            0.0000     2.4058E-05    13.8860  -1.0000    82.8866
 66      2.3495     7.2907E+00    7.1301E+00    1.800000E+10  0.05000  4.527E-06    0   0.4945   age213_m72            0.0000     2.9508E-05    16.1234  -1.0000    78.3510


## Synthesis Results - Average & Chains ##

# j      x_j: min, <> & last-chain-values for 1 ...  7 chains
  1      0.0000      0.1370      0.8496      1.2484      0.0000      0.2113      0.0000      0.0973      0.0800
  2      0.0000      0.1893      0.4175      0.0000      0.5291      0.2125      0.2936      1.4760      0.4254
  3      0.0000      0.2752      0.5732      0.0142      2.7809      0.0297      0.3514      0.6052      0.6382
  4      0.0000      0.1476      0.0000      0.4795      0.0724      0.2022      1.2052      0.3079      0.4766
  5      0.0000      0.1191      1.1103      1.0352      0.0000      0.0000      0.0000      0.3683      0.4735
  6      0.0000      0.2630      0.1669      0.2774      1.0744      1.1723      1.7016      0.0203      0.2769
  7      0.0000      0.1949      1.0109      0.4199      0.2918      1.4819      0.0000      0.3305      0.2975
  8      0.8686      0.2687      0.4273      1.4206      2.1113      1.7277      0.7544      0.6421      1.2043
  9      0.0000      0.1805      0.1284      0.0054      0.1921      0.2332      0.1474      0.1229      0.5308
 10      0.0000      0.2010      1.1696      0.0568      1.1249      0.6411      0.8868      0.7434      0.4569
 11      0.0000      0.1534      0.0000      0.1049      0.0000      0.3607      0.2489      0.1846      0.0399
 12      2.6419      0.2642      2.9975      0.7636      1.0471      0.7075      0.8611      0.1474      0.0594
 13      0.0000      0.2075      1.1480      0.2505      0.0000      0.0000      0.8069      1.6011      0.9559
 14      0.0000      0.2825      0.1109      0.2679      1.2174      0.0000      0.4732      0.0000      1.2271
 15      1.6571      0.1986      0.3936      0.7473      0.0000      0.3777      0.0000      0.4236      0.0000
 16     25.5578      0.2005      0.8891      0.4837      0.0000      0.4456      0.0000      0.7714      0.8420
 17      0.0000      0.1610      0.1124      0.0000      0.0000      0.0000      0.2038      0.6553      0.7893
 18      0.0000      0.1854      0.9863      0.2746      0.3174      0.3564      0.4992      0.9506      0.9257
 19      0.0000      0.1468      0.0000      0.7443      0.1473      1.0759      0.7441      0.0000      0.1783
 20      0.0000      0.2168      0.3755      2.1951      1.3759      0.0532      0.2654      0.6703      0.7478
 21      0.0000      0.2203      1.4445      1.4440      0.0000      0.6827      0.0000      0.4310      0.1569
 22      0.0000      0.2209      0.0084      0.0679      1.5976      0.4854      0.6288      0.4226      0.7814
 23      0.0000      0.2469      0.1024      0.7741      0.3892      1.1831      0.4488      0.3087      0.2308
 24      0.0000      0.1524      0.0000      1.2627      0.2808      0.0000      0.0000      0.0544      0.0000
 25      0.0000      0.2808      1.4892      0.5048      0.6671      1.0353      0.4279      0.7522      0.9384
 26      0.0000      0.1778      0.0000      0.9886      0.1421      0.2859      0.3856      0.2961      1.0190
 27      0.0000      0.2160      0.6201      1.0089      0.1016      0.0000      1.0490      0.2278      0.5522
 28      0.0000      0.1562      0.0000      0.3369      0.2978      0.4182      0.4013      0.2817      0.6420
 29      0.0000      0.1966      0.0000      0.7675      0.2085      0.0000      0.4299      0.2866      0.0000
 30      0.0000      0.2317      0.0000      0.0000      0.0301      0.3291      0.4700      0.7827      0.7023
 31      0.0000      0.1955      0.5902      0.4008      0.0000      0.8247      1.5515      0.3302      0.0000
 32     23.0359      0.1531      0.7478      0.3129      0.7426      0.9158      0.2344      0.0000      0.2524
 33      0.0000      0.1698      0.0000      0.4997      2.3096      0.7543      0.0503      0.1008      0.2218
 34      0.0000      0.1580      0.6764      0.8138      0.0000      0.6712      0.4653      0.0000      0.1214
 35      0.0000      0.1806      0.2547      0.1071      0.0000      0.1492      0.7498      0.0000      0.1759
 36      0.0000      0.1612      0.4762      0.4269      0.0030      0.2642      0.4335      0.2905      0.1989
 37      0.0000      0.1750      1.2879      0.1084      1.0696      1.1169      0.2296      0.8492      0.4805
 38      0.0000      0.2109      0.3137      0.0000      0.2769      1.2353      0.8597      0.2089      0.6242
 39      0.0000      0.2596      0.9508      2.0010      0.0000      0.0000      0.8813      0.0000      0.0776
 40      0.2433      0.2466      0.6633      0.2692      0.0000      0.0000      1.1386      1.2906      0.7697
 41      0.0000      0.1957      0.5618      0.0000      0.6123      1.1713      0.7341      0.7977      0.0310
 42      0.0000      0.1592      0.0000      0.0307      1.3424      0.3827      0.8453      0.6130      0.8252
 43      0.0000      0.1983      0.0000      0.1626      0.0000      0.0000      0.0331      0.0000      0.5107
 44      0.0000      8.3224      7.7284      7.7642      7.3492      6.7844      8.3878      8.7353      8.3317
 45      0.0000      0.1541      0.5531      0.0381      0.2686      0.0872      0.2118      0.0000      1.2348
 46      0.0000      0.2038      0.9274      0.0000      0.0000      0.5070      1.3373      1.3798      0.0000
