###################################################################
## OUTPUT of StarlightChains_v04.for    [Cid@UFSC - 01/Apr/2007] ##
###################################################################

## Some input info
KUG0210-078._34_48.txt                   [arq_obs]
Base.CB07.vall.4m                        [arq_base]
Masks.EmLines.NEW.gm                     [arq_masks]
StCv04.C11.config                        [arq_config]
   66                                    [N_base]
    0                                    [N_YAV_components = # of components with extra extinction!]
    0                                    [i_FitPowerLaw (1/0 = Yes/No)]
-9.99                                    [alpha_PowerLaw]
CCM                                      [red_law_option]
 1.458241                                [q_norm = A(l_norm)/A(V)]

## (Re)Sampling Parameters
 3741.00                                 [l_ini (A)]
 7218.00                                 [l_fin (A)]
    1.00                                 [dl    (A)]     (OBS: dl_cushion =    50.00 A)

## Normalization info
 4020.00                                 [l_norm (A) - for base]
 4010.00                                 [llow_norm (A) - window for f_obs]
 4060.00                                 [lupp_norm (A) - window for f_obs]
4.568046E-18                             [fobs_norm (in input units)]

## S/N
 3691.00                                 [llow_SN (A) - window for S/N]
 7268.00                                 [lupp_SN (A) - window for S/N]
   3.376                                 [S/N in S/N window]
   2.292                                 [S/N in norm. window]
   0.008                                 [S/N_err in S/N window]
   0.005                                 [S/N_err in norm. window]
  1.0000                                 [fscale_chi2]

## etc...
    -2007553                             [idum_orig]
  2396                                   [NOl_eff]
  2368                                   [Nl_eff]
    28    NSIGMA                         [Ntot_cliped & clip_method]
  1577240                                [Nglobal_steps]
   7                                     [N_chains]
  38                                     [NEX0s_base = N_base in EX0s-fits]
 0   0   1       28   2.0   1.019E+03    [Clip-Bug, RC-Crash & Burn-In warning-flags, n_censored_weights, wei_nsig_threshold & wei_limit]
    30     29.299     28.884      0.415  [idt_all, wdt_TotTime, wdt_UsrTime & wdt_SysTime (sec)]

## Synthesis Results - Best model ##

 1.67765E-05                             [chi2/Nl_eff]
    35.94001                             [adev (%)]

   129.99998                             [sum-of-x (%)]
 2.38828E-16                             [Flux_tot (units of input spectrum!)]
 3.77952E-14                             [Mini_tot (???)]
 2.92802E-14                             [Mcor_tot (???)]

   0.00                                  [v0_min  (km/s)]
 150.00                                  [vd_min  (km/s)]
 2.7506                                  [AV_min  (mag)]
 0.0000                                  [YAV_min (mag)]

# j     x_j(%)      Mini_j(%)     Mcor_j(%)     age_j(yr)     Z_j      (L/M)_j    YAV?  Mstars   component_j        a/Fe...       SSP_chi2r SSP_adev(%)   SSP_AV   SSP_x(%)
  1     36.3878     1.6168E+01    2.0869E+01    1.000000E+06  0.00400  1.094E-02    0   1.0000   age020_m42            0.0000     1.5217E-05    38.7422   2.8832   149.8501
  2     15.4384     1.8728E+00    2.4172E+00    3.160000E+06  0.00400  4.007E-02    0   0.9999   age045_m42            0.0000     1.4821E-05    38.2501   2.1582   159.8005
  3      4.6237     8.8518E-01    1.0841E+00    5.010000E+06  0.00400  2.539E-02    0   0.9488   age055_m42            0.0000     1.5052E-05    38.6149   2.4812   155.9036
  4     10.9753     2.0362E+00    2.4233E+00    6.610000E+06  0.00400  2.620E-02    0   0.9220   age061_m42            0.0000     1.4934E-05    38.3332   2.0924   159.7278
  5      0.0000     0.0000E+00    0.0000E+00    1.000000E+07  0.00400  1.322E-02    0   0.8862   age070_m42            0.0000     1.5184E-05    39.1034   1.8604   160.8545
  6      0.0000     0.0000E+00    0.0000E+00    1.445000E+07  0.00400  7.883E-03    0   0.8571   age078_m42            0.0000     1.5229E-05    39.0754   2.1797   157.2518
  7      0.6239     5.7754E-01    6.0936E-01    2.512000E+07  0.00400  5.251E-03    0   0.8174   age090_m42            0.0000     1.5216E-05    39.2349   1.7390   161.3329
  8      0.0000     0.0000E+00    0.0000E+00    4.000000E+07  0.00400  3.649E-03    0   0.7851   age104_m42            0.0000     1.5113E-05    39.0215   1.5086   162.8125
  9      6.3910     1.0027E+01    9.8746E+00    5.500000E+07  0.00400  3.098E-03    0   0.7629   age110_m42            0.0000     1.5003E-05    38.5093   1.6371   163.8726
 10      0.0000     0.0000E+00    0.0000E+00    1.015200E+08  0.00400  2.228E-03    0   0.7207   age116_m42            0.0000     1.5002E-05    38.2285   1.6467   164.5834
 11      2.4426     1.0863E+01    9.3216E+00    2.861200E+08  0.00400  1.093E-03    0   0.6648   age125_m42            0.0000     1.5092E-05    38.1057   1.1004   168.1596
 12      0.0000     0.0000E+00    0.0000E+00    5.088000E+08  0.00400  6.597E-04    0   0.6365   age130_m42            0.0000     1.5007E-05    37.5237   1.0651   170.7248
 13      0.0000     0.0000E+00    0.0000E+00    1.434000E+09  0.00400  2.132E-04    0   0.5798   age139_m42            0.0000     1.4529E-05    36.6232   0.0832   174.6584
 14      0.0000     0.0000E+00    0.0000E+00    4.250000E+09  0.00400  5.895E-05    0   0.5377   age158_m42            0.0000     1.4300E-05    35.8422  -0.3932   169.7411
 15      0.0000     0.0000E+00    0.0000E+00    7.500000E+09  0.00400  3.510E-05    0   0.5212   age171_m42            0.0000     1.4288E-05    35.3419  -0.5948   169.2447
 16      0.0000     0.0000E+00    0.0000E+00    1.300000E+10  0.00400  2.005E-05    0   0.5034   age193_m42            0.0000     1.4333E-05    34.9205  -0.7775   169.0690
 17      0.0000     0.0000E+00    0.0000E+00    1.800000E+10  0.00400  1.525E-05    0   0.4967   age213_m42            0.0000     1.4321E-05    35.0373  -0.7945   168.1049
 18      9.9032     3.8883E+00    5.0191E+00    1.000000E+06  0.00800  1.238E-02    0   1.0000   age020_m52            0.0000     1.5209E-05    38.7622   2.8781   150.2190
 19      0.0000     0.0000E+00    0.0000E+00    3.160000E+06  0.00800  3.074E-02    0   0.9966   age045_m52            0.0000     1.5201E-05    38.7894   2.7982   151.7027
 20     14.1810     2.5836E+00    3.1492E+00    5.010000E+06  0.00800  2.668E-02    0   0.9443   age055_m52            0.0000     1.5105E-05    38.6893   2.5625   154.6044
 21      0.0000     0.0000E+00    0.0000E+00    6.610000E+06  0.00800  2.136E-02    0   0.9177   age061_m52            0.0000     1.4985E-05    38.7677   1.3556   163.0961
 22      0.0000     0.0000E+00    0.0000E+00    1.000000E+07  0.00800  1.215E-02    0   0.8827   age070_m52            0.0000     1.5258E-05    39.3103   2.0481   160.1631
 23      8.8993     4.9624E+00    5.4780E+00    1.445000E+07  0.00800  8.717E-03    0   0.8552   age078_m52            0.0000     1.5182E-05    39.0502   2.1450   159.4033
 24      0.0000     0.0000E+00    0.0000E+00    2.512000E+07  0.00800  5.592E-03    0   0.8162   age090_m52            0.0000     1.5170E-05    39.1916   1.8056   163.1324
 25      0.0000     0.0000E+00    0.0000E+00    4.000000E+07  0.00800  3.896E-03    0   0.7841   age104_m52            0.0000     1.5046E-05    38.7496   1.7051   164.8568
 26      0.0000     0.0000E+00    0.0000E+00    1.015200E+08  0.00800  2.148E-03    0   0.7226   age116_m52            0.0000     1.4984E-05    38.2327   1.6275   165.2366
 27      0.0000     0.0000E+00    0.0000E+00    2.861200E+08  0.00800  9.925E-04    0   0.6683   age125_m52            0.0000     1.4972E-05    37.4618   1.1326   172.1377
 28      0.0000     0.0000E+00    0.0000E+00    9.047900E+08  0.00800  3.141E-04    0   0.6138   age135_m52            0.0000     1.4489E-05    35.8371   0.2972   181.2000
 29      0.0000     0.0000E+00    0.0000E+00    1.434000E+09  0.00800  1.719E-04    0   0.5853   age139_m52            0.0000     1.4267E-05    35.6906  -0.2886   177.7697
 30      0.0000     0.0000E+00    0.0000E+00    2.500000E+09  0.00800  7.872E-05    0   0.5600   age150_m52            0.0000     1.4190E-05    35.1508  -0.5917   174.8235
 31      0.0000     0.0000E+00    0.0000E+00    4.250000E+09  0.00800  4.336E-05    0   0.5426   age158_m52            0.0000     1.4209E-05    35.0138  -0.6099   173.3214
 32      0.0000     0.0000E+00    0.0000E+00    6.250000E+09  0.00800  3.159E-05    0   0.5319   age166_m52            0.0000     1.4265E-05    34.5141  -0.8371   174.4116
 33      0.0000     0.0000E+00    0.0000E+00    1.300000E+10  0.00800  1.361E-05    0   0.5073   age193_m52            0.0000     1.4854E-05    35.5659  -1.0000   162.1712
 34      0.0000     0.0000E+00    0.0000E+00    1.800000E+10  0.00800  9.886E-06    0   0.4990   age213_m52            0.0000     1.5405E-05    36.0867  -1.0000   157.2449
 35      0.0000     0.0000E+00    0.0000E+00    1.000000E+06  0.02000  1.544E-02    0   1.0000   age020_m62            0.0000     1.5241E-05    38.8099   2.8744   150.5853
 36      8.2559     1.0667E+00    1.3574E+00    3.160000E+06  0.02000  3.762E-02    0   0.9858   age045_m62            0.0000     1.5269E-05    38.8497   2.8087   152.1598
 37      0.0000     0.0000E+00    0.0000E+00    5.010000E+06  0.02000  3.296E-02    0   0.9342   age055_m62            0.0000     1.5012E-05    38.5035   2.4346   158.0617
 38      0.0000     0.0000E+00    0.0000E+00    8.710000E+06  0.02000  1.154E-02    0   0.8861   age067_m62            0.0000     1.6124E-05    41.9585   1.5840   160.9036
 39      4.4366     2.8142E+00    3.0776E+00    1.445000E+07  0.02000  7.663E-03    0   0.8472   age078_m62            0.0000     1.5390E-05    39.8585   1.7212   162.6027
 40      0.0000     0.0000E+00    0.0000E+00    2.512000E+07  0.02000  4.532E-03    0   0.8099   age090_m62            0.0000     1.5474E-05    40.0058   1.7192   161.7673
 41      3.6974     6.5760E+00    6.4469E+00    5.500000E+07  0.02000  2.733E-03    0   0.7595   age110_m62            0.0000     1.5140E-05    38.8978   1.6927   163.4710
 42      0.0000     0.0000E+00    0.0000E+00    1.609000E+08  0.02000  1.369E-03    0   0.6985   age120_m62            0.0000     1.5100E-05    38.1366   1.5078   168.8315
 43      1.0209     5.5056E+00    4.7714E+00    2.861200E+08  0.02000  9.013E-04    0   0.6714   age125_m62            0.0000     1.5104E-05    37.6268   1.2447   174.2236
 44      0.0000     0.0000E+00    0.0000E+00    5.088000E+08  0.02000  5.028E-04    0   0.6449   age130_m62            0.0000     1.4763E-05    36.4190   0.8257   181.0153
 45      0.7115     1.4243E+01    1.1360E+01    9.047900E+08  0.02000  2.428E-04    0   0.6179   age135_m62            0.0000     1.4346E-05    35.5565   0.2151   181.2105
 46      0.0000     0.0000E+00    0.0000E+00    1.434000E+09  0.02000  1.263E-04    0   0.5908   age139_m62            0.0000     1.4240E-05    35.2794  -0.2399   179.0712
 47      0.0000     0.0000E+00    0.0000E+00    2.500000E+09  0.02000  5.985E-05    0   0.5673   age150_m62            0.0000     1.4222E-05    34.8063  -0.6359   178.1487
 48      0.0000     0.0000E+00    0.0000E+00    4.250000E+09  0.02000  3.271E-05    0   0.5468   age158_m62            0.0000     1.4287E-05    34.2482  -0.9768   178.3543
 49      0.0000     0.0000E+00    0.0000E+00    1.000000E+10  0.02000  1.360E-05    0   0.5167   age181_m62            0.0000     1.5044E-05    34.7595  -1.0000   165.5713
 50      0.0000     0.0000E+00    0.0000E+00    1.800000E+10  0.02000  7.124E-06    0   0.5013   age213_m62            0.0000     1.6210E-05    36.1262  -1.0000   155.7767
 51      0.0000     0.0000E+00    0.0000E+00    1.000000E+06  0.05000  2.592E-02    0   0.9998   age020_m72            0.0000     1.5304E-05    38.9093   2.8699   150.5474
 52      0.0000     0.0000E+00    0.0000E+00    3.160000E+06  0.05000  4.845E-02    0   0.9577   age045_m72            0.0000     1.5170E-05    38.7306   2.6895   154.1604
 53      0.0000     0.0000E+00    0.0000E+00    5.010000E+06  0.05000  3.072E-02    0   0.9147   age055_m72            0.0000     1.5312E-05    39.0952   2.2720   158.0241
 54      1.4793     4.9420E-01    5.6629E-01    6.610000E+06  0.05000  1.455E-02    0   0.8877   age061_m72            0.0000     1.6733E-05    42.9804   1.6489   160.9391
 55      0.0000     0.0000E+00    0.0000E+00    1.000000E+07  0.05000  9.074E-03    0   0.8524   age070_m72            0.0000     1.5335E-05    38.9964   2.4465   157.6436
 56      0.0000     0.0000E+00    0.0000E+00    2.512000E+07  0.05000  4.250E-03    0   0.7902   age090_m72            0.0000     1.5272E-05    38.9843   2.1582   160.0536
 57      0.0000     0.0000E+00    0.0000E+00    4.000000E+07  0.05000  3.087E-03    0   0.7618   age104_m72            0.0000     1.5323E-05    39.1565   1.9394   162.1921
 58      0.0000     0.0000E+00    0.0000E+00    1.015200E+08  0.05000  1.700E-03    0   0.7096   age116_m72            0.0000     1.5204E-05    38.4177   1.6644   167.3898
 59      0.0000     0.0000E+00    0.0000E+00    2.861200E+08  0.05000  7.384E-04    0   0.6633   age125_m72            0.0000     1.4863E-05    36.9462   1.0908   177.7549
 60      0.0000     0.0000E+00    0.0000E+00    5.088000E+08  0.05000  3.819E-04    0   0.6372   age130_m72            0.0000     1.4390E-05    35.9798   0.5563   182.9844
 61      0.5322     1.5436E+01    1.2174E+01    9.047900E+08  0.05000  1.676E-04    0   0.6110   age135_m72            0.0000     1.4170E-05    35.1028  -0.1868   182.1452
 62      0.0000     0.0000E+00    0.0000E+00    1.434000E+09  0.05000  8.837E-05    0   0.5874   age139_m72            0.0000     1.4237E-05    34.5976  -0.6494   181.3932
 63      0.0000     0.0000E+00    0.0000E+00    2.500000E+09  0.05000  4.233E-05    0   0.5598   age150_m72            0.0000     1.4296E-05    34.1646  -0.9969   180.9060
 64      0.0000     0.0000E+00    0.0000E+00    6.250000E+09  0.05000  1.435E-05    0   0.5249   age166_m72            0.0000     1.5408E-05    35.5060  -1.0000   161.1255
 65      0.0000     0.0000E+00    0.0000E+00    1.300000E+10  0.05000  6.513E-06    0   0.5036   age193_m72            0.0000     1.7409E-05    37.7757  -1.0000   150.6102
 66      0.0000     0.0000E+00    0.0000E+00    1.800000E+10  0.05000  4.527E-06    0   0.4945   age213_m72            0.0000     1.8919E-05    39.2327  -1.0000   143.0704


## Synthesis Results - Average & Chains ##

# j      x_j: min, <> & last-chain-values for 1 ...  7 chains
  1     36.3878      1.2609      2.5295      0.0667      0.0976      0.0015      0.5238      0.0000      0.1871
  2     15.4384      1.0463      0.0000      0.9564      0.5032      0.0000      0.6375      0.1209      0.0899
  3      4.6237      1.3721      0.8759      0.4348      0.9896      0.4514      1.3935      0.3554      0.0000
  4     10.9753      1.7082      0.0000      0.1553      0.2382      0.1669      1.0239      0.4922      0.0956
  5      0.0000      1.0950      2.0227      0.5114      0.0000      0.5392      0.0000      0.0000      0.2603
  6      0.0000      1.1914      0.4592      1.2033      0.0000      1.4209      0.2977      0.6152      0.0415
  7      0.6239      1.3951      0.3169      0.0000      0.2564      0.5965      1.3459      0.2229      0.6854
  8      0.0000      1.5754      0.4892      0.0000      0.0000      0.0513      0.0000      2.0786      2.2613
  9      6.3910      1.3493      0.0656      0.0000      1.6590      0.6677      0.6612      1.4229      1.3379
 10      0.0000      1.0757      0.1210      0.4162      0.1121      0.0000      0.0000      0.4149      0.0000
 11      2.4426      1.1377      1.3344      0.0000      0.4362      0.1413      1.0483      0.1624      0.0000
 12      0.0000      1.7366      0.1682      0.0197      1.7425      0.0000      0.0000      0.3235      0.3590
 13      0.0000      0.7932      0.0146      0.2197      0.6472      1.1602      1.2375      0.1367      0.0000
 14      0.0000      1.7297      1.1134      0.0000      2.1420      0.0000      0.0800      0.0000      1.4099
 15      0.0000      0.7172      1.9042      0.1675      0.8377      3.0862      0.0480      0.2708      0.8967
 16      0.0000      1.0189      0.0000      1.0502      0.4560      0.0000      0.5399      1.5642      0.0000
 17      0.0000      1.3360      1.1869      1.6328      1.0265      0.2020      0.2801      0.3095      0.8869
 18      9.9032      1.0334      0.0000      1.8624      0.0000      0.7352      0.3749      1.0195      0.0798
 19      0.0000      1.1463      0.6248      0.2610      0.4531      0.4684      1.1134      2.4801      0.0876
 20     14.1810      1.6722      0.7854      0.0000      0.6058      0.1273      0.4829      0.4267      0.2148
 21      0.0000      1.2684      0.6849      2.3292      0.0000      0.0000      0.0000      0.0000      0.1910
 22      0.0000      0.7897      0.0000      0.3319      0.6227      0.0000      0.0988      0.0775      1.0640
 23      8.8993      1.5016      0.1684      0.7117      0.0000      1.5561      0.4690      0.0295      1.0855
 24      0.0000      1.0455      0.0000      0.8980      0.0000      0.0000      0.0000      0.0000      1.1575
 25      0.0000      1.4652      2.3127      0.0000      1.4784      0.0000      0.1874      0.4585      0.7357
 26      0.0000      1.2587      0.3290      0.0000      0.3890      0.9480      0.1311      0.1528      0.0000
 27      0.0000      0.7441      0.2439      0.0000      0.2554      1.1182      0.7832      0.0000      0.4275
 28      0.0000      1.8020      0.2803      1.0516      0.5399      0.0000      0.1914      0.5817      0.2406
 29      0.0000      1.1346      0.1958      0.3373      0.1566      0.5909      0.0626      0.0000      1.3466
 30      0.0000      1.2395      0.7638      0.1353      0.3307      0.3602      0.9832      1.1121      0.3696
 31      0.0000      0.9613      0.0000      1.2306      0.2414      0.3357      1.6107      0.8819      1.0738
 32      0.0000      1.6866      1.3915      2.1467      0.0452      1.5674      1.2340      1.9201      2.1204
 33      0.0000      1.1413      0.0000      0.0000      0.0000      0.0505      0.1503      0.3830      2.2984
 34      0.0000      1.5611      0.1778      1.1495      1.1554      0.9149      0.4194      0.6289      0.6954
 35      0.0000      1.0741      0.1324      0.4347      0.3861      0.4856      0.1033      1.3701      0.1434
 36      8.2559      1.0828      0.1880      0.2815      0.0000      0.0000      0.6377      0.5374      0.0865
 37      0.0000      1.0027      0.2737      0.6061      0.0000      0.5294      0.0779      0.0000      0.0000
 38      0.0000      1.0876      0.1168      0.0000      0.4349      0.0000      0.0883      0.5319      1.3443
 39      4.4366      1.5284      0.0565      0.9350      0.0489      0.5418      0.6456      0.0000      1.0082
 40      0.0000      0.9489      0.5458      1.5064      0.0000      0.0000      0.0000      0.0807      0.2513
 41      3.6974      1.3966      1.7117      0.0000      0.0000      0.0000      0.9241      1.4815      1.5772
 42      0.0000      1.3276      1.4767      0.0000      0.0000      0.4842      0.4161      0.0000      1.0797
 43      1.0209      1.1312      0.0000      0.5201      0.3220      0.5877      0.6769      0.0000      0.0000
 44      0.0000      1.3142      0.0000      0.8891      0.0000      0.0000      0.0367      0.0000      0.6937
 45      0.7115      1.0513      0.3529      0.9023      0.2844      1.5588      1.1977      0.5379      0.0000
 46      0.0000      1.2742      2.2006      1.3135      0.0000      1.6644      0.2862      0.0000      0.0000
