###################################################################
## OUTPUT of StarlightChains_v04.for    [Cid@UFSC - 01/Apr/2007] ##
###################################################################

## Some input info
KUG0210-078._32_37.txt                   [arq_obs]
Base.CB07.vall.4m                        [arq_base]
Masks.EmLines.NEW.gm                     [arq_masks]
StCv04.C11.config                        [arq_config]
   66                                    [N_base]
    0                                    [N_YAV_components = # of components with extra extinction!]
    0                                    [i_FitPowerLaw (1/0 = Yes/No)]
-9.99                                    [alpha_PowerLaw]
CCM                                      [red_law_option]
 1.458241                                [q_norm = A(l_norm)/A(V)]

## (Re)Sampling Parameters
 3741.00                                 [l_ini (A)]
 7218.00                                 [l_fin (A)]
    1.00                                 [dl    (A)]     (OBS: dl_cushion =    50.00 A)

## Normalization info
 4020.00                                 [l_norm (A) - for base]
 4010.00                                 [llow_norm (A) - window for f_obs]
 4060.00                                 [lupp_norm (A) - window for f_obs]
3.466193E-17                             [fobs_norm (in input units)]

## S/N
 3691.00                                 [llow_SN (A) - window for S/N]
 7268.00                                 [lupp_SN (A) - window for S/N]
   4.674                                 [S/N in S/N window]
   3.353                                 [S/N in norm. window]
   0.068                                 [S/N_err in S/N window]
   0.049                                 [S/N_err in norm. window]
  1.0000                                 [fscale_chi2]

## etc...
    -2007485                             [idum_orig]
  2432                                   [NOl_eff]
  2426                                   [Nl_eff]
     6    NSIGMA                         [Ntot_cliped & clip_method]
  7590870                                [Nglobal_steps]
   7                                     [N_chains]
  42                                     [NEX0s_base = N_base in EX0s-fits]
 0   0   1        6   2.0   3.470E+03    [Clip-Bug, RC-Crash & Burn-In warning-flags, n_censored_weights, wei_nsig_threshold & wei_limit]
   557    553.753    550.754      3.000  [idt_all, wdt_TotTime, wdt_UsrTime & wdt_SysTime (sec)]

## Synthesis Results - Best model ##

 2.21099E-05                             [chi2/Nl_eff]
     5.35197                             [adev (%)]

   121.30025                             [sum-of-x (%)]
 2.17675E-17                             [Flux_tot (units of input spectrum!)]
 2.17490E-12                             [Mini_tot (???)]
 1.10514E-12                             [Mcor_tot (???)]

 -84.05                                  [v0_min  (km/s)]
 303.90                                  [vd_min  (km/s)]
-0.4902                                  [AV_min  (mag)]
 0.0000                                  [YAV_min (mag)]

# j     x_j(%)      Mini_j(%)     Mcor_j(%)     age_j(yr)     Z_j      (L/M)_j    YAV?  Mstars   component_j        a/Fe...       SSP_chi2r SSP_adev(%)   SSP_AV   SSP_x(%)
  1      0.0000     0.0000E+00    0.0000E+00    1.000000E+06  0.00400  1.094E-02    0   1.0000   age020_m42            0.0000     1.2006E-04    12.4293   3.7250   101.6010
  2      0.0000     0.0000E+00    0.0000E+00    3.160000E+06  0.00400  4.007E-02    0   0.9999   age045_m42            0.0000     9.8970E-05    11.4632   2.9823   109.3264
  3      0.0000     0.0000E+00    0.0000E+00    5.010000E+06  0.00400  2.539E-02    0   0.9488   age055_m42            0.0000     1.0864E-04    11.9695   3.3112   106.2629
  4      0.0000     0.0000E+00    0.0000E+00    6.610000E+06  0.00400  2.620E-02    0   0.9220   age061_m42            0.0000     1.0007E-04    11.5635   2.9069   109.6037
  5      0.0000     0.0000E+00    0.0000E+00    1.000000E+07  0.00400  1.322E-02    0   0.8862   age070_m42            0.0000     1.2133E-04    13.2810   2.6297   111.4584
  6      0.0000     0.0000E+00    0.0000E+00    1.445000E+07  0.00400  7.883E-03    0   0.8571   age078_m42            0.0000     1.2446E-04    13.3069   2.9594   108.5205
  7      0.0000     0.0000E+00    0.0000E+00    2.512000E+07  0.00400  5.251E-03    0   0.8174   age090_m42            0.0000     1.2462E-04    13.5843   2.5004   112.0249
  8      0.0000     0.0000E+00    0.0000E+00    4.000000E+07  0.00400  3.649E-03    0   0.7851   age104_m42            0.0000     1.1792E-04    13.2350   2.2697   113.1702
  9      0.0000     0.0000E+00    0.0000E+00    5.500000E+07  0.00400  3.098E-03    0   0.7629   age110_m42            0.0000     1.0567E-04    12.2471   2.4168   113.5814
 10      0.0000     0.0000E+00    0.0000E+00    1.015200E+08  0.00400  2.228E-03    0   0.7207   age116_m42            0.0000     9.7876E-05    11.5819   2.4323   114.0818
 11      0.0000     0.0000E+00    0.0000E+00    2.861200E+08  0.00400  1.093E-03    0   0.6648   age125_m42            0.0000     1.0150E-04    12.0149   1.8499   117.7590
 12      0.0000     0.0000E+00    0.0000E+00    5.088000E+08  0.00400  6.597E-04    0   0.6365   age130_m42            0.0000     8.7197E-05    10.8674   1.8353   119.1769
 13      0.0000     0.0000E+00    0.0000E+00    1.434000E+09  0.00400  2.132E-04    0   0.5798   age139_m42            0.0000     6.7762E-05     9.9806   0.8669   121.6932
 14      0.2346     3.2838E-02    3.4749E-02    4.250000E+09  0.00400  5.895E-05    0   0.5377   age158_m42            0.0000     5.3318E-05     8.8782   0.4316   116.9824
 15      0.0000     0.0000E+00    0.0000E+00    7.500000E+09  0.00400  3.510E-05    0   0.5212   age171_m42            0.0000     4.7875E-05     8.3667   0.2411   116.3625
 16      0.0000     0.0000E+00    0.0000E+00    1.300000E+10  0.00400  2.005E-05    0   0.5034   age193_m42            0.0000     4.4510E-05     7.9470   0.0732   115.8634
 17      0.0000     0.0000E+00    0.0000E+00    1.800000E+10  0.00400  1.525E-05    0   0.4967   age213_m42            0.0000     4.6030E-05     8.1220   0.0510   115.2983
 18      0.0000     0.0000E+00    0.0000E+00    1.000000E+06  0.00800  1.238E-02    0   1.0000   age020_m52            0.0000     1.1993E-04    12.4253   3.7214   101.8053
 19      1.1761     3.1569E-04    6.1915E-04    3.160000E+06  0.00800  3.074E-02    0   0.9966   age045_m52            0.0000     1.1742E-04    12.3173   3.6441   102.7698
 20      0.0000     0.0000E+00    0.0000E+00    5.010000E+06  0.00800  2.668E-02    0   0.9443   age055_m52            0.0000     1.1187E-04    12.1473   3.3947   105.2592
 21      0.0000     0.0000E+00    0.0000E+00    6.610000E+06  0.00800  2.136E-02    0   0.9177   age061_m52            0.0000     1.1360E-04    13.0721   2.1354   112.6223
 22      0.0000     0.0000E+00    0.0000E+00    1.000000E+07  0.00800  1.215E-02    0   0.8827   age070_m52            0.0000     1.3201E-04    13.9511   2.8092   111.0326
 23      0.0000     0.0000E+00    0.0000E+00    1.445000E+07  0.00800  8.717E-03    0   0.8552   age078_m52            0.0000     1.2308E-04    13.3112   2.9238   110.0804
 24      1.1550     1.7042E-03    2.7374E-03    2.512000E+07  0.00800  5.592E-03    0   0.8162   age090_m52            0.0000     1.2540E-04    13.6709   2.5602   113.4622
 25      0.0947     2.0062E-04    3.0957E-04    4.000000E+07  0.00800  3.896E-03    0   0.7841   age104_m52            0.0000     1.1638E-04    13.1037   2.4656   114.6834
 26      0.0000     0.0000E+00    0.0000E+00    1.015200E+08  0.00800  2.148E-03    0   0.7226   age116_m52            0.0000     1.0146E-04    12.0227   2.3999   114.8725
 27      2.3372     1.9430E-02    2.5555E-02    2.861200E+08  0.00800  9.925E-04    0   0.6683   age125_m52            0.0000     8.7126E-05    10.8824   1.8988   120.3534
 28      0.0000     0.0000E+00    0.0000E+00    9.047900E+08  0.00800  3.141E-04    0   0.6138   age135_m52            0.0000     6.0454E-05     9.1237   1.0902   126.0833
 29      0.0000     0.0000E+00    0.0000E+00    1.434000E+09  0.00800  1.719E-04    0   0.5853   age139_m52            0.0000     5.6054E-05     9.0984   0.5148   123.2388
 30      0.0000     0.0000E+00    0.0000E+00    2.500000E+09  0.00800  7.872E-05    0   0.5600   age150_m52            0.0000     4.2022E-05     7.8253   0.2521   120.0573
 31      0.0000     0.0000E+00    0.0000E+00    4.250000E+09  0.00800  4.336E-05    0   0.5426   age158_m52            0.0000     4.1930E-05     7.8225   0.2385   118.8720
 32      0.0000     0.0000E+00    0.0000E+00    6.250000E+09  0.00800  3.159E-05    0   0.5319   age166_m52            0.0000     3.5135E-05     7.0668   0.0310   119.2141
 33      0.0000     0.0000E+00    0.0000E+00    1.300000E+10  0.00800  1.361E-05    0   0.5073   age193_m52            0.0000     2.8831E-05     6.2765  -0.4420   118.8034
 34      3.0350     2.5330E+00    2.4875E+00    1.800000E+10  0.00800  9.886E-06    0   0.4990   age213_m52            0.0000     2.4980E-05     5.7245  -0.5564   118.6067
 35      0.0000     0.0000E+00    0.0000E+00    1.000000E+06  0.02000  1.544E-02    0   1.0000   age020_m62            0.0000     1.2054E-04    12.4465   3.7177   102.0320
 36      0.0000     0.0000E+00    0.0000E+00    3.160000E+06  0.02000  3.762E-02    0   0.9858   age045_m62            0.0000     1.1981E-04    12.3932   3.6565   102.9470
 37      0.0000     0.0000E+00    0.0000E+00    5.010000E+06  0.02000  3.296E-02    0   0.9342   age055_m62            0.0000     1.0285E-04    11.5884   3.2646   107.8956
 38      0.0000     0.0000E+00    0.0000E+00    8.710000E+06  0.02000  1.154E-02    0   0.8861   age067_m62            0.0000     2.0216E-04    18.0619   2.2646   113.1176
 39      0.0000     0.0000E+00    0.0000E+00    1.445000E+07  0.02000  7.663E-03    0   0.8472   age078_m62            0.0000     1.4888E-04    15.1349   2.4515   113.4076
 40      0.0000     0.0000E+00    0.0000E+00    2.512000E+07  0.02000  4.532E-03    0   0.8099   age090_m62            0.0000     1.5231E-04    15.3383   2.4405   113.1457
 41      0.0000     0.0000E+00    0.0000E+00    5.500000E+07  0.02000  2.733E-03    0   0.7595   age110_m62            0.0000     1.1687E-04    13.1214   2.4515   113.7291
 42      0.0000     0.0000E+00    0.0000E+00    1.609000E+08  0.02000  1.369E-03    0   0.6985   age120_m62            0.0000     9.6884E-05    11.5761   2.2756   117.7429
 43      0.0000     0.0000E+00    0.0000E+00    2.861200E+08  0.02000  9.013E-04    0   0.6714   age125_m62            0.0000     8.5976E-05    10.7223   2.0148   121.7829
 44      0.6904     1.1329E-02    1.4379E-02    5.088000E+08  0.02000  5.028E-04    0   0.6449   age130_m62            0.0000     6.5275E-05     9.0815   1.6275   125.7311
 45      0.0000     0.0000E+00    0.0000E+00    9.047900E+08  0.02000  2.428E-04    0   0.6179   age135_m62            0.0000     4.8893E-05     8.2259   1.0405   125.1086
 46      0.0000     0.0000E+00    0.0000E+00    1.434000E+09  0.02000  1.263E-04    0   0.5908   age139_m62            0.0000     4.3286E-05     7.9864   0.6013   123.1137
 47      6.1389     8.4633E-01    9.4487E-01    2.500000E+09  0.02000  5.985E-05    0   0.5673   age150_m62            0.0000     3.4784E-05     7.0862   0.2345   121.6393
 48      0.0000     0.0000E+00    0.0000E+00    4.250000E+09  0.02000  3.271E-05    0   0.5468   age158_m62            0.0000     2.7124E-05     6.0858  -0.0767   121.0671
 49     55.3950     3.3608E+01    3.4174E+01    1.000000E+10  0.02000  1.360E-05    0   0.5167   age181_m62            0.0000     2.1981E-05     5.3252  -0.4358   121.2064
 50     13.8371     1.6026E+01    1.5811E+01    1.800000E+10  0.02000  7.124E-06    0   0.5013   age213_m62            0.0000     2.1038E-05     5.1392  -0.6548   120.7408
 51      0.0000     0.0000E+00    0.0000E+00    1.000000E+06  0.05000  2.592E-02    0   0.9998   age020_m72            0.0000     1.2302E-04    12.5999   3.7118   101.9615
 52      0.0000     0.0000E+00    0.0000E+00    3.160000E+06  0.05000  4.845E-02    0   0.9577   age045_m72            0.0000     1.1171E-04    11.9882   3.5336   104.5887
 53      0.0000     0.0000E+00    0.0000E+00    5.010000E+06  0.05000  3.072E-02    0   0.9147   age055_m72            0.0000     1.3879E-04    14.0776   3.0338   109.2533
 54      0.0000     0.0000E+00    0.0000E+00    6.610000E+06  0.05000  1.455E-02    0   0.8877   age061_m72            0.0000     2.6232E-04    21.0028   2.2734   114.3047
 55      0.0000     0.0000E+00    0.0000E+00    1.000000E+07  0.05000  9.074E-03    0   0.8524   age070_m72            0.0000     1.5221E-04    14.5839   3.1888   109.4451
 56      0.0000     0.0000E+00    0.0000E+00    2.512000E+07  0.05000  4.250E-03    0   0.7902   age090_m72            0.0000     1.3684E-04    14.0717   2.8996   111.5264
 57      0.0000     0.0000E+00    0.0000E+00    4.000000E+07  0.05000  3.087E-03    0   0.7618   age104_m72            0.0000     1.3807E-04    14.2844   2.6680   113.5286
 58      0.0000     0.0000E+00    0.0000E+00    1.015200E+08  0.05000  1.700E-03    0   0.7096   age116_m72            0.0000     1.0742E-04    12.2917   2.4154   117.1600
 59      0.0000     0.0000E+00    0.0000E+00    2.861200E+08  0.05000  7.384E-04    0   0.6633   age125_m72            0.0000     7.3911E-05     9.8582   1.8773   123.8635
 60      0.0000     0.0000E+00    0.0000E+00    5.088000E+08  0.05000  3.819E-04    0   0.6372   age130_m72            0.0000     5.2855E-05     8.4815   1.3821   126.3112
 61      0.1759     8.6578E-03    1.0410E-02    9.047900E+08  0.05000  1.676E-04    0   0.6110   age135_m72            0.0000     3.4857E-05     7.0849   0.6908   124.1419
 62      0.0000     0.0000E+00    0.0000E+00    1.434000E+09  0.05000  8.837E-05    0   0.5874   age139_m72            0.0000     3.3071E-05     6.9380   0.2285   123.6913
 63      0.0000     0.0000E+00    0.0000E+00    2.500000E+09  0.05000  4.233E-05    0   0.5598   age150_m72            0.0000     2.5120E-05     5.8381  -0.0819   122.3819
 64      0.0000     0.0000E+00    0.0000E+00    6.250000E+09  0.05000  1.435E-05    0   0.5249   age166_m72            0.0000     2.1567E-05     5.3148  -0.5363   120.9095
 65     37.0304     4.6912E+01    4.6494E+01    1.300000E+10  0.05000  6.513E-06    0   0.5036   age193_m72            0.0000     2.2753E-05     5.3555  -0.8259   122.5513
 66      0.0000     0.0000E+00    0.0000E+00    1.800000E+10  0.05000  4.527E-06    0   0.4945   age213_m72            0.0000     2.5481E-05     5.6395  -0.9926   122.5597


## Synthesis Results - Average & Chains ##

# j      x_j: min, <> & last-chain-values for 1 ...  7 chains
  1      0.0000      1.7494      0.2995      2.8105      0.0000      0.4154      2.1289      3.2003      1.2743
  2      0.0000      1.2602      2.1774      0.0000      0.0000      0.0108      0.6040      0.6167      0.6335
  3      0.0000      1.6432      0.3783      7.5997      0.8243      2.9528      0.5389      0.0000      0.9109
  4      0.0000      0.9553      0.2309      3.1968      0.0000      2.2095      1.8935      2.1811      0.0000
  5      0.0000      1.8004      0.2524      2.6829      7.0398      2.2931      0.3291      0.5821      0.0000
  6      0.0000      1.8164      1.0332      0.0000      2.0613      0.0000      2.7705      5.5067      2.6000
  7      0.0000      1.9067      2.1831      1.8162      0.0000      2.5298      3.0112      2.2077      3.7487
  8      0.0000      1.7898      1.5469      1.7040      2.5892      0.0000      0.0000      2.7580      1.0949
  9      0.0000      1.4221      4.6131      0.0376      0.0000      0.0000      0.0000      4.0862      4.5408
 10      0.0000      1.5276      2.8789      4.7294      2.2557      0.0000      1.6796      0.0000      4.3767
 11      0.0000      1.7653      1.2764      2.2723      2.5749      1.3082      0.0000      2.0171      0.3768
 12      0.0000      1.2210      5.2818      3.1418      0.6949      0.7531      0.3811      0.0000      0.0000
 13      0.0000      1.5897      0.0000      0.0063      0.4474      5.5362      1.7552      1.2960      4.2234
 14      0.2346      1.2187      6.4985      1.3235      0.0000      4.6856      0.0000      0.8764      3.8847
 15      0.0000      1.7534      0.0000      4.2877      3.2194      3.3155      0.0000      0.7711      0.0000
 16      0.0000      3.5141      0.8873      0.5377      2.4691      0.0000      0.3368      0.0000      0.5430
 17      0.0000      1.1050      0.0000      0.0000      1.5097      0.0000      0.4640      0.0000      0.0000
 18      0.0000      1.3311      4.3669      1.0703      0.0000      0.2434      0.0000      0.6551      1.5874
 19      1.1761      1.9028      0.2439      1.0622      0.0000      0.0000      3.3316      0.6011      0.0000
 20      0.0000      1.2845      1.0877      1.0581      0.0000      4.2306      3.2162      0.0000      0.0000
 21      0.0000      1.8465      6.2479      1.5562      2.6147      1.3827      0.0000      2.0042      2.2847
 22      0.0000      2.0247      1.2696      1.0002      5.8015      1.5395      3.0452      3.1334      0.1873
 23      0.0000      1.8178      0.1991      0.9276      0.0000      3.2546      4.0302      0.0000      0.4129
 24      1.1550      1.8828      0.9072      1.9238      5.4135      0.0000      1.2232      2.9617      2.3404
 25      0.0947      1.3931      2.7570      3.8504      0.0000      2.3708      0.0000      0.5721      7.3558
 26      0.0000      1.5998      0.3179      0.5715      1.3280      3.9650      0.0000      5.3321      0.0000
 27      2.3372      1.7815      0.9465      1.1993      5.8576      2.2305      0.9713      4.8768      3.7653
 28      0.0000      1.5231      0.0000      0.0802      5.1698      3.4542      0.0000      7.8669      0.0000
 29      0.0000      1.2195      0.5073      0.9822      1.3269      0.0000      0.0000      0.0000      0.3973
 30      0.0000      1.1543      0.3512      5.1341      0.0000      6.0747      0.0000      0.0000      0.4184
 31      0.0000      1.2595      3.6723      0.7683      0.0000      0.7810      0.3715      7.5091      0.2138
 32      0.0000      1.8188      1.6666      0.0000      0.0000      1.7662      1.4053      1.4638      0.7072
 33      0.0000      1.8117      0.0000      0.0000      2.4382      0.0000      1.8914      0.0000      0.0320
 34      3.0350      3.0724      0.1885      1.2047      5.0471      0.0000      1.5675      1.0162      2.8759
 35      0.0000      1.1920      2.1190      2.0945      1.4439      2.3702      3.7622      2.7809      0.0000
 36      0.0000      1.7619      3.5907      3.7016      5.3635      2.2609      6.0958      2.2689      0.0000
 37      0.0000      2.0489      0.0000      0.8630      6.7537      1.1931      8.0450      0.0000      0.0000
 38      0.0000      1.7363      1.0226      0.7397      0.0000      4.9125      5.5785      0.6556      2.0420
 39      0.0000      1.3700      0.5568      0.0000      2.6221      4.6181      0.0000      0.6040      1.9269
 40      0.0000      1.1226      0.3128      2.5802      0.0000      1.2227      2.1041      0.0186      0.0000
 41      0.0000      1.3428      0.0000      0.0000      4.3650      0.0751      0.0000      0.3227      4.8029
 42      0.0000      1.5775      3.1978      1.7701      0.3390      9.6838      0.0000      2.4407      3.2659
 43      0.0000      2.1073      1.6144      4.0208      2.0206      1.0292      0.4212      0.0000      1.5756
 44      0.6904      1.8385      0.2920      3.0037      0.0000      3.8449      0.9935      5.7351      2.7222
 45      0.0000      1.3330      3.8094      0.0000      3.1960      2.7044      4.5671      0.8305      0.4016
 46      0.0000      1.4471      1.1087      0.8947      2.7807      1.2417      3.3040      0.5103      0.0000
