###################################################################
## OUTPUT of StarlightChains_v04.for    [Cid@UFSC - 01/Apr/2007] ##
###################################################################

## Some input info
KUG0210-078._26_34.txt                   [arq_obs]
Base.CB07.vall.4m                        [arq_base]
Masks.EmLines.NEW.gm                     [arq_masks]
StCv04.C11.config                        [arq_config]
   66                                    [N_base]
    0                                    [N_YAV_components = # of components with extra extinction!]
    0                                    [i_FitPowerLaw (1/0 = Yes/No)]
-9.99                                    [alpha_PowerLaw]
CCM                                      [red_law_option]
 1.458241                                [q_norm = A(l_norm)/A(V)]

## (Re)Sampling Parameters
 3741.00                                 [l_ini (A)]
 7218.00                                 [l_fin (A)]
    1.00                                 [dl    (A)]     (OBS: dl_cushion =    50.00 A)

## Normalization info
 4020.00                                 [l_norm (A) - for base]
 4010.00                                 [llow_norm (A) - window for f_obs]
 4060.00                                 [lupp_norm (A) - window for f_obs]
4.815146E-17                             [fobs_norm (in input units)]

## S/N
 3691.00                                 [llow_SN (A) - window for S/N]
 7268.00                                 [lupp_SN (A) - window for S/N]
   6.202                                 [S/N in S/N window]
   6.797                                 [S/N in norm. window]
   0.057                                 [S/N_err in S/N window]
   0.063                                 [S/N_err in norm. window]
  1.0000                                 [fscale_chi2]

## etc...
    -2007330                             [idum_orig]
  2432                                   [NOl_eff]
  2424                                   [Nl_eff]
     8    NSIGMA                         [Ntot_cliped & clip_method]
  3302110                                [Nglobal_steps]
   7                                     [N_chains]
  32                                     [NEX0s_base = N_base in EX0s-fits]
 0   0   1        8   2.0   5.585E+03    [Clip-Bug, RC-Crash & Burn-In warning-flags, n_censored_weights, wei_nsig_threshold & wei_limit]
    71     70.330     69.922      0.408  [idt_all, wdt_TotTime, wdt_UsrTime & wdt_SysTime (sec)]

## Synthesis Results - Best model ##

 4.60421E-05                             [chi2/Nl_eff]
     5.72346                             [adev (%)]

   119.58868                             [sum-of-x (%)]
 2.31895E-17                             [Flux_tot (units of input spectrum!)]
 3.24502E-13                             [Mini_tot (???)]
 1.79885E-13                             [Mcor_tot (???)]

 -36.21                                  [v0_min  (km/s)]
 453.98                                  [vd_min  (km/s)]
-0.6772                                  [AV_min  (mag)]
 0.0000                                  [YAV_min (mag)]

# j     x_j(%)      Mini_j(%)     Mcor_j(%)     age_j(yr)     Z_j      (L/M)_j    YAV?  Mstars   component_j        a/Fe...       SSP_chi2r SSP_adev(%)   SSP_AV   SSP_x(%)
  1      0.0000     0.0000E+00    0.0000E+00    1.000000E+06  0.00400  1.094E-02    0   1.0000   age020_m42            0.0000     1.0905E-04     8.9428   2.6830    98.5303
  2      0.0000     0.0000E+00    0.0000E+00    3.160000E+06  0.00400  4.007E-02    0   0.9999   age045_m42            0.0000     7.8409E-05     7.5853   1.9276   106.0828
  3      0.0000     0.0000E+00    0.0000E+00    5.010000E+06  0.00400  2.539E-02    0   0.9488   age055_m42            0.0000     9.0342E-05     8.1422   2.2624   103.1117
  4      0.0000     0.0000E+00    0.0000E+00    6.610000E+06  0.00400  2.620E-02    0   0.9220   age061_m42            0.0000     7.8513E-05     7.4857   1.8567   106.2244
  5      0.0000     0.0000E+00    0.0000E+00    1.000000E+07  0.00400  1.322E-02    0   0.8862   age070_m42            0.0000     8.9527E-05     8.3254   1.6261   106.7435
  6      0.0000     0.0000E+00    0.0000E+00    1.445000E+07  0.00400  7.883E-03    0   0.8571   age078_m42            0.0000     9.5051E-05     8.5376   1.9527   104.1004
  7      0.0000     0.0000E+00    0.0000E+00    2.512000E+07  0.00400  5.251E-03    0   0.8174   age090_m42            0.0000     8.9720E-05     8.4715   1.5027   107.1174
  8      0.0000     0.0000E+00    0.0000E+00    4.000000E+07  0.00400  3.649E-03    0   0.7851   age104_m42            0.0000     8.3759E-05     8.1223   1.2652   108.3544
  9      4.4745     8.6307E-02    1.1878E-01    5.500000E+07  0.00400  3.098E-03    0   0.7629   age110_m42            0.0000     7.7302E-05     7.4543   1.3895   109.3010
 10      0.0000     0.0000E+00    0.0000E+00    1.015200E+08  0.00400  2.228E-03    0   0.7207   age116_m42            0.0000     7.4739E-05     7.1346   1.3923   110.0861
 11      0.0000     0.0000E+00    0.0000E+00    2.861200E+08  0.00400  1.093E-03    0   0.6648   age125_m42            0.0000     7.4119E-05     7.0742   0.8280   112.9561
 12      7.6243     6.9062E-01    7.9297E-01    5.088000E+08  0.00400  6.597E-04    0   0.6365   age130_m42            0.0000     7.0367E-05     6.5975   0.7879   114.9684
 13      0.0000     0.0000E+00    0.0000E+00    1.434000E+09  0.00400  2.132E-04    0   0.5798   age139_m42            0.0000     5.4672E-05     6.0337  -0.2006   117.9336
 14      8.3097     8.4233E+00    8.1704E+00    4.250000E+09  0.00400  5.895E-05    0   0.5377   age158_m42            0.0000     4.8231E-05     5.8531  -0.6733   114.6620
 15      3.5656     6.0702E+00    5.7073E+00    7.500000E+09  0.00400  3.510E-05    0   0.5212   age171_m42            0.0000     4.9518E-05     5.8501  -0.8801   114.5194
 16      0.0000     0.0000E+00    0.0000E+00    1.300000E+10  0.00400  2.005E-05    0   0.5034   age193_m42            0.0000     5.3687E-05     6.1877  -1.0000   113.0507
 17      0.0000     0.0000E+00    0.0000E+00    1.800000E+10  0.00400  1.525E-05    0   0.4967   age213_m42            0.0000     5.4128E-05     6.3744  -1.0000   111.9953
 18      0.0000     0.0000E+00    0.0000E+00    1.000000E+06  0.00800  1.238E-02    0   1.0000   age020_m52            0.0000     1.0934E-04     8.9381   2.6785    98.7448
 19      0.0000     0.0000E+00    0.0000E+00    3.160000E+06  0.00800  3.074E-02    0   0.9966   age045_m52            0.0000     1.0610E-04     8.8307   2.5986    99.7418
 20      0.0000     0.0000E+00    0.0000E+00    5.010000E+06  0.00800  2.668E-02    0   0.9443   age055_m52            0.0000     9.4775E-05     8.3524   2.3510   102.0397
 21      0.0000     0.0000E+00    0.0000E+00    6.610000E+06  0.00800  2.136E-02    0   0.9177   age061_m52            0.0000     8.5072E-05     8.1866   1.1250   108.0887
 22      0.0000     0.0000E+00    0.0000E+00    1.000000E+07  0.00800  1.215E-02    0   0.8827   age070_m52            0.0000     9.7032E-05     8.8165   1.8189   106.0061
 23      0.0000     0.0000E+00    0.0000E+00    1.445000E+07  0.00800  8.717E-03    0   0.8552   age078_m52            0.0000     9.2757E-05     8.4612   1.9180   105.5469
 24      6.2694     6.6995E-02    9.8642E-02    2.512000E+07  0.00800  5.592E-03    0   0.8162   age090_m52            0.0000     8.8754E-05     8.4580   1.5653   108.3789
 25      0.0000     0.0000E+00    0.0000E+00    4.000000E+07  0.00800  3.896E-03    0   0.7841   age104_m52            0.0000     8.1285E-05     7.9163   1.4603   109.7598
 26      0.0000     0.0000E+00    0.0000E+00    1.015200E+08  0.00800  2.148E-03    0   0.7226   age116_m52            0.0000     7.3677E-05     7.2453   1.3711   110.5539
 27      0.0000     0.0000E+00    0.0000E+00    2.861200E+08  0.00800  9.925E-04    0   0.6683   age125_m52            0.0000     7.0977E-05     6.6883   0.8540   116.0089
 28      0.0000     0.0000E+00    0.0000E+00    9.047900E+08  0.00800  3.141E-04    0   0.6138   age135_m52            0.0000     5.7736E-05     5.8948  -0.0000   122.7038
 29     38.4724     1.3374E+01    1.4121E+01    1.434000E+09  0.00800  1.719E-04    0   0.5853   age139_m52            0.0000     4.7553E-05     5.7542  -0.5766   120.2016
 30      2.1365     1.6218E+00    1.6384E+00    2.500000E+09  0.00800  7.872E-05    0   0.5600   age150_m52            0.0000     4.7436E-05     5.8239  -0.8828   118.4865
 31      0.0000     0.0000E+00    0.0000E+00    4.250000E+09  0.00800  4.336E-05    0   0.5426   age158_m52            0.0000     4.9135E-05     5.8360  -0.8990   117.4325
 32      5.9313     1.1220E+01    1.0765E+01    6.250000E+09  0.00800  3.159E-05    0   0.5319   age166_m52            0.0000     5.6807E-05     6.6666  -1.0000   115.4300
 33      1.0571     4.6411E+00    4.2473E+00    1.300000E+10  0.00800  1.361E-05    0   0.5073   age193_m52            0.0000     1.4757E-04    15.8261  -1.0000   102.8416
 34      0.0000     0.0000E+00    0.0000E+00    1.800000E+10  0.00800  9.886E-06    0   0.4990   age213_m52            0.0000     1.9590E-04    18.3757  -1.0000    99.4039
 35      0.2456     9.5066E-04    1.7149E-03    1.000000E+06  0.02000  1.544E-02    0   1.0000   age020_m62            0.0000     1.1063E-04     8.9933   2.6762    98.9365
 36      0.0000     0.0000E+00    0.0000E+00    3.160000E+06  0.02000  3.762E-02    0   0.9858   age045_m62            0.0000     1.0980E-04     8.9590   2.6127    99.8967
 37      0.3848     6.9773E-04    1.1758E-03    5.010000E+06  0.02000  3.296E-02    0   0.9342   age055_m62            0.0000     8.5230E-05     7.8474   2.2099   104.7870
 38      0.0000     0.0000E+00    0.0000E+00    8.710000E+06  0.02000  1.154E-02    0   0.8861   age067_m62            0.0000     1.4538E-04    12.2467   1.3593   105.7145
 39      0.0000     0.0000E+00    0.0000E+00    1.445000E+07  0.02000  7.663E-03    0   0.8472   age078_m62            0.0000     1.0501E-04     9.5376   1.4891   107.4840
 40      0.0000     0.0000E+00    0.0000E+00    2.512000E+07  0.02000  4.532E-03    0   0.8099   age090_m62            0.0000     1.0533E-04     9.5835   1.4818   107.1211
 41      0.0000     0.0000E+00    0.0000E+00    5.500000E+07  0.02000  2.733E-03    0   0.7595   age110_m62            0.0000     8.2907E-05     7.9957   1.4457   108.9229
 42      0.0000     0.0000E+00    0.0000E+00    1.609000E+08  0.02000  1.369E-03    0   0.6985   age120_m62            0.0000     7.5539E-05     7.0671   1.2410   113.3761
 43      0.0000     0.0000E+00    0.0000E+00    2.861200E+08  0.02000  9.013E-04    0   0.6714   age125_m62            0.0000     7.6807E-05     6.8102   0.9651   117.5083
 44      0.0000     0.0000E+00    0.0000E+00    5.088000E+08  0.02000  5.028E-04    0   0.6449   age130_m62            0.0000     7.0997E-05     6.3153   0.5389   122.3224
 45      0.0000     0.0000E+00    0.0000E+00    9.047900E+08  0.02000  2.428E-04    0   0.6179   age135_m62            0.0000     5.2408E-05     5.8043  -0.0746   122.6613
 46      0.0000     0.0000E+00    0.0000E+00    1.434000E+09  0.02000  1.263E-04    0   0.5908   age139_m62            0.0000     4.8707E-05     5.7691  -0.5291   121.3297
 47      7.5767     7.5648E+00    7.7416E+00    2.500000E+09  0.02000  5.985E-05    0   0.5673   age150_m62            0.0000     5.2139E-05     6.2294  -0.9316   121.0240
 48      6.2925     1.1495E+01    1.1339E+01    4.250000E+09  0.02000  3.271E-05    0   0.5468   age158_m62            0.0000     7.5202E-05     8.5170  -1.0000   114.7444
 49      0.0000     0.0000E+00    0.0000E+00    1.000000E+10  0.02000  1.360E-05    0   0.5167   age181_m62            0.0000     1.7106E-04    15.9442  -1.0000   105.0864
 50      0.0000     0.0000E+00    0.0000E+00    1.800000E+10  0.02000  7.124E-06    0   0.5013   age213_m62            0.0000     2.6738E-04    20.7517  -1.0000    98.2033
 51      0.0000     0.0000E+00    0.0000E+00    1.000000E+06  0.05000  2.592E-02    0   0.9998   age020_m72            0.0000     1.1481E-04     9.1491   2.6726    98.8304
 52      0.0000     0.0000E+00    0.0000E+00    3.160000E+06  0.05000  4.845E-02    0   0.9577   age045_m72            0.0000     9.8545E-05     8.4879   2.4812   101.6633
 53      0.0000     0.0000E+00    0.0000E+00    5.010000E+06  0.05000  3.072E-02    0   0.9147   age055_m72            0.0000     1.0540E-04     8.9317   2.0459   104.2996
 54      0.0000     0.0000E+00    0.0000E+00    6.610000E+06  0.05000  1.455E-02    0   0.8877   age061_m72            0.0000     1.8031E-04    13.4672   1.4118   105.5099
 55      0.0000     0.0000E+00    0.0000E+00    1.000000E+07  0.05000  9.074E-03    0   0.8524   age070_m72            0.0000     1.0981E-04     8.8041   2.2121   104.0946
 56      0.0000     0.0000E+00    0.0000E+00    2.512000E+07  0.05000  4.250E-03    0   0.7902   age090_m72            0.0000     9.5159E-05     8.3785   1.9129   106.3047
 57      0.0000     0.0000E+00    0.0000E+00    4.000000E+07  0.05000  3.087E-03    0   0.7618   age104_m72            0.0000     9.3607E-05     8.3954   1.6868   107.9836
 58      0.0000     0.0000E+00    0.0000E+00    1.015200E+08  0.05000  1.700E-03    0   0.7096   age116_m72            0.0000     8.0011E-05     7.4358   1.3982   112.3199
 59      0.0000     0.0000E+00    0.0000E+00    2.861200E+08  0.05000  7.384E-04    0   0.6633   age125_m72            0.0000     7.2984E-05     6.4301   0.8057   120.1021
 60      0.0000     0.0000E+00    0.0000E+00    5.088000E+08  0.05000  3.819E-04    0   0.6372   age130_m72            0.0000     5.7803E-05     6.0289   0.2698   123.7365
 61      0.0000     0.0000E+00    0.0000E+00    9.047900E+08  0.05000  1.676E-04    0   0.6110   age135_m72            0.0000     5.0635E-05     6.3799  -0.4776   123.5745
 62      5.0601     3.4217E+00    3.6257E+00    1.434000E+09  0.05000  8.837E-05    0   0.5874   age139_m72            0.0000     5.3707E-05     6.3541  -0.9466   123.3364
 63     22.1881     3.1322E+01    3.1631E+01    2.500000E+09  0.05000  4.233E-05    0   0.5598   age150_m72            0.0000     8.1029E-05     8.7748  -1.0000   115.9218
 64      0.0000     0.0000E+00    0.0000E+00    6.250000E+09  0.05000  1.435E-05    0   0.5249   age166_m72            0.0000     2.0616E-04    18.1187  -1.0000   101.9458
 65      0.0000     0.0000E+00    0.0000E+00    1.300000E+10  0.05000  6.513E-06    0   0.5036   age193_m72            0.0000     3.5112E-04    24.2863  -1.0000    94.4211
 66      0.0000     0.0000E+00    0.0000E+00    1.800000E+10  0.05000  4.527E-06    0   0.4945   age213_m72            0.0000     4.5148E-04    27.5125  -1.0000    89.1710


## Synthesis Results - Average & Chains ##

# j      x_j: min, <> & last-chain-values for 1 ...  7 chains
  1      0.0000      1.1240      0.1510      0.6484      0.7321      0.9595      0.0735      0.7925      2.7663
  2      0.0000      1.3855      0.0000      0.0000     10.8863      0.6410      0.0000      4.1314      0.0000
  3      0.0000      1.4347      0.0000      4.6161      1.2460      5.4933      0.0189      0.0000      1.1188
  4      0.0000      1.3754      1.2578      2.3307      2.8468      0.2726      0.6368      0.1518      0.1135
  5      0.0000      1.2225      1.5541      0.1371     11.1509      0.0000      8.3999      1.7145      0.0000
  6      0.0000      1.5832      4.9002      0.5739      0.0000      0.0101      1.1141      0.0000      1.4316
  7      0.0000      1.3720      0.0000      1.4660      0.9445      3.5351      0.0000      3.3945      0.2877
  8      0.0000      1.1060      0.0000      0.0000      0.1238      0.6008      0.1860      4.2446      0.0000
  9      4.4745      1.4710      3.2281      0.2562      2.9931      1.4790      3.3724      0.0000      1.5903
 10      0.0000      1.4365      0.0000      2.6040      5.8460      0.0071      2.1327      2.1853      1.1935
 11      0.0000      1.5646      0.0853      1.4872      4.0288      3.1131      0.0000      1.1442      1.7026
 12      7.6243      3.1748      4.3783      2.8741      0.6666      0.0000      2.8261      0.2712      0.0855
 13      0.0000      1.3783      0.0000      0.0000      1.8259      1.4295      0.7071      0.0000      1.3793
 14      8.3097      1.9124      1.1380      0.5793      0.8449      3.6343      0.0465      0.6134      6.2894
 15      3.5656      1.3576      3.6580      0.0000      0.0000      0.3546      3.9270      1.2150      0.7276
 16      0.0000      1.4367      2.1790      3.5048      1.2758      1.3033      1.9822      3.0702      0.9804
 17      0.0000      1.3216      0.0000      0.0000      1.7967      1.3320      9.7509      0.0000      0.6183
 18      0.0000      1.5277      0.0000      0.0000      7.7201      2.8757      0.0000      4.4319      0.0000
 19      0.0000      1.1728      2.0960      0.0000      1.6957      3.2323      1.6368      1.0188      0.0000
 20      0.0000      1.4991      0.0000      0.1778      6.6394      0.0000      2.3860      0.0673      0.5836
 21      0.0000      1.3364      2.8118      0.3356      0.0000      0.0000      0.0000      2.4765      0.0000
 22      0.0000      1.7322      3.5412      1.1129      0.0000      5.7657      4.6411      0.4230      3.4248
 23      0.0000      1.2469      0.0000      0.2616      1.7546      2.8366      3.6035      0.0000      0.0000
 24      6.2694      1.6341      1.3627      0.1370      0.0000      5.9026      1.4529      1.2326      2.2515
 25      0.0000      1.5834      2.5607      0.5591      3.8440      1.2324      2.8102      0.0000      4.6712
 26      0.0000      1.6206      1.0437      0.0000      0.1275      2.7322      0.0000      0.5457      4.4491
 27      0.0000      1.5768      0.0000      5.7495      0.0000      1.6964      3.3445      1.4092      0.0000
 28      0.0000      2.0210      0.2959      1.8018      6.3201      0.0005      0.3488      1.2038      0.7257
 29     38.4724      1.2391      3.3670      4.9950      0.0000      0.5738      0.2114      0.1364      2.2172
 30      2.1365      1.5208      1.5002     13.7354      0.0636      0.0000      0.0938      0.0000      1.5250
 31      0.0000      1.6468      0.0000      4.1688      1.4123      1.3349      0.6621      2.4845      2.1482
 32      5.9313      1.3689      0.8664      0.0013      3.4755      1.4891      0.0000      3.3796      0.0000
 33      1.0571      1.6943      4.6154      0.8856      0.0000      1.2417      1.3360      0.4438      0.0000
 34      0.0000      2.1561      0.0000      0.0000      0.0000      3.7419      1.9323      0.0000      4.8275
 35      0.2456      1.5295      0.7330      0.0014      0.1965      1.3543      0.7386      5.2004      2.7926
 36      0.0000      1.3578      0.0000      7.9878      0.9881      0.0000      0.5961      2.0542      4.1459
 37      0.3848      1.6605      4.6389      1.8188      1.0359      0.0000      3.7853      0.4398      1.9070
 38      0.0000      1.4869      0.1665      0.0000      0.3025      1.5475      0.0000      3.3466      0.0000
 39      0.0000      1.5738      0.0000      0.7633      0.0669      1.6152      0.0000      7.7298      6.0658
 40      0.0000      1.0829      0.0185      3.5951      0.1070      0.4467      2.1813      0.0000      2.2745
 41      0.0000      1.5571      0.0000     11.2651      0.9064      0.7050      0.0000      2.0658      0.8943
 42      0.0000      1.8740      6.9244      7.6185      1.8852      0.7883      0.5105      1.7716      2.0609
 43      0.0000      1.2333      4.3145      0.8526      0.1544      0.0000      0.0000      0.3427      0.0000
 44      0.0000      1.8473      1.8026      0.0000      2.5189      4.9819      0.6292      0.0000      0.0000
 45      0.0000      1.6148      0.0000      2.9927      0.0000      4.1044      0.0000      1.1531      4.3795
 46      0.0000      1.6216      6.5126      1.5577      0.8200      7.8254      0.0000      1.3316      0.0000
