###################################################################
## OUTPUT of StarlightChains_v04.for    [Cid@UFSC - 01/Apr/2007] ##
###################################################################

## Some input info
KUG0210-078._25_30.txt                   [arq_obs]
Base.CB07.vall.4m                        [arq_base]
Masks.EmLines.NEW.gm                     [arq_masks]
StCv04.C11.config                        [arq_config]
   66                                    [N_base]
    0                                    [N_YAV_components = # of components with extra extinction!]
    0                                    [i_FitPowerLaw (1/0 = Yes/No)]
-9.99                                    [alpha_PowerLaw]
CCM                                      [red_law_option]
 1.458241                                [q_norm = A(l_norm)/A(V)]

## (Re)Sampling Parameters
 3741.00                                 [l_ini (A)]
 7218.00                                 [l_fin (A)]
    1.00                                 [dl    (A)]     (OBS: dl_cushion =    50.00 A)

## Normalization info
 4020.00                                 [l_norm (A) - for base]
 4010.00                                 [llow_norm (A) - window for f_obs]
 4060.00                                 [lupp_norm (A) - window for f_obs]
1.496402E-17                             [fobs_norm (in input units)]

## S/N
 3691.00                                 [llow_SN (A) - window for S/N]
 7268.00                                 [lupp_SN (A) - window for S/N]
   5.510                                 [S/N in S/N window]
   5.451                                 [S/N in norm. window]
   0.021                                 [S/N_err in S/N window]
   0.021                                 [S/N_err in norm. window]
  1.0000                                 [fscale_chi2]

## etc...
    -2007303                             [idum_orig]
  2430                                   [NOl_eff]
  2181                                   [Nl_eff]
   249    NSIGMA                         [Ntot_cliped & clip_method]
 11868220                                [Nglobal_steps]
   7                                     [N_chains]
  41                                     [NEX0s_base = N_base in EX0s-fits]
 0   0   1      249   2.0   1.044E+04    [Clip-Bug, RC-Crash & Burn-In warning-flags, n_censored_weights, wei_nsig_threshold & wei_limit]
   106    104.957    103.785      1.172  [idt_all, wdt_TotTime, wdt_UsrTime & wdt_SysTime (sec)]

## Synthesis Results - Best model ##

 8.47802E-05                             [chi2/Nl_eff]
    13.56270                             [adev (%)]

   116.13735                             [sum-of-x (%)]
 2.63081E-17                             [Flux_tot (units of input spectrum!)]
 6.68971E-13                             [Mini_tot (???)]
 3.37056E-13                             [Mcor_tot (???)]

 -23.13                                  [v0_min  (km/s)]
  41.48                                  [vd_min  (km/s)]
 0.3087                                  [AV_min  (mag)]
 0.0000                                  [YAV_min (mag)]

# j     x_j(%)      Mini_j(%)     Mcor_j(%)     age_j(yr)     Z_j      (L/M)_j    YAV?  Mstars   component_j        a/Fe...       SSP_chi2r SSP_adev(%)   SSP_AV   SSP_x(%)
  1      4.3509     1.3467E-02    2.6729E-02    1.000000E+06  0.00400  1.094E-02    0   1.0000   age020_m42            0.0000     1.0218E-04    16.4515   2.8900    98.5055
  2      0.0000     0.0000E+00    0.0000E+00    3.160000E+06  0.00400  4.007E-02    0   0.9999   age045_m42            0.0000     1.0253E-04    15.2433   2.3030    99.1393
  3      0.0000     0.0000E+00    0.0000E+00    5.010000E+06  0.00400  2.539E-02    0   0.9488   age055_m42            0.0000     9.6297E-05    16.3182   2.4583   103.8892
  4      0.0000     0.0000E+00    0.0000E+00    6.610000E+06  0.00400  2.620E-02    0   0.9220   age061_m42            0.0000     9.8012E-05    15.3689   2.1664   102.1119
  5      0.0000     0.0000E+00    0.0000E+00    1.000000E+07  0.00400  1.322E-02    0   0.8862   age070_m42            0.0000     9.2033E-05    14.3238   1.8499   106.4501
  6     23.8877     1.0261E-01    1.7455E-01    1.445000E+07  0.00400  7.883E-03    0   0.8571   age078_m42            0.0000     8.9772E-05    15.2283   2.0820   108.0105
  7      0.0487     3.1402E-04    5.0945E-04    2.512000E+07  0.00400  5.251E-03    0   0.8174   age090_m42            0.0000     8.8693E-05    14.2414   1.6904   108.5626
  8      0.0000     0.0000E+00    0.0000E+00    4.000000E+07  0.00400  3.649E-03    0   0.7851   age104_m42            0.0000     8.7955E-05    14.2330   1.4708   109.0935
  9      5.1645     5.6449E-02    8.5474E-02    5.500000E+07  0.00400  3.098E-03    0   0.7629   age110_m42            0.0000     9.0675E-05    14.4943   1.6608   107.0383
 10      0.0000     0.0000E+00    0.0000E+00    1.015200E+08  0.00400  2.228E-03    0   0.7207   age116_m42            0.0000     9.5315E-05    14.3473   1.7531   103.7920
 11      2.2601     7.0019E-02    9.2387E-02    2.861200E+08  0.00400  1.093E-03    0   0.6648   age125_m42            0.0000     9.8681E-05    13.1550   1.2986   101.5482
 12      0.0000     0.0000E+00    0.0000E+00    5.088000E+08  0.00400  6.597E-04    0   0.6365   age130_m42            0.0000     9.9009E-05    13.5564   1.2890   102.3187
 13      0.0000     0.0000E+00    0.0000E+00    1.434000E+09  0.00400  2.132E-04    0   0.5798   age139_m42            0.0000     8.9559E-05    13.9643   0.2221   109.2522
 14      0.0000     0.0000E+00    0.0000E+00    4.250000E+09  0.00400  5.895E-05    0   0.5377   age158_m42            0.0000     9.0110E-05    15.9149  -0.3545   110.9986
 15      0.0000     0.0000E+00    0.0000E+00    7.500000E+09  0.00400  3.510E-05    0   0.5212   age171_m42            0.0000     8.9615E-05    16.6157  -0.5867   112.2031
 16      2.7585     4.6587E+00    4.6546E+00    1.300000E+10  0.00400  2.005E-05    0   0.5034   age193_m42            0.0000     8.6549E-05    17.7810  -0.8409   115.7741
 17      0.0000     0.0000E+00    0.0000E+00    1.800000E+10  0.00400  1.525E-05    0   0.4967   age213_m42            0.0000     8.8395E-05    17.3134  -0.8240   113.3305
 18      0.0000     0.0000E+00    0.0000E+00    1.000000E+06  0.00800  1.238E-02    0   1.0000   age020_m52            0.0000     1.0265E-04    16.4698   2.8840    98.7507
 19      0.0000     0.0000E+00    0.0000E+00    3.160000E+06  0.00800  3.074E-02    0   0.9966   age045_m52            0.0000     1.0084E-04    16.6712   2.7753   101.0483
 20      0.0000     0.0000E+00    0.0000E+00    5.010000E+06  0.00800  2.668E-02    0   0.9443   age055_m52            0.0000     9.6070E-05    16.5753   2.4967   104.8406
 21      0.0000     0.0000E+00    0.0000E+00    6.610000E+06  0.00800  2.136E-02    0   0.9177   age061_m52            0.0000     9.2434E-05    14.5775   1.3200   109.1707
 22      3.2706     9.1151E-03    1.5969E-02    1.000000E+07  0.00800  1.215E-02    0   0.8827   age070_m52            0.0000     9.2282E-05    14.1447   2.0052   107.3485
 23      0.0000     0.0000E+00    0.0000E+00    1.445000E+07  0.00800  8.717E-03    0   0.8552   age078_m52            0.0000     9.1878E-05    14.8052   2.0865   107.6811
 24      1.2738     7.7133E-03    1.2495E-02    2.512000E+07  0.00800  5.592E-03    0   0.8162   age090_m52            0.0000     9.0064E-05    13.9024   1.7754   108.7439
 25      0.0000     0.0000E+00    0.0000E+00    4.000000E+07  0.00800  3.896E-03    0   0.7841   age104_m52            0.0000     8.9946E-05    14.0095   1.6969   108.9312
 26      0.0000     0.0000E+00    0.0000E+00    1.015200E+08  0.00800  2.148E-03    0   0.7226   age116_m52            0.0000     9.5007E-05    14.0045   1.7170   104.7480
 27      0.0000     0.0000E+00    0.0000E+00    2.861200E+08  0.00800  9.925E-04    0   0.6683   age125_m52            0.0000     9.9452E-05    13.4575   1.3511   103.2672
 28      0.0000     0.0000E+00    0.0000E+00    9.047900E+08  0.00800  3.141E-04    0   0.6138   age135_m52            0.0000     9.6022E-05    14.0359   0.4962   110.0887
 29      0.0000     0.0000E+00    0.0000E+00    1.434000E+09  0.00800  1.719E-04    0   0.5853   age139_m52            0.0000     9.1123E-05    15.2969  -0.2361   115.3861
 30      0.0000     0.0000E+00    0.0000E+00    2.500000E+09  0.00800  7.872E-05    0   0.5600   age150_m52            0.0000     9.1958E-05    17.0112  -0.5999   116.8702
 31      0.0000     0.0000E+00    0.0000E+00    4.250000E+09  0.00800  4.336E-05    0   0.5426   age158_m52            0.0000     9.2322E-05    17.0410  -0.6111   115.4521
 32      0.0000     0.0000E+00    0.0000E+00    6.250000E+09  0.00800  3.159E-05    0   0.5319   age166_m52            0.0000     9.0834E-05    18.2048  -0.8883   118.9053
 33     15.4757     3.8504E+01    3.8768E+01    1.300000E+10  0.00800  1.361E-05    0   0.5073   age193_m52            0.0000     1.0531E-04    26.7270  -1.0000   124.9390
 34     16.4487     5.6340E+01    5.5799E+01    1.800000E+10  0.00800  9.886E-06    0   0.4990   age213_m52            0.0000     1.2409E-04    35.3343  -1.0000   128.6054
 35      1.3047     2.8615E-03    5.6793E-03    1.000000E+06  0.02000  1.544E-02    0   1.0000   age020_m62            0.0000     1.0417E-04    16.4123   2.8914    98.4757
 36      0.0000     0.0000E+00    0.0000E+00    3.160000E+06  0.02000  3.762E-02    0   0.9858   age045_m62            0.0000     1.0037E-04    16.9956   2.7406   103.2094
 37      0.7893     8.1089E-04    1.5035E-03    5.010000E+06  0.02000  3.296E-02    0   0.9342   age055_m62            0.0000     9.8828E-05    16.1256   2.4524   103.4906
 38      0.0000     0.0000E+00    0.0000E+00    8.710000E+06  0.02000  1.154E-02    0   0.8861   age067_m62            0.0000     8.6920E-05    12.0670   1.4273   112.8451
 39      1.5308     6.7645E-03    1.1374E-02    1.445000E+07  0.02000  7.663E-03    0   0.8472   age078_m62            0.0000     8.7747E-05    13.6489   1.6083   112.1611
 40      0.0000     0.0000E+00    0.0000E+00    2.512000E+07  0.02000  4.532E-03    0   0.8099   age090_m62            0.0000     8.5170E-05    13.6782   1.5749   113.1902
 41      0.0000     0.0000E+00    0.0000E+00    5.500000E+07  0.02000  2.733E-03    0   0.7595   age110_m62            0.0000     9.0055E-05    14.0824   1.6681   108.8365
 42      0.0000     0.0000E+00    0.0000E+00    1.609000E+08  0.02000  1.369E-03    0   0.6985   age120_m62            0.0000     9.8363E-05    13.6063   1.6681   103.8664
 43      0.0000     0.0000E+00    0.0000E+00    2.861200E+08  0.02000  9.013E-04    0   0.6714   age125_m62            0.0000     9.9786E-05    13.4640   1.4685   104.5256
 44      0.0000     0.0000E+00    0.0000E+00    5.088000E+08  0.02000  5.028E-04    0   0.6449   age130_m62            0.0000     9.8185E-05    14.2422   1.0529   108.8396
 45      0.0000     0.0000E+00    0.0000E+00    9.047900E+08  0.02000  2.428E-04    0   0.6179   age135_m62            0.0000     9.6583E-05    15.1546   0.3618   113.0919
 46      0.0000     0.0000E+00    0.0000E+00    1.434000E+09  0.02000  1.263E-04    0   0.5908   age139_m62            0.0000     9.6429E-05    16.0486  -0.1679   115.5653
 47      0.0000     0.0000E+00    0.0000E+00    2.500000E+09  0.02000  5.985E-05    0   0.5673   age150_m62            0.0000     9.5172E-05    18.1115  -0.6819   121.0113
 48      0.0000     0.0000E+00    0.0000E+00    4.250000E+09  0.02000  3.271E-05    0   0.5468   age158_m62            0.0000     9.4177E-05    20.3537  -1.0000   127.2444
 49      0.0000     0.0000E+00    0.0000E+00    1.000000E+10  0.02000  1.360E-05    0   0.5167   age181_m62            0.0000     1.2623E-04    33.7307  -1.0000   135.7279
 50      0.0000     0.0000E+00    0.0000E+00    1.800000E+10  0.02000  7.124E-06    0   0.5013   age213_m62            0.0000     1.9178E-04    53.8317  -1.0000   144.0962
 51      0.0000     0.0000E+00    0.0000E+00    1.000000E+06  0.05000  2.592E-02    0   0.9998   age020_m72            0.0000     1.0734E-04    16.2135   2.9156    97.1699
 52      9.1752     6.4125E-03    1.2189E-02    3.160000E+06  0.05000  4.845E-02    0   0.9577   age045_m72            0.0000     9.7513E-05    17.2112   2.5921   105.9001
 53      0.0000     0.0000E+00    0.0000E+00    5.010000E+06  0.05000  3.072E-02    0   0.9147   age055_m72            0.0000     9.2745E-05    15.1339   2.1464   109.3501
 54     10.5473     2.4546E-02    4.3247E-02    6.610000E+06  0.05000  1.455E-02    0   0.8877   age061_m72            0.0000     8.8272E-05    12.7296   1.4640   113.3812
 55      0.0000     0.0000E+00    0.0000E+00    1.000000E+07  0.05000  9.074E-03    0   0.8524   age070_m72            0.0000     9.1308E-05    15.9403   2.2830   110.5766
 56      0.0000     0.0000E+00    0.0000E+00    2.512000E+07  0.05000  4.250E-03    0   0.7902   age090_m72            0.0000     8.8537E-05    14.9647   2.0391   110.4578
 57     17.8419     1.9571E-01    2.9591E-01    4.000000E+07  0.05000  3.087E-03    0   0.7618   age104_m72            0.0000     9.0699E-05    14.0358   1.9038   107.8871
 58      0.0000     0.0000E+00    0.0000E+00    1.015200E+08  0.05000  1.700E-03    0   0.7096   age116_m72            0.0000     9.8774E-05    13.2451   1.8262   102.6767
 59      0.0090     4.1375E-04    5.4470E-04    2.861200E+08  0.05000  7.384E-04    0   0.6633   age125_m72            0.0000     1.0132E-04    13.7000   1.3328   105.8572
 60      0.0000     0.0000E+00    0.0000E+00    5.088000E+08  0.05000  3.819E-04    0   0.6372   age130_m72            0.0000     9.8499E-05    14.9505   0.7244   112.9773
 61      0.0000     0.0000E+00    0.0000E+00    9.047900E+08  0.05000  1.676E-04    0   0.6110   age135_m72            0.0000     9.7389E-05    17.4380  -0.1641   120.1443
 62      0.0000     0.0000E+00    0.0000E+00    1.434000E+09  0.05000  8.837E-05    0   0.5874   age139_m72            0.0000     9.3844E-05    18.3845  -0.7094   124.0013
 63      0.0000     0.0000E+00    0.0000E+00    2.500000E+09  0.05000  4.233E-05    0   0.5598   age150_m72            0.0000     9.8086E-05    20.8039  -1.0000   129.1329
 64      0.0000     0.0000E+00    0.0000E+00    6.250000E+09  0.05000  1.435E-05    0   0.5249   age166_m72            0.0000     1.4041E-04    38.3662  -1.0000   135.2248
 65      0.0000     0.0000E+00    0.0000E+00    1.300000E+10  0.05000  6.513E-06    0   0.5036   age193_m72            0.0000     2.5369E-04    67.4168  -1.0000   149.2372
 66      0.0000     0.0000E+00    0.0000E+00    1.800000E+10  0.05000  4.527E-06    0   0.4945   age213_m72            0.0000     3.6759E-04    86.9016  -1.0000   156.4844


## Synthesis Results - Average & Chains ##

# j      x_j: min, <> & last-chain-values for 1 ...  7 chains
  1      4.3509     14.5145     14.2373     10.7439     13.3845      8.8417     12.3907     10.7944     11.1618
  2      0.0000      0.2234      0.9067      1.1131      0.5211      0.3970      1.4477      1.4784      0.1892
  3      0.0000      0.2084      0.0000      0.3215      0.0621      1.7901      0.2095      0.4825      1.7094
  4      0.0000      0.1784      0.3939      0.1780      0.0000      0.9265      0.1855      0.0375      1.6425
  5      0.0000      0.1559      1.1446      0.1961      0.0000      0.1929      0.2287      0.3307      0.2631
  6     23.8877      0.1879      0.5991      0.0407      0.0000      0.7097      0.5147      0.9693      0.0887
  7      0.0487      0.1617      0.3412      0.0626      0.0000      0.1838      2.0180      1.0051      0.0000
  8      0.0000      0.1505      0.3831      0.3033      0.4490      0.3423      0.2173      0.0876      0.4049
  9      5.1645      0.1704      0.2151      0.3291      0.7114      0.2709      0.3569      0.0000      0.4149
 10      0.0000      0.2535      0.0000      1.0114      1.9269      0.6127      0.4454      0.7870      1.6136
 11      2.2601      0.2322      0.7775      0.2610      0.4590      0.0000      0.9481      1.5417      0.2370
 12      0.0000      0.1404      0.3630      0.2280      1.1262      2.4464      0.0987      0.0368      0.0000
 13      0.0000      0.1870      1.0145      0.9267      0.0000      0.0000      0.5879      1.5134      0.0000
 14      0.0000      0.1614      0.0000      0.5670      0.1855      0.0000      0.0000      0.3132      0.0000
 15      0.0000      0.1959      0.7219      0.2439      0.0000      0.8042      0.0000      0.1476      1.0175
 16      2.7585     24.8740     15.6113     25.1302     21.3857     16.5896     17.5683     19.1839     15.6694
 17      0.0000      0.1780      0.0000      0.2408      0.0000      0.9697      0.0000      0.5117      0.1682
 18      0.0000      6.9287      4.8444      7.5338      7.0585      6.5132      6.4480      4.5492      7.2095
 19      0.0000      0.2232      1.3224      0.4148      0.5233      0.1613      0.2128      3.1251      0.3730
 20      0.0000      0.2385      0.0000      0.7368      0.5316      0.3686      0.0000      0.0000      0.0000
 21      0.0000      0.1996      1.0363      0.0185      0.6432      0.0000      0.8956      1.4397      0.1254
 22      3.2706      0.1360      0.1260      0.0000      0.0000      0.6663      0.3172      0.0000      0.0000
 23      0.0000      0.1249      1.0784      0.0000      0.1329      0.4578      0.0000      1.0486      0.1448
 24      1.2738      0.2104      2.6668      0.6979      0.0000      0.1849      0.9397      0.0000      0.5942
 25      0.0000      0.1859      0.6364      0.0310      0.1433      0.2645      0.0000      0.1569      0.0000
 26      0.0000      0.1844      0.7550      0.8276      0.6393      0.1513      0.1901      0.9840      0.6339
 27      0.0000      0.2108      0.7604      0.2101      1.3193      0.5478      0.4437      0.7732      0.6667
 28      0.0000      0.2125      0.8918      0.0407      0.2857      1.6901      0.4910      0.3349      0.9099
 29      0.0000      0.1561      0.9183      0.8978      0.0928      0.2375      0.2725      0.2001      0.1688
 30      0.0000      0.1687      0.6134      0.6175      0.2735      0.5499      0.1597      0.0594      0.5164
 31      0.0000      0.1668      0.3263      0.2292      0.1431      0.3033      0.3971      0.4664      0.0338
 32      0.0000      0.4344      0.0000      0.5244      0.6530      0.6223      0.8194      0.6698      0.0000
 33     15.4757     27.8742     25.9873     24.6686     23.5232     26.5836     26.8749     27.3395     28.4886
 34     16.4487     14.9048     12.4712     14.1102     12.9315      9.9095      8.6410     11.3763     10.4129
 35      1.3047      0.8178      0.9549      0.9929      1.9446      0.9088      1.0227      0.7709      0.7561
 36      0.0000      0.1745      0.0000      0.0156      1.2010      0.3560      0.7348      0.0000      0.1942
 37      0.7893      0.1811      0.3113      0.1942      0.1216      1.9219      0.5390      0.0000      1.3737
 38      0.0000      0.2128      0.8328      0.1667      0.1953      1.3046      0.0000      0.8409      0.0000
 39      1.5308      0.2099      1.1084      0.2343      0.0000      0.0000      0.4370      0.6873      0.8091
 40      0.0000      0.2166      0.8390      0.3682      0.3626      1.1678      0.2288      1.1823      1.5561
 41      0.0000      0.1959      1.3232      0.8641      0.1211      1.5403      1.0160      0.1167      1.4144
 42      0.0000      0.1725      0.0000      0.5295      0.0000      0.9443      1.5336      0.1476      0.0000
 43      0.0000      0.1684      0.5627      0.3547      0.1012      0.9196      0.3659      0.0000      0.4189
 44      0.0000      0.1317      0.9508      0.5310      0.0000      0.0447      0.8990      0.0000      0.2360
 45      0.0000      0.2558      0.7673      0.1990      0.4731      0.3544      2.2904      0.1852      2.1414
 46      0.0000      0.2186      1.2940      0.0000      0.0270      0.3212      2.3828      0.3385      0.9121
