###################################################################
## OUTPUT of StarlightChains_v04.for    [Cid@UFSC - 01/Apr/2007] ##
###################################################################

## Some input info
KUG0210-078._28_23.txt                   [arq_obs]
Base.CB07.vall.4m                        [arq_base]
Masks.EmLines.NEW.gm                     [arq_masks]
StCv04.C11.config                        [arq_config]
   66                                    [N_base]
    0                                    [N_YAV_components = # of components with extra extinction!]
    0                                    [i_FitPowerLaw (1/0 = Yes/No)]
-9.99                                    [alpha_PowerLaw]
CCM                                      [red_law_option]
 1.458241                                [q_norm = A(l_norm)/A(V)]

## (Re)Sampling Parameters
 3741.00                                 [l_ini (A)]
 7218.00                                 [l_fin (A)]
    1.00                                 [dl    (A)]     (OBS: dl_cushion =    50.00 A)

## Normalization info
 4020.00                                 [l_norm (A) - for base]
 4010.00                                 [llow_norm (A) - window for f_obs]
 4060.00                                 [lupp_norm (A) - window for f_obs]
1.061759E-17                             [fobs_norm (in input units)]

## S/N
 3691.00                                 [llow_SN (A) - window for S/N]
 7268.00                                 [lupp_SN (A) - window for S/N]
   5.002                                 [S/N in S/N window]
   5.163                                 [S/N in norm. window]
   0.014                                 [S/N_err in S/N window]
   0.014                                 [S/N_err in norm. window]
  1.0000                                 [fscale_chi2]

## etc...
    -2007371                             [idum_orig]
  2418                                   [NOl_eff]
  2134                                   [Nl_eff]
   284    NSIGMA                         [Ntot_cliped & clip_method]
  2941470                                [Nglobal_steps]
   7                                     [N_chains]
  30                                     [NEX0s_base = N_base in EX0s-fits]
 0   0   1      284   2.0   7.959E+03    [Clip-Bug, RC-Crash & Burn-In warning-flags, n_censored_weights, wei_nsig_threshold & wei_limit]
    34     33.882     33.440      0.443  [idt_all, wdt_TotTime, wdt_UsrTime & wdt_SysTime (sec)]

## Synthesis Results - Best model ##

 4.03706E-06                             [chi2/Nl_eff]
     9.48594                             [adev (%)]

   103.76316                             [sum-of-x (%)]
 9.79403E-18                             [Flux_tot (units of input spectrum!)]
 4.33492E-13                             [Mini_tot (???)]
 2.21442E-13                             [Mcor_tot (???)]

  81.71                                  [v0_min  (km/s)]
 220.76                                  [vd_min  (km/s)]
-0.0876                                  [AV_min  (mag)]
 0.0000                                  [YAV_min (mag)]

# j     x_j(%)      Mini_j(%)     Mcor_j(%)     age_j(yr)     Z_j      (L/M)_j    YAV?  Mstars   component_j        a/Fe...       SSP_chi2r SSP_adev(%)   SSP_AV   SSP_x(%)
  1      2.0949     4.1695E-03    8.1621E-03    1.000000E+06  0.00400  1.094E-02    0   1.0000   age020_m42            0.0000     5.2102E-06    11.5207   3.0088    90.5997
  2      0.0000     0.0000E+00    0.0000E+00    3.160000E+06  0.00400  4.007E-02    0   0.9999   age045_m42            0.0000     5.0593E-06    11.1199   2.3541    93.9855
  3      0.0000     0.0000E+00    0.0000E+00    5.010000E+06  0.00400  2.539E-02    0   0.9488   age055_m42            0.0000     5.0591E-06    11.2136   2.6401    93.0449
  4      0.0000     0.0000E+00    0.0000E+00    6.610000E+06  0.00400  2.620E-02    0   0.9220   age061_m42            0.0000     4.9624E-06    10.9667   2.2793    94.3131
  5      0.0000     0.0000E+00    0.0000E+00    1.000000E+07  0.00400  1.322E-02    0   0.8862   age070_m42            0.0000     4.6944E-06    10.4242   1.9778    97.6555
  6      0.0000     0.0000E+00    0.0000E+00    1.445000E+07  0.00400  7.883E-03    0   0.8571   age078_m42            0.0000     4.7770E-06    10.5881   2.2898    95.6948
  7      0.0000     0.0000E+00    0.0000E+00    2.512000E+07  0.00400  5.251E-03    0   0.8174   age090_m42            0.0000     4.6700E-06    10.3521   1.8499    98.2176
  8      0.0000     0.0000E+00    0.0000E+00    4.000000E+07  0.00400  3.649E-03    0   0.7851   age104_m42            0.0000     4.6324E-06    10.3110   1.6348    98.4886
  9      0.0000     0.0000E+00    0.0000E+00    5.500000E+07  0.00400  3.098E-03    0   0.7629   age110_m42            0.0000     4.7438E-06    10.4707   1.8093    97.3832
 10      0.0000     0.0000E+00    0.0000E+00    1.015200E+08  0.00400  2.228E-03    0   0.7207   age116_m42            0.0000     4.8016E-06    10.5477   1.8440    96.8374
 11      9.9973     1.9916E-01    2.5919E-01    2.861200E+08  0.00400  1.093E-03    0   0.6648   age125_m42            0.0000     4.6638E-06    10.2255   1.2816    99.5154
 12      0.0000     0.0000E+00    0.0000E+00    5.088000E+08  0.00400  6.597E-04    0   0.6365   age130_m42            0.0000     4.6678E-06    10.2494   1.2949    99.1943
 13      0.0000     0.0000E+00    0.0000E+00    1.434000E+09  0.00400  2.132E-04    0   0.5798   age139_m42            0.0000     4.3269E-06     9.8510   0.3525   100.0194
 14      0.0000     0.0000E+00    0.0000E+00    4.250000E+09  0.00400  5.895E-05    0   0.5377   age158_m42            0.0000     4.2368E-06     9.9901  -0.0936    96.1904
 15      0.0000     0.0000E+00    0.0000E+00    7.500000E+09  0.00400  3.510E-05    0   0.5212   age171_m42            0.0000     4.2255E-06     9.9966  -0.2754    95.1933
 16      0.0000     0.0000E+00    0.0000E+00    1.300000E+10  0.00400  2.005E-05    0   0.5034   age193_m42            0.0000     4.2381E-06    10.0318  -0.4380    94.4812
 17      0.0000     0.0000E+00    0.0000E+00    1.800000E+10  0.00400  1.525E-05    0   0.4967   age213_m42            0.0000     4.2445E-06    10.0191  -0.4640    94.2049
 18     11.9072     2.0942E-02    4.0996E-02    1.000000E+06  0.00800  1.238E-02    0   1.0000   age020_m52            0.0000     5.2093E-06    11.5196   3.0051    90.7776
 19      0.0000     0.0000E+00    0.0000E+00    3.160000E+06  0.00800  3.074E-02    0   0.9966   age045_m52            0.0000     5.1831E-06    11.4999   2.9334    91.4050
 20      0.0000     0.0000E+00    0.0000E+00    5.010000E+06  0.00800  2.668E-02    0   0.9443   age055_m52            0.0000     5.0436E-06    11.2203   2.7118    92.6532
 21      0.0000     0.0000E+00    0.0000E+00    6.610000E+06  0.00800  2.136E-02    0   0.9177   age061_m52            0.0000     4.4649E-06    10.2599   1.4730    99.0066
 22      0.0000     0.0000E+00    0.0000E+00    1.000000E+07  0.00800  1.215E-02    0   0.8827   age070_m52            0.0000     4.6798E-06    10.3428   2.1404    98.1972
 23      0.0000     0.0000E+00    0.0000E+00    1.445000E+07  0.00800  8.717E-03    0   0.8552   age078_m52            0.0000     4.7376E-06    10.4905   2.2601    96.8601
 24      1.2754     4.9659E-03    7.9345E-03    2.512000E+07  0.00800  5.592E-03    0   0.8162   age090_m52            0.0000     4.6541E-06    10.2476   1.9194    99.1701
 25      0.0000     0.0000E+00    0.0000E+00    4.000000E+07  0.00800  3.896E-03    0   0.7841   age104_m52            0.0000     4.6621E-06    10.2585   1.8485    99.0954
 26      0.0000     0.0000E+00    0.0000E+00    1.015200E+08  0.00800  2.148E-03    0   0.7226   age116_m52            0.0000     4.6904E-06    10.3760   1.8070    97.8940
 27      2.1343     4.6823E-02    6.1257E-02    2.861200E+08  0.00800  9.925E-04    0   0.6683   age125_m52            0.0000     4.6098E-06    10.2015   1.3579   100.2338
 28      0.0000     0.0000E+00    0.0000E+00    9.047900E+08  0.00800  3.141E-04    0   0.6138   age135_m52            0.0000     4.4110E-06     9.9280   0.6131   101.8457
 29      0.0000     0.0000E+00    0.0000E+00    1.434000E+09  0.00800  1.719E-04    0   0.5853   age139_m52            0.0000     4.2053E-06     9.7042   0.0148   100.5639
 30      0.0000     0.0000E+00    0.0000E+00    2.500000E+09  0.00800  7.872E-05    0   0.5600   age150_m52            0.0000     4.2115E-06     9.9128  -0.2440    97.3415
 31      4.8278     2.4243E+00    2.5751E+00    4.250000E+09  0.00800  4.336E-05    0   0.5426   age158_m52            0.0000     4.2194E-06     9.9367  -0.2588    96.3987
 32      0.0000     0.0000E+00    0.0000E+00    6.250000E+09  0.00800  3.159E-05    0   0.5319   age166_m52            0.0000     4.2500E-06    10.0109  -0.4494    95.8150
 33      0.0000     0.0000E+00    0.0000E+00    1.300000E+10  0.00800  1.361E-05    0   0.5073   age193_m52            0.0000     4.3557E-06    10.1573  -0.9055    94.6208
 34      9.6751     2.1309E+01    2.0816E+01    1.800000E+10  0.00800  9.886E-06    0   0.4990   age213_m52            0.0000     4.4891E-06    10.3272  -1.0000    93.5280
 35      3.3397     4.7098E-03    9.2198E-03    1.000000E+06  0.02000  1.544E-02    0   1.0000   age020_m62            0.0000     5.2128E-06    11.5281   2.9992    91.0667
 36      0.0000     0.0000E+00    0.0000E+00    3.160000E+06  0.02000  3.762E-02    0   0.9858   age045_m62            0.0000     5.1884E-06    11.5330   2.9357    91.9445
 37      0.0000     0.0000E+00    0.0000E+00    5.010000E+06  0.02000  3.296E-02    0   0.9342   age055_m62            0.0000     5.0471E-06    11.1867   2.6119    93.6935
 38      0.0000     0.0000E+00    0.0000E+00    8.710000E+06  0.02000  1.154E-02    0   0.8861   age067_m62            0.0000     4.5966E-06    10.0908   1.5284   104.8016
 39      0.0991     2.8156E-04    4.6695E-04    1.445000E+07  0.02000  7.663E-03    0   0.8472   age078_m62            0.0000     4.5584E-06    10.0744   1.7745   101.2399
 40      0.0000     0.0000E+00    0.0000E+00    2.512000E+07  0.02000  4.532E-03    0   0.8099   age090_m62            0.0000     4.5818E-06    10.0660   1.7681   100.9455
 41      0.0000     0.0000E+00    0.0000E+00    5.500000E+07  0.02000  2.733E-03    0   0.7595   age110_m62            0.0000     4.6049E-06    10.1870   1.8211    98.8323
 42      0.0000     0.0000E+00    0.0000E+00    1.609000E+08  0.02000  1.369E-03    0   0.6985   age120_m62            0.0000     4.6641E-06    10.2773   1.6986    99.6433
 43      2.4255     5.8597E-02    7.7016E-02    2.861200E+08  0.02000  9.013E-04    0   0.6714   age125_m62            0.0000     4.6481E-06    10.2226   1.4767   101.2160
 44      0.0000     0.0000E+00    0.0000E+00    5.088000E+08  0.02000  5.028E-04    0   0.6449   age130_m62            0.0000     4.6399E-06    10.2452   1.1396   101.8501
 45      0.0000     0.0000E+00    0.0000E+00    9.047900E+08  0.02000  2.428E-04    0   0.6179   age135_m62            0.0000     4.3507E-06     9.9886   0.5645   100.6850
 46      0.0000     0.0000E+00    0.0000E+00    1.434000E+09  0.02000  1.263E-04    0   0.5908   age139_m62            0.0000     4.2058E-06     9.8792   0.1162    99.3959
 47      0.0000     0.0000E+00    0.0000E+00    2.500000E+09  0.02000  5.985E-05    0   0.5673   age150_m62            0.0000     4.2748E-06    10.0499  -0.2476    97.8083
 48      0.0000     0.0000E+00    0.0000E+00    4.250000E+09  0.02000  3.271E-05    0   0.5468   age158_m62            0.0000     4.4303E-06    10.2832  -0.5391    96.2551
 49      0.0000     0.0000E+00    0.0000E+00    1.000000E+10  0.02000  1.360E-05    0   0.5167   age181_m62            0.0000     4.6806E-06    10.5188  -0.8665    94.8798
 50      0.0000     0.0000E+00    0.0000E+00    1.800000E+10  0.02000  7.124E-06    0   0.5013   age213_m62            0.0000     4.9949E-06    10.5566  -1.0000    91.5541
 51      2.7756     2.3316E-03    4.5635E-03    1.000000E+06  0.05000  2.592E-02    0   0.9998   age020_m72            0.0000     5.2253E-06    11.5395   2.9845    91.3565
 52      0.0000     0.0000E+00    0.0000E+00    3.160000E+06  0.05000  4.845E-02    0   0.9577   age045_m72            0.0000     5.1698E-06    11.4570   2.8411    92.2886
 53      0.0000     0.0000E+00    0.0000E+00    5.010000E+06  0.05000  3.072E-02    0   0.9147   age055_m72            0.0000     4.7478E-06    10.5031   2.3510    97.2728
 54     19.5531     2.9261E-02    5.0848E-02    6.610000E+06  0.05000  1.455E-02    0   0.8877   age061_m72            0.0000     5.2400E-06    11.4992   1.5320   107.4763
 55      0.0000     0.0000E+00    0.0000E+00    1.000000E+07  0.05000  9.074E-03    0   0.8524   age070_m72            0.0000     4.9933E-06    11.1495   2.5173    97.2536
 56      0.0000     0.0000E+00    0.0000E+00    2.512000E+07  0.05000  4.250E-03    0   0.7902   age090_m72            0.0000     4.8352E-06    10.5783   2.2564    97.7899
 57      0.0000     0.0000E+00    0.0000E+00    4.000000E+07  0.05000  3.087E-03    0   0.7618   age104_m72            0.0000     4.8200E-06    10.4510   2.0385    99.1227
 58      0.0000     0.0000E+00    0.0000E+00    1.015200E+08  0.05000  1.700E-03    0   0.7096   age116_m72            0.0000     4.7038E-06    10.2517   1.8299    99.7730
 59      0.0000     0.0000E+00    0.0000E+00    2.861200E+08  0.05000  7.384E-04    0   0.6633   age125_m72            0.0000     4.6207E-06    10.1388   1.3703   101.3819
 60      0.0000     0.0000E+00    0.0000E+00    5.088000E+08  0.05000  3.819E-04    0   0.6372   age130_m72            0.0000     4.4820E-06    10.0813   0.9062   101.6460
 61      0.0000     0.0000E+00    0.0000E+00    9.047900E+08  0.05000  1.676E-04    0   0.6110   age135_m72            0.0000     4.3374E-06    10.1570   0.2185    99.3498
 62      0.0000     0.0000E+00    0.0000E+00    1.434000E+09  0.05000  8.837E-05    0   0.5874   age139_m72            0.0000     4.2603E-06     9.9693  -0.2373    98.7719
 63      0.0000     0.0000E+00    0.0000E+00    2.500000E+09  0.05000  4.233E-05    0   0.5598   age150_m72            0.0000     4.5002E-06    10.3513  -0.5353    96.8741
 64     20.0623     3.0441E+01    3.1280E+01    6.250000E+09  0.05000  1.435E-05    0   0.5249   age166_m72            0.0000     4.7858E-06    10.6285  -0.9613    94.3731
 65     13.5960     4.5454E+01    4.4810E+01    1.300000E+10  0.05000  6.513E-06    0   0.5036   age193_m72            0.0000     5.5300E-06    10.5019  -1.0000    87.5456
 66      0.0000     0.0000E+00    0.0000E+00    1.800000E+10  0.05000  4.527E-06    0   0.4945   age213_m72            0.0000     6.3437E-06    10.8638  -1.0000    82.3366


## Synthesis Results - Average & Chains ##

# j      x_j: min, <> & last-chain-values for 1 ...  7 chains
  1      2.0949      2.2763      2.8434      2.7526      3.0041      2.8240      3.0437      3.0102      2.7887
  2      0.0000      0.5397      0.0932      0.0000      0.6122      0.1079      0.1941      0.0518      0.0249
  3      0.0000      0.5746      0.1251      0.3506      0.2406      0.0033      0.2455      0.1551      0.1396
  4      0.0000      0.8380      0.1015      0.4073      0.0000      0.0633      0.1329      0.0520      0.0000
  5      0.0000      0.5698      0.1721      0.0000      0.5500      0.5465      0.0414      0.0000      0.7762
  6      0.0000      0.4651      0.0507      0.1212      0.0000      0.0000      0.0000      0.3901      0.0000
  7      0.0000      0.7147      0.0000      0.7511      0.0304      0.1603      0.1235      0.0028      0.0000
  8      0.0000      0.6287      0.3121      0.0243      0.4803      0.1655      0.1533      0.0000      0.1300
  9      0.0000      0.5945      0.0000      0.2454      0.5335      0.0068      0.0971      0.1085      0.0743
 10      0.0000      0.6190      0.3586      0.0000      0.1535      0.0503      0.0375      0.4008      0.0000
 11      9.9973      0.6778      0.0856      0.0000      0.5884      0.1681      0.0000      0.0000      0.1224
 12      0.0000      1.1288      0.3505      0.0260      0.3898      0.0000      0.0000      0.1110      0.3912
 13      0.0000      0.5738      0.0000      0.0126      0.0000      0.1062      0.0537      0.0000      0.0000
 14      0.0000      0.6133      0.0577      0.0129      0.0000      0.0652      0.0422      0.2071      0.0824
 15      0.0000      0.6656      0.0972      0.0678      0.2729      0.1112      0.2663      0.0844      0.0000
 16      0.0000      0.4503      0.0000      0.5710      0.0917      0.0120      0.0682      0.4567      0.2189
 17      0.0000      0.6153      0.3142      0.1079      0.0000      0.0746      0.2070      0.2280      0.0000
 18     11.9072      1.6476      2.3411      2.5802      1.7793      2.3359      2.4058      2.3240      2.1606
 19      0.0000      0.5080      0.2316      0.0000      0.1658      0.1265      0.2843      0.3541      0.0000
 20      0.0000      0.6380      0.0000      0.0080      0.1755      0.4504      0.0978      0.2285      0.6263
 21      0.0000      0.7152      0.1111      0.0000      0.0135      0.1131      0.0481      0.0417      0.4496
 22      0.0000      0.7820      0.2857      0.2895      0.0026      0.0225      0.0601      0.0968      0.1561
 23      0.0000      0.6185      0.0734      0.0220      1.0012      0.1672      0.1352      0.1953      0.0887
 24      1.2754      0.6041      0.0497      0.2551      0.2684      0.0109      0.1602      0.0220      0.0000
 25      0.0000      0.5004      0.0238      0.0000      0.0840      0.3253      0.0201      0.0491      0.3885
 26      0.0000      0.6172      0.4306      0.0316      0.0000      0.0000      0.4743      0.0923      0.0000
 27      2.1343      0.6791      0.0010      0.0000      0.3660      0.1399      0.0414      0.0000      0.1988
 28      0.0000      0.8024      0.0511      0.0585      0.3769      0.0226      0.0216      0.0734      0.4081
 29      0.0000      0.6124      0.1821      0.3654      0.0000      0.0000      0.0000      0.0559      0.0000
 30      0.0000      0.6988      0.1164      0.0972      0.0893      0.2147      0.1732      0.3782      0.0000
 31      4.8278      0.6677      0.0464      0.0496      0.2139      0.0000      0.4285      0.0560      0.0627
 32      0.0000      0.7066      0.0000      0.2140      0.0000      0.0000      0.1092      0.2625      0.0000
 33      0.0000      0.7462      0.0194      0.1166      0.4226      0.1879      0.0000      0.3272      0.3415
 34      9.6751      0.7603      0.0252      0.0382      0.7202      0.2245      0.0338      0.0528      0.0000
 35      3.3397      1.5819      1.8795      1.7133      1.6191      1.6543      1.8236      2.2533      1.8586
 36      0.0000      0.6279      0.0673      0.0000      0.0755      0.0000      0.0000      0.0000      0.0000
 37      0.0000      0.8087      0.1342      0.2246      0.0677      0.3047      0.3987      0.5576      0.1648
 38      0.0000      0.8563      0.0000      0.0192      0.1913      0.3282      0.2765      0.0000      0.0000
 39      0.0991      0.5975      0.0011      0.0000      0.3708      0.1791      0.0000      0.0724      0.0269
 40      0.0000      0.6685      0.0000      0.0993      0.1141      0.0522      0.2531      0.2242      0.3352
 41      0.0000      0.5203      0.2135      0.0333      0.0803      0.0000      0.0867      0.3302      0.0000
 42      0.0000      0.4603      0.0781      0.0410      0.0757      0.0000      0.0000      0.2453      0.0000
 43      2.4255      0.7679      0.0000      0.0000      0.1847      0.0799      0.1124      0.1326      0.0000
 44      0.0000      1.5081      1.7027      1.7623      1.6228      1.7138      1.3791      1.5634      1.1543
 45      0.0000      0.4574      0.2296      0.1402      0.0703      0.0493      0.0344      0.4669      0.1434
 46      0.0000      0.4397      0.1221      0.0000      0.1118      0.0000      0.0120      0.0000      0.0207
