###################################################################
## OUTPUT of StarlightChains_v04.for    [Cid@UFSC - 01/Apr/2007] ##
###################################################################

## Some input info
KUG0210-078._31_30.txt                   [arq_obs]
Base.CB07.vall.4m                        [arq_base]
Masks.EmLines.NEW.gm                     [arq_masks]
StCv04.C11.config                        [arq_config]
   66                                    [N_base]
    0                                    [N_YAV_components = # of components with extra extinction!]
    0                                    [i_FitPowerLaw (1/0 = Yes/No)]
-9.99                                    [alpha_PowerLaw]
CCM                                      [red_law_option]
 1.458241                                [q_norm = A(l_norm)/A(V)]

## (Re)Sampling Parameters
 3741.00                                 [l_ini (A)]
 7218.00                                 [l_fin (A)]
    1.00                                 [dl    (A)]     (OBS: dl_cushion =    50.00 A)

## Normalization info
 4020.00                                 [l_norm (A) - for base]
 4010.00                                 [llow_norm (A) - window for f_obs]
 4060.00                                 [lupp_norm (A) - window for f_obs]
8.689776E-17                             [fobs_norm (in input units)]

## S/N
 3691.00                                 [llow_SN (A) - window for S/N]
 7268.00                                 [lupp_SN (A) - window for S/N]
   6.487                                 [S/N in S/N window]
   6.781                                 [S/N in norm. window]
   0.154                                 [S/N_err in S/N window]
   0.161                                 [S/N_err in norm. window]
  1.0000                                 [fscale_chi2]

## etc...
    -2007455                             [idum_orig]
  2432                                   [NOl_eff]
  1879                                   [Nl_eff]
   553    NSIGMA                         [Ntot_cliped & clip_method]
 15393490                                [Nglobal_steps]
   7                                     [N_chains]
  17                                     [NEX0s_base = N_base in EX0s-fits]
 0   0   1        0   2.0   9.117E+04    [Clip-Bug, RC-Crash & Burn-In warning-flags, n_censored_weights, wei_nsig_threshold & wei_limit]
   110    109.291    108.321      0.970  [idt_all, wdt_TotTime, wdt_UsrTime & wdt_SysTime (sec)]

## Synthesis Results - Best model ##

 3.97319E-05                             [chi2/Nl_eff]
     2.47996                             [adev (%)]

   102.01380                             [sum-of-x (%)]
 5.26418E-17                             [Flux_tot (units of input spectrum!)]
 1.54969E-12                             [Mini_tot (???)]
 8.35180E-13                             [Mcor_tot (???)]

  60.51                                  [v0_min  (km/s)]
 164.59                                  [vd_min  (km/s)]
-0.3880                                  [AV_min  (mag)]
 0.0000                                  [YAV_min (mag)]

# j     x_j(%)      Mini_j(%)     Mcor_j(%)     age_j(yr)     Z_j      (L/M)_j    YAV?  Mstars   component_j        a/Fe...       SSP_chi2r SSP_adev(%)   SSP_AV   SSP_x(%)
  1      3.7456     1.1401E-02    2.1154E-02    1.000000E+06  0.00400  1.094E-02    0   1.0000   age020_m42            0.0000     1.6314E-04     5.1892   2.9453    95.3600
  2      0.0000     0.0000E+00    0.0000E+00    3.160000E+06  0.00400  4.007E-02    0   0.9999   age045_m42            0.0000     1.5929E-04     5.1983   2.3386    96.7979
  3      0.0000     0.0000E+00    0.0000E+00    5.010000E+06  0.00400  2.539E-02    0   0.9488   age055_m42            0.0000     1.5548E-04     5.0416   2.6009    96.8401
  4      0.0000     0.0000E+00    0.0000E+00    6.610000E+06  0.00400  2.620E-02    0   0.9220   age061_m42            0.0000     1.5331E-04     5.1200   2.2624    97.1599
  5      0.0000     0.0000E+00    0.0000E+00    1.000000E+07  0.00400  1.322E-02    0   0.8862   age070_m42            0.0000     1.5516E-04     5.5165   1.9778    99.6467
  6      0.0000     0.0000E+00    0.0000E+00    1.445000E+07  0.00400  7.883E-03    0   0.8571   age078_m42            0.0000     1.5674E-04     5.3412   2.2770    98.2788
  7      0.0000     0.0000E+00    0.0000E+00    2.512000E+07  0.00400  5.251E-03    0   0.8174   age090_m42            0.0000     1.6094E-04     5.7591   1.8604    99.7235
  8      0.0000     0.0000E+00    0.0000E+00    4.000000E+07  0.00400  3.649E-03    0   0.7851   age104_m42            0.0000     1.5604E-04     5.7188   1.6503    99.7517
  9      0.0000     0.0000E+00    0.0000E+00    5.500000E+07  0.00400  3.098E-03    0   0.7629   age110_m42            0.0000     1.5607E-04     5.5250   1.8220    98.8062
 10      0.0000     0.0000E+00    0.0000E+00    1.015200E+08  0.00400  2.228E-03    0   0.7207   age116_m42            0.0000     1.5370E-04     5.3707   1.8513    98.5199
 11      0.0000     0.0000E+00    0.0000E+00    2.861200E+08  0.00400  1.093E-03    0   0.6648   age125_m42            0.0000     1.5329E-04     5.8029   1.3155   100.2181
 12      0.0000     0.0000E+00    0.0000E+00    5.088000E+08  0.00400  6.597E-04    0   0.6365   age130_m42            0.0000     1.3990E-04     5.4018   1.3333    99.6922
 13      0.0000     0.0000E+00    0.0000E+00    1.434000E+09  0.00400  2.132E-04    0   0.5798   age139_m42            0.0000     9.1805E-05     4.5981   0.3962   100.0922
 14      0.0000     0.0000E+00    0.0000E+00    4.250000E+09  0.00400  5.895E-05    0   0.5377   age158_m42            0.0000     5.4181E-05     3.3243  -0.1017    98.5067
 15      0.0000     0.0000E+00    0.0000E+00    7.500000E+09  0.00400  3.510E-05    0   0.5212   age171_m42            0.0000     4.3460E-05     2.9285  -0.2900    97.7849
 16      0.0000     0.0000E+00    0.0000E+00    1.300000E+10  0.00400  2.005E-05    0   0.5034   age193_m42            0.0000     3.6279E-05     2.6328  -0.4520    97.0443
 17      0.0000     0.0000E+00    0.0000E+00    1.800000E+10  0.00400  1.525E-05    0   0.4967   age213_m42            0.0000     3.7677E-05     2.6710  -0.4887    97.2426
 18      0.0000     0.0000E+00    0.0000E+00    1.000000E+06  0.00800  1.238E-02    0   1.0000   age020_m52            0.0000     1.6315E-04     5.1805   2.9402    95.6084
 19      0.0000     0.0000E+00    0.0000E+00    3.160000E+06  0.00800  3.074E-02    0   0.9966   age045_m52            0.0000     1.6021E-04     5.1291   2.8713    96.1271
 20      0.0000     0.0000E+00    0.0000E+00    5.010000E+06  0.00800  2.668E-02    0   0.9443   age055_m52            0.0000     1.5285E-04     4.9578   2.6703    96.5478
 21      0.0000     0.0000E+00    0.0000E+00    6.610000E+06  0.00800  2.136E-02    0   0.9177   age061_m52            0.0000     1.1834E-04     4.9223   1.4722   101.0125
 22      0.0000     0.0000E+00    0.0000E+00    1.000000E+07  0.00800  1.215E-02    0   0.8827   age070_m52            0.0000     1.6045E-04     5.6705   2.1514    99.8135
 23      0.0000     0.0000E+00    0.0000E+00    1.445000E+07  0.00800  8.717E-03    0   0.8552   age078_m52            0.0000     1.5490E-04     5.3678   2.2587    98.9489
 24      0.0000     0.0000E+00    0.0000E+00    2.512000E+07  0.00800  5.592E-03    0   0.8162   age090_m52            0.0000     1.6192E-04     5.8097   1.9394   100.2879
 25      0.0000     0.0000E+00    0.0000E+00    4.000000E+07  0.00800  3.896E-03    0   0.7841   age104_m52            0.0000     1.6055E-04     5.7741   1.8722   100.0919
 26      0.0000     0.0000E+00    0.0000E+00    1.015200E+08  0.00800  2.148E-03    0   0.7226   age116_m52            0.0000     1.5216E-04     5.5061   1.8248    99.1708
 27      0.0000     0.0000E+00    0.0000E+00    2.861200E+08  0.00800  9.925E-04    0   0.6683   age125_m52            0.0000     1.3614E-04     5.2807   1.3954   100.7559
 28      0.0000     0.0000E+00    0.0000E+00    9.047900E+08  0.00800  3.141E-04    0   0.6138   age135_m52            0.0000     1.0146E-04     4.7005   0.6694   101.5280
 29      0.0000     0.0000E+00    0.0000E+00    1.434000E+09  0.00800  1.719E-04    0   0.5853   age139_m52            0.0000     6.4537E-05     3.7735   0.0430   101.5947
 30      0.0000     0.0000E+00    0.0000E+00    2.500000E+09  0.00800  7.872E-05    0   0.5600   age150_m52            0.0000     4.4134E-05     2.8144  -0.2538    99.8168
 31      0.0000     0.0000E+00    0.0000E+00    4.250000E+09  0.00800  4.336E-05    0   0.5426   age158_m52            0.0000     4.3292E-05     2.8139  -0.2745    99.0777
 32      0.0000     0.0000E+00    0.0000E+00    6.250000E+09  0.00800  3.159E-05    0   0.5319   age166_m52            0.0000     3.6410E-05     2.5022  -0.4719    98.7824
 33      0.0000     0.0000E+00    0.0000E+00    1.300000E+10  0.00800  1.361E-05    0   0.5073   age193_m52            0.0000     3.8891E-05     2.4057  -0.9555    98.6411
 34      0.0000     0.0000E+00    0.0000E+00    1.800000E+10  0.00800  9.886E-06    0   0.4990   age213_m52            0.0000     5.2495E-05     2.8131  -1.0000    96.7280
 35      0.0000     0.0000E+00    0.0000E+00    1.000000E+06  0.02000  1.544E-02    0   1.0000   age020_m62            0.0000     1.6310E-04     5.1881   2.9320    95.9989
 36      0.0000     0.0000E+00    0.0000E+00    3.160000E+06  0.02000  3.762E-02    0   0.9858   age045_m62            0.0000     1.5759E-04     5.1241   2.8804    96.4491
 37      0.0000     0.0000E+00    0.0000E+00    5.010000E+06  0.02000  3.296E-02    0   0.9342   age055_m62            0.0000     1.5162E-04     4.9702   2.5817    97.1023
 38      0.0000     0.0000E+00    0.0000E+00    8.710000E+06  0.02000  1.154E-02    0   0.8861   age067_m62            0.0000     2.0469E-04     7.6113   1.5826   104.3481
 39      0.0000     0.0000E+00    0.0000E+00    1.445000E+07  0.02000  7.663E-03    0   0.8472   age078_m62            0.0000     1.6540E-04     6.2296   1.8166   101.5605
 40      0.0000     0.0000E+00    0.0000E+00    2.512000E+07  0.02000  4.532E-03    0   0.8099   age090_m62            0.0000     1.7183E-04     6.4205   1.8115   101.2315
 41      0.0000     0.0000E+00    0.0000E+00    5.500000E+07  0.02000  2.733E-03    0   0.7595   age110_m62            0.0000     1.4812E-04     5.5304   1.8389   100.0957
 42      0.0000     0.0000E+00    0.0000E+00    1.609000E+08  0.02000  1.369E-03    0   0.6985   age120_m62            0.0000     1.4520E-04     5.3671   1.7192   100.8141
 43      0.0000     0.0000E+00    0.0000E+00    2.861200E+08  0.02000  9.013E-04    0   0.6714   age125_m62            0.0000     1.4135E-04     5.3065   1.5092   101.7843
 44     14.7071     9.7400E-01    1.1655E+00    5.088000E+08  0.02000  5.028E-04    0   0.6449   age130_m62            0.0000     1.2753E-04     4.9295   1.1899   101.6600
 45      0.0000     0.0000E+00    0.0000E+00    9.047900E+08  0.02000  2.428E-04    0   0.6179   age135_m62            0.0000     8.0627E-05     3.9636   0.5940   101.4663
 46      2.2060     5.8159E-01    6.3757E-01    1.434000E+09  0.02000  1.263E-04    0   0.5908   age139_m62            0.0000     5.5377E-05     3.2739   0.1261   100.9566
 47      7.4930     4.1689E+00    4.3883E+00    2.500000E+09  0.02000  5.985E-05    0   0.5673   age150_m62            0.0000     4.5610E-05     2.6470  -0.2813   101.2637
 48     59.8735     6.0951E+01    6.1841E+01    4.250000E+09  0.02000  3.271E-05    0   0.5468   age158_m62            0.0000     4.3180E-05     2.5113  -0.5934   100.5145
 49     13.5918     3.3279E+01    3.1906E+01    1.000000E+10  0.02000  1.360E-05    0   0.5167   age181_m62            0.0000     6.8839E-05     3.0087  -0.9589   100.6861
 50      0.0000     0.0000E+00    0.0000E+00    1.800000E+10  0.02000  7.124E-06    0   0.5013   age213_m62            0.0000     1.5572E-04     4.7615  -1.0000    96.3236
 51      0.0000     0.0000E+00    0.0000E+00    1.000000E+06  0.05000  2.592E-02    0   0.9998   age020_m72            0.0000     1.6562E-04     5.2102   2.9106    96.6061
 52      0.0000     0.0000E+00    0.0000E+00    3.160000E+06  0.05000  4.845E-02    0   0.9577   age045_m72            0.0000     1.5522E-04     5.0553   2.7945    96.3834
 53      0.0000     0.0000E+00    0.0000E+00    5.010000E+06  0.05000  3.072E-02    0   0.9147   age055_m72            0.0000     1.5430E-04     5.4821   2.3711    98.9432
 54      0.0000     0.0000E+00    0.0000E+00    6.610000E+06  0.05000  1.455E-02    0   0.8877   age061_m72            0.0000     2.7260E-04     9.3799   1.6599   104.9572
 55      0.0000     0.0000E+00    0.0000E+00    1.000000E+07  0.05000  9.074E-03    0   0.8524   age070_m72            0.0000     1.6627E-04     5.8417   2.5780    98.0628
 56      0.0000     0.0000E+00    0.0000E+00    2.512000E+07  0.05000  4.250E-03    0   0.7902   age090_m72            0.0000     1.7077E-04     5.9820   2.3008    98.6115
 57      0.0000     0.0000E+00    0.0000E+00    4.000000E+07  0.05000  3.087E-03    0   0.7618   age104_m72            0.0000     1.7680E-04     6.2579   2.0910    99.5419
 58      0.0000     0.0000E+00    0.0000E+00    1.015200E+08  0.05000  1.700E-03    0   0.7096   age116_m72            0.0000     1.6007E-04     5.7403   1.8618   100.5369
 59      0.0000     0.0000E+00    0.0000E+00    2.861200E+08  0.05000  7.384E-04    0   0.6633   age125_m72            0.0000     1.3059E-04     5.0234   1.3991   102.0520
 60      0.3968     3.4597E-02    4.0905E-02    5.088000E+08  0.05000  3.819E-04    0   0.6372   age130_m72            0.0000     9.6173E-05     4.3001   0.9418   101.9404
 61      0.0000     0.0000E+00    0.0000E+00    9.047900E+08  0.05000  1.676E-04    0   0.6110   age135_m72            0.0000     5.7752E-05     3.1015   0.2013   101.9360
 62      0.0000     0.0000E+00    0.0000E+00    1.434000E+09  0.05000  8.837E-05    0   0.5874   age139_m72            0.0000     4.3575E-05     2.6086  -0.2550   101.5109
 63      0.0000     0.0000E+00    0.0000E+00    2.500000E+09  0.05000  4.233E-05    0   0.5598   age150_m72            0.0000     5.2133E-05     2.6409  -0.5991   101.5633
 64      0.0000     0.0000E+00    0.0000E+00    6.250000E+09  0.05000  1.435E-05    0   0.5249   age166_m72            0.0000     8.7230E-05     3.1855  -1.0000    99.0800
 65      0.0000     0.0000E+00    0.0000E+00    1.300000E+10  0.05000  6.513E-06    0   0.5036   age193_m72            0.0000     3.4012E-04     8.0029  -1.0000    93.8767
 66      0.0000     0.0000E+00    0.0000E+00    1.800000E+10  0.05000  4.527E-06    0   0.4945   age213_m72            0.0000     6.1715E-04    11.0483  -1.0000    89.7970


## Synthesis Results - Average & Chains ##

# j      x_j: min, <> & last-chain-values for 1 ...  7 chains
  1      3.7456      0.8833      0.6558      0.6707      0.6887      0.5906      0.6730      0.2201      0.6730
  2      0.0000      0.2781      0.1147      0.0496      0.3560      0.2183      0.0758      0.0000      0.2224
  3      0.0000      0.4042      0.0232      0.0000      0.0000      0.5600      0.0277      0.0633      0.0000
  4      0.0000      0.3591      0.0535      0.0000      0.2948      0.0000      0.3859      0.1010      0.2642
  5      0.0000      0.2141      0.0406      0.2671      0.0602      0.0000      0.0308      1.2581      0.4207
  6      0.0000      0.2681      0.1288      0.2693      0.2305      0.0847      0.2570      0.1808      0.0000
  7      0.0000      0.2236      0.0222      0.0431      0.1466      0.1647      0.0058      0.4125      0.4304
  8      0.0000      0.3383      0.0805      0.1686      0.1977      0.0958      0.0000      0.0000      0.0000
  9      0.0000      0.2422      0.0000      0.2570      0.0897      0.2545      0.0722      0.0000      0.3678
 10      0.0000      0.2339      0.0232      0.0000      0.0473      0.0327      0.0799      0.2686      0.0000
 11      0.0000      0.2502      0.0000      0.0000      0.0649      0.4114      0.0755      0.1619      0.1460
 12      0.0000      0.2710      0.1042      0.1031      0.0091      0.1560      0.2506      0.5840      0.2582
 13      0.0000      0.3565      0.0000      0.3356      0.4585      0.5912      0.1337      0.4826      0.0000
 14      0.0000      0.2427      0.0137      0.0095      0.1071      0.0443      0.0219      0.0000      1.2587
 15      0.0000      0.2775      0.0253      0.1147      0.3488      0.0930      0.2010      0.6201      0.3264
 16      0.0000      0.2865      0.0382      0.0000      0.2315      0.4285      0.0000      0.1342      0.0000
 17      0.0000      0.2221      0.0359      0.3491      0.0000      0.0552      0.1333      0.0000      0.0038
 18      0.0000      1.0948      2.0059      1.2524      1.3053      1.3819      1.0370      1.0498      1.8942
 19      0.0000      0.5981      0.1212      0.0787      0.3745      0.7856      0.0000      0.1391      0.5623
 20      0.0000      0.3182      0.0150      0.1268      0.0000      0.0780      0.0000      0.0050      0.0000
 21      0.0000      0.3182      0.0934      0.4707      0.0000      0.4556      0.3578      0.0375      0.6625
 22      0.0000      0.1975      0.1127      0.1595      0.0000      0.0000      0.1226      0.4607      0.0926
 23      0.0000      0.1924      0.0169      0.0000      0.0000      0.1314      0.0000      0.0000      0.3596
 24      0.0000      0.3027      0.0182      0.1417      0.0229      0.3269      0.1269      0.0314      1.0841
 25      0.0000      0.2774      0.1249      0.1750      0.5360      0.5682      0.0000      0.0000      0.3613
 26      0.0000      0.2227      0.1470      0.4115      0.0000      0.0000      0.1475      0.3441      0.0000
 27      0.0000      0.2098      0.0000      0.0881      0.1035      0.0966      0.1532      0.3732      0.1650
 28      0.0000      0.4004      0.0357      0.0000      0.0630      0.0000      0.0000      0.7455      0.0000
 29      0.0000      0.3171      0.0000      0.0000      0.0775      0.4949      0.0000      0.1495      1.1290
 30      0.0000      0.2552      0.0000      0.9287      0.0000      0.1630      0.0236      0.6730      0.1986
 31      0.0000      0.3303      0.0418      0.0000      0.0000      0.1556      0.0000      0.1501      0.2211
 32      0.0000      0.3227      0.0579      0.0000      0.2236      0.0000      0.0000      1.0460      0.0463
 33      0.0000      0.2969      0.0550      0.3161      0.2653      0.1493      0.0609      0.0245      1.1426
 34      0.0000      0.2844      0.0199      0.1047      0.0851      0.4435      0.1492      1.0085      0.3905
 35      0.0000      0.4532      0.3220      0.0000      0.3035      0.6159      0.0000      0.3075      0.1899
 36      0.0000      0.3016      0.0521      0.0646      0.2426      0.0000      0.0000      0.5147      0.1013
 37      0.0000      0.2520      0.0295      0.2855      0.3964      0.2707      0.0159      0.0000      0.0000
 38      0.0000      0.2055      0.0513      0.0340      0.0000      0.1422      0.0000      0.0000      0.0392
 39      0.0000      0.4060      0.0614      0.4968      0.3135      0.1076      0.0927      1.1867      0.3549
 40      0.0000      0.2822      0.0000      0.2609      0.0000      0.2600      0.0000      0.0755      0.0000
 41      0.0000      0.2350      0.0077      0.4345      0.3769      0.0093      0.0821      0.0000      0.0000
 42      0.0000      0.2962      0.0455      0.0853      0.2162      0.1733      0.0596      0.0000      0.1148
 43      0.0000      0.2803      0.0264      0.0000      0.0333      0.2375      0.0000      0.0000      0.0000
 44     14.7071      1.0062      2.5684      1.2449      0.6883      1.1186      0.7829      1.5313      1.2977
 45      0.0000      5.6921      3.6252      8.1158      6.0252      5.3428      5.9587      5.9203      3.2336
 46      2.2060      0.5333      0.9765      0.2663      0.3130      0.5999      0.4740      0.5782      0.8625
