###################################################################
## OUTPUT of StarlightChains_v04.for    [Cid@UFSC - 01/Apr/2007] ##
###################################################################

## Some input info
KUG0210-078._33_25.txt                   [arq_obs]
Base.CB07.vall.4m                        [arq_base]
Masks.EmLines.NEW.gm                     [arq_masks]
StCv04.C11.config                        [arq_config]
   66                                    [N_base]
    0                                    [N_YAV_components = # of components with extra extinction!]
    0                                    [i_FitPowerLaw (1/0 = Yes/No)]
-9.99                                    [alpha_PowerLaw]
CCM                                      [red_law_option]
 1.458241                                [q_norm = A(l_norm)/A(V)]

## (Re)Sampling Parameters
 3741.00                                 [l_ini (A)]
 7218.00                                 [l_fin (A)]
    1.00                                 [dl    (A)]     (OBS: dl_cushion =    50.00 A)

## Normalization info
 4020.00                                 [l_norm (A) - for base]
 4010.00                                 [llow_norm (A) - window for f_obs]
 4060.00                                 [lupp_norm (A) - window for f_obs]
1.325915E-17                             [fobs_norm (in input units)]

## S/N
 3691.00                                 [llow_SN (A) - window for S/N]
 7268.00                                 [lupp_SN (A) - window for S/N]
   3.320                                 [S/N in S/N window]
   3.853                                 [S/N in norm. window]
   0.018                                 [S/N_err in S/N window]
   0.021                                 [S/N_err in norm. window]
  1.0000                                 [fscale_chi2]

## etc...
    -2007500                             [idum_orig]
  2410                                   [NOl_eff]
  1831                                   [Nl_eff]
   579    NSIGMA                         [Ntot_cliped & clip_method]
 10654980                                [Nglobal_steps]
   7                                     [N_chains]
  43                                     [NEX0s_base = N_base in EX0s-fits]
 0   0   1        0   2.0   1.429E+04    [Clip-Bug, RC-Crash & Burn-In warning-flags, n_censored_weights, wei_nsig_threshold & wei_limit]
    84     83.619     82.782      0.837  [idt_all, wdt_TotTime, wdt_UsrTime & wdt_SysTime (sec)]

## Synthesis Results - Best model ##

 1.35486E-05                             [chi2/Nl_eff]
    14.40624                             [adev (%)]

   110.54588                             [sum-of-x (%)]
 3.82615E-18                             [Flux_tot (units of input spectrum!)]
 3.13762E-13                             [Mini_tot (???)]
 1.57894E-13                             [Mcor_tot (???)]

 465.60                                  [v0_min  (km/s)]
  64.09                                  [vd_min  (km/s)]
-1.0000                                  [AV_min  (mag)]
 0.0000                                  [YAV_min (mag)]

# j     x_j(%)      Mini_j(%)     Mcor_j(%)     age_j(yr)     Z_j      (L/M)_j    YAV?  Mstars   component_j        a/Fe...       SSP_chi2r SSP_adev(%)   SSP_AV   SSP_x(%)
  1      0.0000     0.0000E+00    0.0000E+00    1.000000E+06  0.00400  1.094E-02    0   1.0000   age020_m42            0.0000     2.4496E-05    15.0881   2.7183    90.8140
  2      0.0000     0.0000E+00    0.0000E+00    3.160000E+06  0.00400  4.007E-02    0   0.9999   age045_m42            0.0000     2.4538E-05    14.7870   2.0413    94.9280
  3     12.0926     5.2538E-03    9.9057E-03    5.010000E+06  0.00400  2.539E-02    0   0.9488   age055_m42            0.0000     2.4438E-05    14.7487   2.3364    93.4874
  4      0.0000     0.0000E+00    0.0000E+00    6.610000E+06  0.00400  2.620E-02    0   0.9220   age061_m42            0.0000     2.4205E-05    14.5588   1.9586    95.4109
  5      0.0000     0.0000E+00    0.0000E+00    1.000000E+07  0.00400  1.322E-02    0   0.8862   age070_m42            0.0000     2.3259E-05    14.0417   1.6357    99.1902
  6      0.0000     0.0000E+00    0.0000E+00    1.445000E+07  0.00400  7.883E-03    0   0.8571   age078_m42            0.0000     2.3582E-05    14.1349   1.9600    96.7043
  7      7.8252     1.6439E-02    2.6702E-02    2.512000E+07  0.00400  5.251E-03    0   0.8174   age090_m42            0.0000     2.3219E-05    13.9850   1.5050    99.7868
  8      0.0000     0.0000E+00    0.0000E+00    4.000000E+07  0.00400  3.649E-03    0   0.7851   age104_m42            0.0000     2.2818E-05    13.9497   1.2771   100.7121
  9      0.0000     0.0000E+00    0.0000E+00    5.500000E+07  0.00400  3.098E-03    0   0.7629   age110_m42            0.0000     2.3457E-05    14.0476   1.4566    99.4274
 10      0.0000     0.0000E+00    0.0000E+00    1.015200E+08  0.00400  2.228E-03    0   0.7207   age116_m42            0.0000     2.3773E-05    14.1643   1.4996    98.6560
 11      0.9725     9.8152E-03    1.2967E-02    2.861200E+08  0.00400  1.093E-03    0   0.6648   age125_m42            0.0000     2.2671E-05    13.6394   0.9158   102.2258
 12      0.0000     0.0000E+00    0.0000E+00    5.088000E+08  0.00400  6.597E-04    0   0.6365   age130_m42            0.0000     2.2654E-05    13.7950   0.9231   102.4359
 13      0.0555     2.8694E-03    3.3060E-03    1.434000E+09  0.00400  2.132E-04    0   0.5798   age139_m42            0.0000     1.8211E-05    13.6841  -0.1039   108.0192
 14      0.0000     0.0000E+00    0.0000E+00    4.250000E+09  0.00400  5.895E-05    0   0.5377   age158_m42            0.0000     1.6461E-05    13.8239  -0.5657   104.9983
 15      1.8896     5.9387E-01    6.1508E-01    7.500000E+09  0.00400  3.510E-05    0   0.5212   age171_m42            0.0000     1.5475E-05    13.7421  -0.7725   105.1848
 16      5.8768     3.2333E+00    3.2344E+00    1.300000E+10  0.00400  2.005E-05    0   0.5034   age193_m42            0.0000     1.4664E-05    13.6672  -0.9651   105.8774
 17      1.1341     8.2036E-01    8.0971E-01    1.800000E+10  0.00400  1.525E-05    0   0.4967   age213_m42            0.0000     1.4887E-05    13.7051  -0.9794   105.0781
 18      0.0000     0.0000E+00    0.0000E+00    1.000000E+06  0.00800  1.238E-02    0   1.0000   age020_m52            0.0000     2.4523E-05    15.0917   2.7155    90.9602
 19      0.0000     0.0000E+00    0.0000E+00    3.160000E+06  0.00800  3.074E-02    0   0.9966   age045_m52            0.0000     2.4503E-05    15.0953   2.6438    91.5907
 20      0.0000     0.0000E+00    0.0000E+00    5.010000E+06  0.00800  2.668E-02    0   0.9443   age055_m52            0.0000     2.4227E-05    14.7708   2.4072    93.1935
 21      0.0000     0.0000E+00    0.0000E+00    6.610000E+06  0.00800  2.136E-02    0   0.9177   age061_m52            0.0000     2.0800E-05    13.9348   1.0888   102.8349
 22      0.0000     0.0000E+00    0.0000E+00    1.000000E+07  0.00800  1.215E-02    0   0.8827   age070_m52            0.0000     2.3303E-05    13.9145   1.8079    99.1923
 23      0.0215     2.7268E-05    4.6340E-05    1.445000E+07  0.00800  8.717E-03    0   0.8552   age078_m52            0.0000     2.3590E-05    14.0947   1.9312    97.7980
 24      0.0000     0.0000E+00    0.0000E+00    2.512000E+07  0.00800  5.592E-03    0   0.8162   age090_m52            0.0000     2.3183E-05    13.8824   1.5735   100.6962
 25      0.0000     0.0000E+00    0.0000E+00    4.000000E+07  0.00800  3.896E-03    0   0.7841   age104_m52            0.0000     2.3138E-05    13.8438   1.5018   100.7017
 26      0.0000     0.0000E+00    0.0000E+00    1.015200E+08  0.00800  2.148E-03    0   0.7226   age116_m52            0.0000     2.3048E-05    13.9879   1.4575    99.8572
 27      0.0000     0.0000E+00    0.0000E+00    2.861200E+08  0.00800  9.925E-04    0   0.6683   age125_m52            0.0000     2.2022E-05    13.7668   0.9770   103.9820
 28      0.0000     0.0000E+00    0.0000E+00    9.047900E+08  0.00800  3.141E-04    0   0.6138   age135_m52            0.0000     1.9259E-05    13.6952   0.1922   108.1620
 29      1.1191     7.1814E-02    8.3526E-02    1.434000E+09  0.00800  1.719E-04    0   0.5853   age139_m52            0.0000     1.6318E-05    13.5181  -0.4544   109.5551
 30      0.8240     1.1547E-01    1.2849E-01    2.500000E+09  0.00800  7.872E-05    0   0.5600   age150_m52            0.0000     1.5379E-05    13.6865  -0.7388   107.3622
 31      0.0000     0.0000E+00    0.0000E+00    4.250000E+09  0.00800  4.336E-05    0   0.5426   age158_m52            0.0000     1.5375E-05    13.7159  -0.7515   106.2412
 32      0.0000     0.0000E+00    0.0000E+00    6.250000E+09  0.00800  3.159E-05    0   0.5319   age166_m52            0.0000     1.4504E-05    13.7523  -0.9737   107.2704
 33      0.0000     0.0000E+00    0.0000E+00    1.300000E+10  0.00800  1.361E-05    0   0.5073   age193_m52            0.0000     1.6243E-05    19.3716  -1.0000    92.5356
 34      0.0000     1.3274E-05    1.3163E-05    1.800000E+10  0.00800  9.886E-06    0   0.4990   age213_m52            0.0000     1.7576E-05    20.7051  -1.0000    88.6489
 35      0.0000     0.0000E+00    0.0000E+00    1.000000E+06  0.02000  1.544E-02    0   1.0000   age020_m62            0.0000     2.4590E-05    15.1213   2.7110    91.2299
 36      0.0000     0.0000E+00    0.0000E+00    3.160000E+06  0.02000  3.762E-02    0   0.9858   age045_m62            0.0000     2.4580E-05    15.0011   2.6452    92.0993
 37      0.4227     1.4149E-04    2.6266E-04    5.010000E+06  0.02000  3.296E-02    0   0.9342   age055_m62            0.0000     2.4472E-05    14.7259   2.3008    94.4768
 38      0.0000     0.0000E+00    0.0000E+00    8.710000E+06  0.02000  1.154E-02    0   0.8861   age067_m62            0.0000     2.1696E-05    13.4504   1.1619   106.7685
 39      0.0000     0.0000E+00    0.0000E+00    1.445000E+07  0.02000  7.663E-03    0   0.8472   age078_m62            0.0000     2.2237E-05    13.6036   1.4219   103.0767
 40      0.0000     0.0000E+00    0.0000E+00    2.512000E+07  0.02000  4.532E-03    0   0.8099   age090_m62            0.0000     2.2199E-05    13.5198   1.4146   102.7217
 41      0.0000     0.0000E+00    0.0000E+00    5.500000E+07  0.02000  2.733E-03    0   0.7595   age110_m62            0.0000     2.2355E-05    13.8072   1.4648   101.0105
 42      0.0000     0.0000E+00    0.0000E+00    1.609000E+08  0.02000  1.369E-03    0   0.6985   age120_m62            0.0000     2.2618E-05    13.8503   1.3296   102.5924
 43      0.0000     0.0000E+00    0.0000E+00    2.861200E+08  0.02000  9.013E-04    0   0.6714   age125_m62            0.0000     2.2494E-05    13.8894   1.0916   105.0767
 44      0.1237     2.7131E-03    3.4769E-03    5.088000E+08  0.02000  5.028E-04    0   0.6449   age130_m62            0.0000     2.1619E-05    13.9601   0.7340   107.0828
 45      0.0000     0.0000E+00    0.0000E+00    9.047900E+08  0.02000  2.428E-04    0   0.6179   age135_m62            0.0000     1.8506E-05    13.8216   0.1352   107.4443
 46      0.0000     0.0000E+00    0.0000E+00    1.434000E+09  0.02000  1.263E-04    0   0.5908   age139_m62            0.0000     1.6325E-05    13.7415  -0.3506   108.0149
 47      0.0000     0.0000E+00    0.0000E+00    2.500000E+09  0.02000  5.985E-05    0   0.5673   age150_m62            0.0000     1.4908E-05    13.7967  -0.7511   108.2814
 48      0.0005     1.7125E-04    1.8608E-04    4.250000E+09  0.02000  3.271E-05    0   0.5468   age158_m62            0.0000     1.3734E-05    14.9900  -1.0000   106.3430
 49     17.9549     1.4563E+01    1.4953E+01    1.000000E+10  0.02000  1.360E-05    0   0.5167   age181_m62            0.0000     1.5720E-05    19.1675  -1.0000    94.4748
 50      2.3834     3.6906E+00    3.6764E+00    1.800000E+10  0.02000  7.124E-06    0   0.5013   age213_m62            0.0000     1.8764E-05    21.4675  -1.0000    86.8126
 51      4.7852     2.0365E-03    4.0460E-03    1.000000E+06  0.05000  2.592E-02    0   0.9998   age020_m72            0.0000     2.4523E-05    15.2256   2.7036    91.3408
 52      0.0000     0.0000E+00    0.0000E+00    3.160000E+06  0.05000  4.845E-02    0   0.9577   age045_m72            0.0000     2.4664E-05    14.9476   2.5484    92.4579
 53      0.0000     0.0000E+00    0.0000E+00    5.010000E+06  0.05000  3.072E-02    0   0.9147   age055_m72            0.0000     2.3249E-05    13.8219   2.0399    97.6488
 54      0.0000     0.0000E+00    0.0000E+00    6.610000E+06  0.05000  1.455E-02    0   0.8877   age061_m72            0.0000     2.2808E-05    13.4813   1.2105   107.7038
 55      4.3857     5.3316E-03    9.0310E-03    1.000000E+07  0.05000  9.074E-03    0   0.8524   age070_m72            0.0000     2.3672E-05    13.7439   2.2423    96.7493
 56      0.0000     0.0000E+00    0.0000E+00    2.512000E+07  0.05000  4.250E-03    0   0.7902   age090_m72            0.0000     2.3494E-05    13.6465   1.9445    98.1642
 57      0.0000     0.0000E+00    0.0000E+00    4.000000E+07  0.05000  3.087E-03    0   0.7618   age104_m72            0.0000     2.3359E-05    13.6463   1.7220    99.6563
 58      0.0000     0.0000E+00    0.0000E+00    1.015200E+08  0.05000  1.700E-03    0   0.7096   age116_m72            0.0000     2.3113E-05    13.7911   1.4790   101.7284
 59      0.0000     0.0000E+00    0.0000E+00    2.861200E+08  0.05000  7.384E-04    0   0.6633   age125_m72            0.0000     2.2130E-05    13.8563   0.9835   105.3414
 60      6.3953     1.8473E-01    2.3391E-01    5.088000E+08  0.05000  3.819E-04    0   0.6372   age130_m72            0.0000     1.9836E-05    13.9130   0.4869   107.6288
 61      0.0000     0.0000E+00    0.0000E+00    9.047900E+08  0.05000  1.676E-04    0   0.6110   age135_m72            0.0000     1.6490E-05    13.9758  -0.2480   107.9096
 62      0.0548     6.8448E-03    7.9896E-03    1.434000E+09  0.05000  8.837E-05    0   0.5874   age139_m72            0.0000     1.4579E-05    13.8730  -0.7434   109.5277
 63      1.5158     3.9501E-01    4.3942E-01    2.500000E+09  0.05000  4.233E-05    0   0.5598   age150_m72            0.0000     1.3770E-05    14.9324  -1.0000   107.0152
 64      6.8896     5.2962E+00    5.5242E+00    6.250000E+09  0.05000  1.435E-05    0   0.5249   age166_m72            0.0000     1.7012E-05    20.2953  -1.0000    90.8490
 65     15.3892     2.6065E+01    2.6084E+01    1.300000E+10  0.05000  6.513E-06    0   0.5036   age193_m72            0.0000     2.2166E-05    23.2550  -1.0000    82.5711
 66     18.4340     4.4919E+01    4.4140E+01    1.800000E+10  0.05000  4.527E-06    0   0.4945   age213_m72            0.0000     2.5802E-05    24.6242  -1.0000    77.2222


## Synthesis Results - Average & Chains ##

# j      x_j: min, <> & last-chain-values for 1 ...  7 chains
  1      0.0000      0.2729      0.0000      0.1604      0.9111      0.1029      0.2544      0.2171      0.3622
  2      0.0000      0.2866      0.4497      0.9636      0.0000      0.1543      0.1654      0.4670      0.1531
  3     12.0926      0.2472      0.1862      0.3728      0.7761      0.0000      0.0000      0.2119      0.1432
  4      0.0000      0.1857      0.1593      0.0000      0.0000      0.1531      0.3729      0.3694      0.1146
  5      0.0000      0.3096      0.5407      1.0206      0.7380      0.0569      1.3081      0.1991      0.0000
  6      0.0000      0.2139      0.0117      0.2218      0.3243      0.2689      0.2207      0.4444      0.0376
  7      7.8252      0.2961      0.2504      1.8742      0.0000      0.0669      1.1372      0.1311      0.1206
  8      0.0000      0.2533      0.0129      0.0000      0.0000      0.0000      0.0842      0.3350      0.0470
  9      0.0000      0.2380      0.0000      0.9201      0.0000      0.0225      0.0000      0.0000      0.0970
 10      0.0000      0.3457      0.7177      0.7553      1.7935      0.0818      0.0000      0.0000      0.0702
 11      0.9725      0.2104      0.0000      1.3224      1.3544      0.0000      0.1730      0.0193      0.1028
 12      0.0000      0.2337      0.3240      0.1091      0.0124      0.1919      0.5625      0.0000      0.0834
 13      0.0555      0.3142      0.0383      1.7810      0.6030      0.1717      1.1824      0.9467      0.1661
 14      0.0000      0.2088      0.4935      0.5871      0.0000      0.0506      0.7435      0.4932      0.0000
 15      1.8896      0.2140      0.2541      1.0398      1.0818      0.0155      0.0000      0.0382      0.1500
 16      5.8768      0.2441      1.3839      0.6127      1.4143      0.1671      0.2584      1.2082      0.0000
 17      1.1341      0.3767      0.1391      1.7227      1.2704      0.4375      0.3963      0.3098      0.1858
 18      0.0000      0.2839      1.0478      0.8614      0.5318      0.4786      0.9326      0.0506      0.3400
 19      0.0000      0.2434      0.2494      1.7369      0.0000      0.4117      0.2079      0.0000      0.0695
 20      0.0000      0.2782      0.4649      0.1950      0.0000      0.1794      0.1501      0.1109      0.2203
 21      0.0000      0.2295      0.4687      0.3293      0.0000      0.3280      0.0042      0.3669      0.1227
 22      0.0000      0.2054      0.1562      0.0000      0.0000      0.0000      1.1974      0.4435      0.2714
 23      0.0215      0.2159      0.0392      0.8432      0.0000      0.0984      0.0206      0.5936      0.0933
 24      0.0000      0.2351      0.7332      0.3320      0.0000      0.0926      0.3151      0.0000      0.3338
 25      0.0000      0.2309      0.0000      0.0486      0.0000      0.1401      0.1149      0.4427      0.0000
 26      0.0000      0.2993      0.1442      1.2272      1.3171      0.1096      0.4256      0.1018      0.2247
 27      0.0000      0.1714      0.0036      0.0000      0.8216      0.1355      0.0000      0.1428      0.0000
 28      0.0000      0.3114      0.4031      1.7656      1.1003      0.2376      0.0926      0.1195      0.1266
 29      1.1191      0.2363      0.0000      0.4892      0.2253      0.3596      0.6318      0.1231      0.0000
 30      0.8240      0.2957      0.2154      0.8117      0.7718      0.1342      0.2772      0.0342      0.2276
 31      0.0000      0.2561      0.4266      0.0000      0.8348      0.2049      0.0000      0.0000      0.0000
 32      0.0000      0.3023      0.0000      1.8616      0.1379      0.4307      0.2774      0.6422      0.3656
 33      0.0000      0.2632      1.3257      0.0000      0.0000      0.6026      0.9905      0.0031      0.0648
 34      0.0000      0.3742      0.5956      0.4345      0.2240      0.3806      1.7370      0.9103      0.3247
 35      0.0000      0.3302      0.5464      0.4319      0.3336      0.1765      0.6026      0.3584      0.0182
 36      0.0000      0.3722      0.3636      0.2476      1.2238      0.1976      0.0000      0.5024      0.2431
 37      0.4227      0.2627      0.0000      0.8595      0.7894      0.1315      0.5576      0.0000      0.2562
 38      0.0000      0.2811      0.4237      1.1403      0.1960      0.1704      0.2465      0.0000      0.0544
 39      0.0000      0.2792      0.1419      0.0000      0.8858      0.0889      0.0000      0.2928      0.0000
 40      0.0000      0.2094      0.3064      0.0000      2.3657      0.0000      0.0000      0.6182      0.0237
 41      0.0000      0.2386      0.0000      1.0465      0.9144      0.0000      0.0613      0.5499      0.1021
 42      0.0000      0.2833      0.4394      1.1134      0.0000      0.2967      0.2780      0.1838      0.1808
 43      0.0000      0.1730      0.3806      0.3211      0.2124      0.0192      0.0000      0.2065      0.1233
 44      0.1237      8.1590      7.4484      7.1539      6.4589      7.5465      9.3718      8.1172     11.3570
 45      0.0000      7.8603      6.5936      5.1121      2.4721      7.9367      7.2797      8.4687      4.5182
 46      0.0000      0.2187      0.0000      0.3490      0.0000      0.2269      1.3202      0.4139      0.1438
