###################################################################
## OUTPUT of StarlightChains_v04.for    [Cid@UFSC - 01/Apr/2007] ##
###################################################################

## Some input info
KUG0210-078._32_36.txt                   [arq_obs]
Base.CB07.vall.4m                        [arq_base]
Masks.EmLines.NEW.gm                     [arq_masks]
StCv04.C11.config                        [arq_config]
   66                                    [N_base]
    0                                    [N_YAV_components = # of components with extra extinction!]
    0                                    [i_FitPowerLaw (1/0 = Yes/No)]
-9.99                                    [alpha_PowerLaw]
CCM                                      [red_law_option]
 1.458241                                [q_norm = A(l_norm)/A(V)]

## (Re)Sampling Parameters
 3741.00                                 [l_ini (A)]
 7218.00                                 [l_fin (A)]
    1.00                                 [dl    (A)]     (OBS: dl_cushion =    50.00 A)

## Normalization info
 4020.00                                 [l_norm (A) - for base]
 4010.00                                 [llow_norm (A) - window for f_obs]
 4060.00                                 [lupp_norm (A) - window for f_obs]
5.556734E-17                             [fobs_norm (in input units)]

## S/N
 3691.00                                 [llow_SN (A) - window for S/N]
 7268.00                                 [lupp_SN (A) - window for S/N]
   5.214                                 [S/N in S/N window]
   4.246                                 [S/N in norm. window]
   0.101                                 [S/N_err in S/N window]
   0.082                                 [S/N_err in norm. window]
  1.0000                                 [fscale_chi2]

## etc...
    -2007484                             [idum_orig]
  2432                                   [NOl_eff]
  2420                                   [Nl_eff]
    12    NSIGMA                         [Ntot_cliped & clip_method]
  5844930                                [Nglobal_steps]
   7                                     [N_chains]
   7                                     [NEX0s_base = N_base in EX0s-fits]
 0   0   1       12   2.0   7.937E+03    [Clip-Bug, RC-Crash & Burn-In warning-flags, n_censored_weights, wei_nsig_threshold & wei_limit]
    61     60.875     60.136      0.739  [idt_all, wdt_TotTime, wdt_UsrTime & wdt_SysTime (sec)]

## Synthesis Results - Best model ##

 7.32505E-05                             [chi2/Nl_eff]
     6.49771                             [adev (%)]

   117.94224                             [sum-of-x (%)]
 1.91585E-17                             [Flux_tot (units of input spectrum!)]
 2.57968E-12                             [Mini_tot (???)]
 1.29392E-12                             [Mcor_tot (???)]

-200.08                                  [v0_min  (km/s)]
 454.18                                  [vd_min  (km/s)]
-0.9157                                  [AV_min  (mag)]
 0.0000                                  [YAV_min (mag)]

# j     x_j(%)      Mini_j(%)     Mcor_j(%)     age_j(yr)     Z_j      (L/M)_j    YAV?  Mstars   component_j        a/Fe...       SSP_chi2r SSP_adev(%)   SSP_AV   SSP_x(%)
  1      0.0000     0.0000E+00    0.0000E+00    1.000000E+06  0.00400  1.094E-02    0   1.0000   age020_m42            0.0000     3.9649E-04    13.1193   3.5204    97.9050
  2      0.0000     0.0000E+00    0.0000E+00    3.160000E+06  0.00400  4.007E-02    0   0.9999   age045_m42            0.0000     3.1091E-04    11.6858   2.7731   105.5443
  3      0.0000     0.0000E+00    0.0000E+00    5.010000E+06  0.00400  2.539E-02    0   0.9488   age055_m42            0.0000     3.4831E-04    12.3800   3.1036   102.5382
  4      0.0000     0.0000E+00    0.0000E+00    6.610000E+06  0.00400  2.620E-02    0   0.9220   age061_m42            0.0000     3.0922E-04    11.7087   2.6991   105.8067
  5      0.0000     0.0000E+00    0.0000E+00    1.000000E+07  0.00400  1.322E-02    0   0.8862   age070_m42            0.0000     3.5446E-04    13.1539   2.4428   107.0973
  6      0.0000     0.0000E+00    0.0000E+00    1.445000E+07  0.00400  7.883E-03    0   0.8571   age078_m42            0.0000     3.7178E-04    13.3243   2.7717   104.2785
  7      0.0000     0.0000E+00    0.0000E+00    2.512000E+07  0.00400  5.251E-03    0   0.8174   age090_m42            0.0000     3.5809E-04    13.3974   2.3163   107.5948
  8      0.0000     0.0000E+00    0.0000E+00    4.000000E+07  0.00400  3.649E-03    0   0.7851   age104_m42            0.0000     3.3684E-04    12.9998   2.0820   108.7882
  9      0.0000     0.0000E+00    0.0000E+00    5.500000E+07  0.00400  3.098E-03    0   0.7629   age110_m42            0.0000     3.0462E-04    12.0410   2.2195   109.4465
 10      0.0000     0.0000E+00    0.0000E+00    1.015200E+08  0.00400  2.228E-03    0   0.7207   age116_m42            0.0000     2.8244E-04    11.3894   2.2291   110.0884
 11      0.0000     0.0000E+00    0.0000E+00    2.861200E+08  0.00400  1.093E-03    0   0.6648   age125_m42            0.0000     2.7297E-04    11.3727   1.6580   113.3156
 12      0.0000     0.0000E+00    0.0000E+00    5.088000E+08  0.00400  6.597E-04    0   0.6365   age130_m42            0.0000     2.3643E-04    10.3198   1.6320   114.9718
 13      0.0000     0.0000E+00    0.0000E+00    1.434000E+09  0.00400  2.132E-04    0   0.5798   age139_m42            0.0000     1.8140E-04     9.5744   0.6594   117.3355
 14      0.0000     0.0000E+00    0.0000E+00    4.250000E+09  0.00400  5.895E-05    0   0.5377   age158_m42            0.0000     1.6043E-04     8.8416   0.2145   112.8242
 15      0.0000     0.0000E+00    0.0000E+00    7.500000E+09  0.00400  3.510E-05    0   0.5212   age171_m42            0.0000     1.4754E-04     8.3629   0.0209   112.2432
 16      0.0000     0.0000E+00    0.0000E+00    1.300000E+10  0.00400  2.005E-05    0   0.5034   age193_m42            0.0000     1.4030E-04     7.9907  -0.1507   111.8178
 17      0.0000     0.0000E+00    0.0000E+00    1.800000E+10  0.00400  1.525E-05    0   0.4967   age213_m42            0.0000     1.4452E-04     8.1793  -0.1706   111.1993
 18      0.0000     0.0000E+00    0.0000E+00    1.000000E+06  0.00800  1.238E-02    0   1.0000   age020_m52            0.0000     3.9650E-04    13.1248   3.5167    98.1024
 19      0.0000     0.0000E+00    0.0000E+00    3.160000E+06  0.00800  3.074E-02    0   0.9966   age045_m52            0.0000     3.8793E-04    13.0140   3.4391    99.0389
 20      0.0000     0.0000E+00    0.0000E+00    5.010000E+06  0.00800  2.668E-02    0   0.9443   age055_m52            0.0000     3.6029E-04    12.6402   3.1906   101.4681
 21      0.0000     0.0000E+00    0.0000E+00    6.610000E+06  0.00800  2.136E-02    0   0.9177   age061_m52            0.0000     3.4070E-04    13.0166   1.9476   108.1192
 22      0.0000     0.0000E+00    0.0000E+00    1.000000E+07  0.00800  1.215E-02    0   0.8827   age070_m52            0.0000     3.8190E-04    13.7833   2.6297   106.5231
 23      0.0000     0.0000E+00    0.0000E+00    1.445000E+07  0.00800  8.717E-03    0   0.8552   age078_m52            0.0000     3.6511E-04    13.2789   2.7361   105.7984
 24      0.0000     0.0000E+00    0.0000E+00    2.512000E+07  0.00800  5.592E-03    0   0.8162   age090_m52            0.0000     3.5558E-04    13.4334   2.3770   108.9905
 25      0.0000     0.0000E+00    0.0000E+00    4.000000E+07  0.00800  3.896E-03    0   0.7841   age104_m52            0.0000     3.2694E-04    12.8043   2.2802   110.2103
 26      0.0000     0.0000E+00    0.0000E+00    1.015200E+08  0.00800  2.148E-03    0   0.7226   age116_m52            0.0000     2.8756E-04    11.7541   2.2025   110.6988
 27      0.0000     0.0000E+00    0.0000E+00    2.861200E+08  0.00800  9.925E-04    0   0.6683   age125_m52            0.0000     2.3476E-04    10.3776   1.6955   116.1480
 28      0.0000     0.0000E+00    0.0000E+00    9.047900E+08  0.00800  3.141E-04    0   0.6138   age135_m52            0.0000     1.5612E-04     8.6291   0.8751   121.8796
 29      0.0000     0.0000E+00    0.0000E+00    1.434000E+09  0.00800  1.719E-04    0   0.5853   age139_m52            0.0000     1.4929E-04     8.7375   0.3028   118.8728
 30      0.0000     0.0000E+00    0.0000E+00    2.500000E+09  0.00800  7.872E-05    0   0.5600   age150_m52            0.0000     1.2600E-04     7.8124   0.0256   116.0586
 31      0.0000     0.0000E+00    0.0000E+00    4.250000E+09  0.00800  4.336E-05    0   0.5426   age158_m52            0.0000     1.2794E-04     7.8111   0.0118   114.8893
 32      0.0000     0.0000E+00    0.0000E+00    6.250000E+09  0.00800  3.159E-05    0   0.5319   age166_m52            0.0000     1.1038E-04     7.2626  -0.2035   115.3759
 33     10.0871     4.6670E+00    4.7202E+00    1.300000E+10  0.00800  1.361E-05    0   0.5073   age193_m52            0.0000     9.4046E-05     6.8701  -0.6877   115.2243
 34      0.0000     0.0000E+00    0.0000E+00    1.800000E+10  0.00800  9.886E-06    0   0.4990   age213_m52            0.0000     8.4488E-05     6.6124  -0.8120   115.2826
 35      0.0000     0.0000E+00    0.0000E+00    1.000000E+06  0.02000  1.544E-02    0   1.0000   age020_m62            0.0000     3.9900E-04    13.1524   3.5122    98.3426
 36      0.0000     0.0000E+00    0.0000E+00    3.160000E+06  0.02000  3.762E-02    0   0.9858   age045_m62            0.0000     3.9678E-04    13.1170   3.4501    99.2572
 37      0.0000     0.0000E+00    0.0000E+00    5.010000E+06  0.02000  3.296E-02    0   0.9342   age055_m62            0.0000     3.2899E-04    11.9773   3.0539   104.2148
 38      0.0000     0.0000E+00    0.0000E+00    8.710000E+06  0.02000  1.154E-02    0   0.8861   age067_m62            0.0000     5.4425E-04    17.6857   2.1235   107.6421
 39      0.0000     0.0000E+00    0.0000E+00    1.445000E+07  0.02000  7.663E-03    0   0.8472   age078_m62            0.0000     4.1400E-04    14.7216   2.2852   108.4861
 40      0.0000     0.0000E+00    0.0000E+00    2.512000E+07  0.02000  4.532E-03    0   0.8099   age090_m62            0.0000     4.1599E-04    14.8326   2.2765   108.2151
 41      0.0000     0.0000E+00    0.0000E+00    5.500000E+07  0.02000  2.733E-03    0   0.7595   age110_m62            0.0000     3.3076E-04    12.8731   2.2646   109.3349
 42      0.0000     0.0000E+00    0.0000E+00    1.609000E+08  0.02000  1.369E-03    0   0.6985   age120_m62            0.0000     2.6897E-04    11.1982   2.0732   113.6675
 43      0.0000     0.0000E+00    0.0000E+00    2.861200E+08  0.02000  9.013E-04    0   0.6714   age125_m62            0.0000     2.3351E-04    10.2028   1.8056   117.7595
 44      0.0000     0.0000E+00    0.0000E+00    5.088000E+08  0.02000  5.028E-04    0   0.6449   age130_m62            0.0000     1.7704E-04     8.6238   1.4027   121.9570
 45      0.0000     0.0000E+00    0.0000E+00    9.047900E+08  0.02000  2.428E-04    0   0.6179   age135_m62            0.0000     1.3499E-04     7.9876   0.8144   121.1784
 46      0.0000     0.0000E+00    0.0000E+00    1.434000E+09  0.02000  1.263E-04    0   0.5908   age139_m62            0.0000     1.2556E-04     7.8591   0.3745   119.1281
 47      0.0000     0.0000E+00    0.0000E+00    2.500000E+09  0.02000  5.985E-05    0   0.5673   age150_m62            0.0000     1.1007E-04     7.3981  -0.0037   117.9188
 48      0.0000     0.0000E+00    0.0000E+00    4.250000E+09  0.02000  3.271E-05    0   0.5468   age158_m62            0.0000     9.0883E-05     6.9553  -0.3275   117.6314
 49      0.0000     0.0000E+00    0.0000E+00    1.000000E+10  0.02000  1.360E-05    0   0.5167   age181_m62            0.0000     7.5441E-05     6.5018  -0.7027   118.1837
 50    107.8552     9.5333E+01    9.5280E+01    1.800000E+10  0.02000  7.124E-06    0   0.5013   age213_m62            0.0000     7.3371E-05     6.5445  -0.9361   118.1418
 51      0.0000     0.0000E+00    0.0000E+00    1.000000E+06  0.05000  2.592E-02    0   0.9998   age020_m72            0.0000     4.0773E-04    13.3292   3.5071    98.2470
 52      0.0000     0.0000E+00    0.0000E+00    3.160000E+06  0.05000  4.845E-02    0   0.9577   age045_m72            0.0000     3.6707E-04    12.6174   3.3230   100.9808
 53      0.0000     0.0000E+00    0.0000E+00    5.010000E+06  0.05000  3.072E-02    0   0.9147   age055_m72            0.0000     4.0234E-04    13.7742   2.8589   104.6769
 54      0.0000     0.0000E+00    0.0000E+00    6.610000E+06  0.05000  1.455E-02    0   0.8877   age061_m72            0.0000     6.5717E-04    19.3759   2.1596   108.2187
 55      0.0000     0.0000E+00    0.0000E+00    1.000000E+07  0.05000  9.074E-03    0   0.8524   age070_m72            0.0000     4.1820E-04    13.6072   3.0243   104.6325
 56      0.0000     0.0000E+00    0.0000E+00    2.512000E+07  0.05000  4.250E-03    0   0.7902   age090_m72            0.0000     3.7478E-04    13.2928   2.7251   106.9441
 57      0.0000     0.0000E+00    0.0000E+00    4.000000E+07  0.05000  3.087E-03    0   0.7618   age104_m72            0.0000     3.6894E-04    13.3511   2.4958   108.8369
 58      0.0000     0.0000E+00    0.0000E+00    1.015200E+08  0.05000  1.700E-03    0   0.7096   age116_m72            0.0000     2.9305E-04    11.8409   2.2217   112.8889
 59      0.0000     0.0000E+00    0.0000E+00    2.861200E+08  0.05000  7.384E-04    0   0.6633   age125_m72            0.0000     1.9923E-04     9.3068   1.6594   120.0082
 60      0.0000     0.0000E+00    0.0000E+00    5.088000E+08  0.05000  3.819E-04    0   0.6372   age130_m72            0.0000     1.4697E-04     8.1648   1.1515   122.6072
 61      0.0000     0.0000E+00    0.0000E+00    9.047900E+08  0.05000  1.676E-04    0   0.6110   age135_m72            0.0000     1.0930E-04     7.5106   0.4463   120.6802
 62      0.0000     0.0000E+00    0.0000E+00    1.434000E+09  0.05000  8.837E-05    0   0.5874   age139_m72            0.0000     1.0195E-04     7.2312  -0.0128   120.0287
 63      0.0000     0.0000E+00    0.0000E+00    2.500000E+09  0.05000  4.233E-05    0   0.5598   age150_m72            0.0000     8.5310E-05     6.8584  -0.3401   119.1571
 64      0.0000     0.0000E+00    0.0000E+00    6.250000E+09  0.05000  1.435E-05    0   0.5249   age166_m72            0.0000     7.4831E-05     6.5910  -0.8084   118.0459
 65      0.0000     0.0000E+00    0.0000E+00    1.300000E+10  0.05000  6.513E-06    0   0.5036   age193_m72            0.0000     8.5132E-05     6.9175  -1.0000   116.1328
 66      0.0000     0.0000E+00    0.0000E+00    1.800000E+10  0.05000  4.527E-06    0   0.4945   age213_m72            0.0000     1.2673E-04     8.0398  -1.0000   110.1889


## Synthesis Results - Average & Chains ##

# j      x_j: min, <> & last-chain-values for 1 ...  7 chains
  1      0.0000      0.6447      0.2448      0.6349      0.2590      0.4871      0.8383      0.2906      0.5444
  2      0.0000      0.2972      0.1001      0.0556      0.0000      0.1525      0.2822      0.0112      0.0079
  3      0.0000      0.3631      0.0045      0.0294      0.0778      0.1414      0.0283      0.0221      0.1684
  4      0.0000      0.2591      0.0000      0.0017      0.0019      0.0000      0.1651      0.0000      0.0000
  5      0.0000      0.3706      0.4162      0.1306      0.0162      0.0000      0.0145      0.0253      0.1032
  6      0.0000      0.3792      0.1133      0.3471      0.0058      0.0551      0.0264      0.2064      0.0204
  7      0.0000      0.3792      0.0395      0.0318      0.0195      0.2799      0.1190      0.1048      0.3739
  8      0.0000      0.3565      0.0000      0.1040      0.0298      0.0000      0.1512      0.3331      0.0960
  9      0.0000      0.4194      0.0000      0.2617      0.0000      0.0110      0.0000      0.0378      0.1779
 10      0.0000      0.3180      0.0000      0.0000      0.0241      0.0007      0.0000      0.0504      0.1701
 11      0.0000      0.3269      0.1156      0.0000      0.0174      0.3955      0.0947      0.0257      0.0000
 12      0.0000      0.3502      0.0774      0.2518      0.0132      0.0347      0.0000      0.0000      0.0870
 13      0.0000      0.3092      0.0679      0.0463      0.0944      0.0300      0.2009      0.1401      0.1277
 14      0.0000      0.2612      0.1394      0.0326      0.0000      0.1672      0.0371      0.0667      0.0180
 15      0.0000      0.2651      0.0000      0.1001      0.0459      0.3394      0.0000      0.1125      0.0000
 16      0.0000      0.3393      0.3260      0.3601      0.2163      0.0924      0.3039      0.5198      0.3162
 17      0.0000      0.3790      0.1707      0.1847      0.0045      0.0000      0.1458      0.1030      0.0250
 18      0.0000      0.3940      0.4127      0.5176      0.3352      0.1581      0.2801      0.5458      0.3931
 19      0.0000      0.7193      0.6784      0.6229      0.5647      0.5543      0.6491      0.8762      0.5914
 20      0.0000      0.2803      0.1136      0.0343      0.0000      0.1091      0.0512      0.0940      0.0992
 21      0.0000      0.3400      0.1368      0.0000      0.0000      0.0000      0.0000      0.1149      0.0206
 22      0.0000      0.4074      0.0000      0.5132      0.0371      0.0341      0.1926      0.0181      0.2601
 23      0.0000      0.2669      0.0288      0.1668      0.0000      0.0193      0.0000      0.0000      0.1083
 24      0.0000      0.4219      0.0630      0.0504      0.0102      0.0901      0.1318      0.1514      0.3975
 25      0.0000      0.2970      0.0215      0.1500      0.0122      0.0000      0.1648      0.1758      0.1075
 26      0.0000      0.6065      0.0000      0.1461      0.0343      0.3305      0.1120      0.0115      0.0178
 27      0.0000      0.2949      0.0733      0.1341      0.0173      0.1282      0.0753      0.0787      0.1385
 28      0.0000      0.2373      0.1181      0.1152      0.0270      0.1337      0.0000      0.0877      0.1836
 29      0.0000      0.2952      0.1226      0.0000      0.0000      0.0080      0.0701      0.0114      0.1548
 30      0.0000      0.2566      0.1969      0.0655      0.0000      0.0390      0.2026      0.1505      0.1551
 31      0.0000      0.4413      0.1743      0.0617      0.0025      0.0980      0.0869      0.0000      0.2269
 32      0.0000      0.2188      0.2242      0.0723      0.0523      0.1019      0.0260      0.0400      0.1911
 33     10.0871     48.5736     57.1065     56.3570     60.5621     56.6222     57.4816     57.3462     56.1785
 34      0.0000     31.3904     36.4417     36.4470     38.8769     36.5509     35.2300     35.4149     36.4983
 35      0.0000      1.0667      0.7644      0.9025      0.6734      1.1039      1.0526      0.8518      0.9974
 36      0.0000      0.5093      0.3418      0.3791      0.0914      0.3862      0.4422      0.4327      0.6045
 37      0.0000      0.4202      0.1197      0.8243      0.0530      0.1149      0.1146      0.1326      0.0000
 38      0.0000      0.4606      0.3241      0.0000      0.0408      0.0439      0.0000      0.1868      0.1349
 39      0.0000      0.3142      0.0000      0.0839      0.0000      0.2241      0.0000      0.0053      0.0000
 40      0.0000      0.2492      0.1038      0.3166      0.0603      0.0478      0.0000      0.0966      0.0565
 41      0.0000      0.3215      0.0000      0.1778      0.0000      0.3824      0.0296      0.1361      0.0072
 42      0.0000      0.4949      0.0774      0.0000      0.0000      0.0000      0.0702      0.0547      0.0116
 43      0.0000      0.3593      0.1537      0.2937      0.0000      0.2095      0.0759      0.1383      0.2274
 44      0.0000      0.3868      0.0000      0.2347      0.0000      0.0379      0.3979      0.0102      0.0610
 45      0.0000      0.2907      0.1633      0.0334      0.0095      0.0000      0.0746      0.0000      0.0000
 46      0.0000      0.2559      0.2807      0.0000      0.0405      0.0359      0.1104      0.0633      0.1062
