###################################################################
## OUTPUT of StarlightChains_v04.for    [Cid@UFSC - 01/Apr/2007] ##
###################################################################

## Some input info
KUG0210-078._30_31.txt                   [arq_obs]
Base.CB07.vall.4m                        [arq_base]
Masks.EmLines.NEW.gm                     [arq_masks]
StCv04.C11.config                        [arq_config]
   66                                    [N_base]
    0                                    [N_YAV_components = # of components with extra extinction!]
    0                                    [i_FitPowerLaw (1/0 = Yes/No)]
-9.99                                    [alpha_PowerLaw]
CCM                                      [red_law_option]
 1.458241                                [q_norm = A(l_norm)/A(V)]

## (Re)Sampling Parameters
 3741.00                                 [l_ini (A)]
 7218.00                                 [l_fin (A)]
    1.00                                 [dl    (A)]     (OBS: dl_cushion =    50.00 A)

## Normalization info
 4020.00                                 [l_norm (A) - for base]
 4010.00                                 [llow_norm (A) - window for f_obs]
 4060.00                                 [lupp_norm (A) - window for f_obs]
7.378865E-17                             [fobs_norm (in input units)]

## S/N
 3691.00                                 [llow_SN (A) - window for S/N]
 7268.00                                 [lupp_SN (A) - window for S/N]
   5.220                                 [S/N in S/N window]
   4.402                                 [S/N in norm. window]
   0.130                                 [S/N_err in S/N window]
   0.109                                 [S/N_err in norm. window]
  1.0000                                 [fscale_chi2]

## etc...
    -2007432                             [idum_orig]
  2432                                   [NOl_eff]
  2397                                   [Nl_eff]
    35    NSIGMA                         [Ntot_cliped & clip_method]
 10495730                                [Nglobal_steps]
   7                                     [N_chains]
   7                                     [NEX0s_base = N_base in EX0s-fits]
 0   0   1       35   2.0   1.835E+04    [Clip-Bug, RC-Crash & Burn-In warning-flags, n_censored_weights, wei_nsig_threshold & wei_limit]
   131    131.145    130.439      0.706  [idt_all, wdt_TotTime, wdt_UsrTime & wdt_SysTime (sec)]

## Synthesis Results - Best model ##

 5.43829E-05                             [chi2/Nl_eff]
     3.97524                             [adev (%)]

   114.13403                             [sum-of-x (%)]
 2.93246E-17                             [Flux_tot (units of input spectrum!)]
 3.95768E-12                             [Mini_tot (???)]
 1.97200E-12                             [Mcor_tot (???)]

  21.42                                  [v0_min  (km/s)]
 209.76                                  [vd_min  (km/s)]
-0.7855                                  [AV_min  (mag)]
 0.0000                                  [YAV_min (mag)]

# j     x_j(%)      Mini_j(%)     Mcor_j(%)     age_j(yr)     Z_j      (L/M)_j    YAV?  Mstars   component_j        a/Fe...       SSP_chi2r SSP_adev(%)   SSP_AV   SSP_x(%)
  1      0.0000     0.0000E+00    0.0000E+00    1.000000E+06  0.00400  1.094E-02    0   1.0000   age020_m42            0.0000     6.4028E-04    11.9450   3.5802    92.0256
  2      0.0000     0.0000E+00    0.0000E+00    3.160000E+06  0.00400  4.007E-02    0   0.9999   age045_m42            0.0000     5.1969E-04    10.7460   2.8462    98.5890
  3      0.0000     0.0000E+00    0.0000E+00    5.010000E+06  0.00400  2.539E-02    0   0.9488   age055_m42            0.0000     5.7390E-04    11.3517   3.1716    96.0223
  4      0.0000     0.0000E+00    0.0000E+00    6.610000E+06  0.00400  2.620E-02    0   0.9220   age061_m42            0.0000     5.2323E-04    10.8236   2.7753    98.6914
  5      0.0000     0.0000E+00    0.0000E+00    1.000000E+07  0.00400  1.322E-02    0   0.8862   age070_m42            0.0000     5.9750E-04    12.2894   2.5204    99.7577
  6      0.0000     0.0000E+00    0.0000E+00    1.445000E+07  0.00400  7.883E-03    0   0.8571   age078_m42            0.0000     6.2204E-04    12.4165   2.8448    97.3419
  7      0.0000     0.0000E+00    0.0000E+00    2.512000E+07  0.00400  5.251E-03    0   0.8174   age090_m42            0.0000     6.0687E-04    12.5467   2.3939   100.1752
  8      0.0000     0.0000E+00    0.0000E+00    4.000000E+07  0.00400  3.649E-03    0   0.7851   age104_m42            0.0000     5.7156E-04    12.1819   2.1633   101.1662
  9      0.0000     0.0000E+00    0.0000E+00    5.500000E+07  0.00400  3.098E-03    0   0.7629   age110_m42            0.0000     5.2747E-04    11.3157   2.3022   101.7109
 10      0.0000     0.0000E+00    0.0000E+00    1.015200E+08  0.00400  2.228E-03    0   0.7207   age116_m42            0.0000     5.0106E-04    10.7675   2.3149   102.1722
 11      0.0000     0.0000E+00    0.0000E+00    2.861200E+08  0.00400  1.093E-03    0   0.6648   age125_m42            0.0000     4.9453E-04    10.8948   1.7494   104.9090
 12      0.0000     0.0000E+00    0.0000E+00    5.088000E+08  0.00400  6.597E-04    0   0.6365   age130_m42            0.0000     4.3842E-04    10.0210   1.7257   106.3844
 13      0.0000     0.0000E+00    0.0000E+00    1.434000E+09  0.00400  2.132E-04    0   0.5798   age139_m42            0.0000     3.1310E-04     8.8166   0.7492   108.8594
 14      0.0000     0.0000E+00    0.0000E+00    4.250000E+09  0.00400  5.895E-05    0   0.5377   age158_m42            0.0000     2.2842E-04     7.4587   0.2926   105.4280
 15      0.0000     0.0000E+00    0.0000E+00    7.500000E+09  0.00400  3.510E-05    0   0.5212   age171_m42            0.0000     1.9568E-04     6.7910   0.0947   105.1177
 16      0.0000     0.0000E+00    0.0000E+00    1.300000E+10  0.00400  2.005E-05    0   0.5034   age193_m42            0.0000     1.7424E-04     6.2524  -0.0791   104.8726
 17      0.0000     0.0000E+00    0.0000E+00    1.800000E+10  0.00400  1.525E-05    0   0.4967   age213_m42            0.0000     1.8070E-04     6.4352  -0.0995   104.3194
 18      0.0000     0.0000E+00    0.0000E+00    1.000000E+06  0.00800  1.238E-02    0   1.0000   age020_m52            0.0000     6.4002E-04    11.9466   3.5765    92.2151
 19      0.0000     0.0000E+00    0.0000E+00    3.160000E+06  0.00800  3.074E-02    0   0.9966   age045_m52            0.0000     6.2795E-04    11.8379   3.4989    93.1033
 20      0.0000     0.0000E+00    0.0000E+00    5.010000E+06  0.00800  2.668E-02    0   0.9443   age055_m52            0.0000     5.9011E-04    11.5478   3.2550    95.1518
 21      0.0000     0.0000E+00    0.0000E+00    6.610000E+06  0.00800  2.136E-02    0   0.9177   age061_m52            0.0000     5.4002E-04    11.9462   2.0199   101.0560
 22      0.0000     0.0000E+00    0.0000E+00    1.000000E+07  0.00800  1.215E-02    0   0.8827   age070_m52            0.0000     6.3967E-04    12.8729   2.7036    99.3402
 23      0.0000     0.0000E+00    0.0000E+00    1.445000E+07  0.00800  8.717E-03    0   0.8552   age078_m52            0.0000     6.1063E-04    12.3718   2.8101    98.7109
 24      0.0000     0.0000E+00    0.0000E+00    2.512000E+07  0.00800  5.592E-03    0   0.8162   age090_m52            0.0000     6.0268E-04    12.5733   2.4560   101.4018
 25      0.0000     0.0000E+00    0.0000E+00    4.000000E+07  0.00800  3.896E-03    0   0.7841   age104_m52            0.0000     5.6007E-04    12.0146   2.3615   102.4410
 26      0.0000     0.0000E+00    0.0000E+00    1.015200E+08  0.00800  2.148E-03    0   0.7226   age116_m52            0.0000     5.0333E-04    11.0655   2.2884   102.7320
 27      0.0000     0.0000E+00    0.0000E+00    2.861200E+08  0.00800  9.925E-04    0   0.6683   age125_m52            0.0000     4.3301E-04    10.1035   1.7915   107.3288
 28      0.0000     0.0000E+00    0.0000E+00    9.047900E+08  0.00800  3.141E-04    0   0.6138   age135_m52            0.0000     2.7072E-04     7.9947   0.9665   112.9966
 29      0.0000     0.0000E+00    0.0000E+00    1.434000E+09  0.00800  1.719E-04    0   0.5853   age139_m52            0.0000     2.2840E-04     7.5317   0.3867   110.7247
 30      0.0000     0.0000E+00    0.0000E+00    2.500000E+09  0.00800  7.872E-05    0   0.5600   age150_m52            0.0000     1.6233E-04     6.2103   0.1027   108.5764
 31      0.0000     0.0000E+00    0.0000E+00    4.250000E+09  0.00800  4.336E-05    0   0.5426   age158_m52            0.0000     1.5941E-04     6.1197   0.0860   107.6203
 32      0.0000     0.0000E+00    0.0000E+00    6.250000E+09  0.00800  3.159E-05    0   0.5319   age166_m52            0.0000     1.2469E-04     5.2696  -0.1304   108.1918
 33      0.0000     0.0000E+00    0.0000E+00    1.300000E+10  0.00800  1.361E-05    0   0.5073   age193_m52            0.0000     9.2648E-05     4.4757  -0.6168   108.2419
 34      0.0000     0.0000E+00    0.0000E+00    1.800000E+10  0.00800  9.886E-06    0   0.4990   age213_m52            0.0000     7.7610E-05     4.1776  -0.7424   108.4174
 35      0.0000     0.0000E+00    0.0000E+00    1.000000E+06  0.02000  1.544E-02    0   1.0000   age020_m62            0.0000     6.4391E-04    11.9758   3.5729    92.4297
 36      0.0000     0.0000E+00    0.0000E+00    3.160000E+06  0.02000  3.762E-02    0   0.9858   age045_m62            0.0000     6.4090E-04    11.9060   3.5085    93.3809
 37      0.0000     0.0000E+00    0.0000E+00    5.010000E+06  0.02000  3.296E-02    0   0.9342   age055_m62            0.0000     5.4613E-04    10.9591   3.1255    97.4312
 38      0.0000     0.0000E+00    0.0000E+00    8.710000E+06  0.02000  1.154E-02    0   0.8861   age067_m62            0.0000     9.0177E-04    16.4738   2.1952   100.3602
 39      0.0000     0.0000E+00    0.0000E+00    1.445000E+07  0.02000  7.663E-03    0   0.8472   age078_m62            0.0000     6.8573E-04    13.7334   2.3606   101.1223
 40      0.0000     0.0000E+00    0.0000E+00    2.512000E+07  0.02000  4.532E-03    0   0.8099   age090_m62            0.0000     6.9932E-04    13.8729   2.3533   100.7551
 41      0.0000     0.0000E+00    0.0000E+00    5.500000E+07  0.02000  2.733E-03    0   0.7595   age110_m62            0.0000     5.6415E-04    12.0451   2.3460   101.6518
 42      0.0000     0.0000E+00    0.0000E+00    1.609000E+08  0.02000  1.369E-03    0   0.6985   age120_m62            0.0000     4.8769E-04    10.7884   2.1669   105.1333
 43      0.0000     0.0000E+00    0.0000E+00    2.861200E+08  0.02000  9.013E-04    0   0.6714   age125_m62            0.0000     4.4152E-04    10.2099   1.9047   108.6653
 44      0.0000     0.0000E+00    0.0000E+00    5.088000E+08  0.02000  5.028E-04    0   0.6449   age130_m62            0.0000     3.3498E-04     8.6412   1.5013   112.7037
 45      0.0000     0.0000E+00    0.0000E+00    9.047900E+08  0.02000  2.428E-04    0   0.6179   age135_m62            0.0000     2.1541E-04     7.0358   0.9011   112.6917
 46      0.0000     0.0000E+00    0.0000E+00    1.434000E+09  0.02000  1.263E-04    0   0.5908   age139_m62            0.0000     1.6972E-04     6.3884   0.4525   111.2954
 47      0.0000     0.0000E+00    0.0000E+00    2.500000E+09  0.02000  5.985E-05    0   0.5673   age150_m62            0.0000     1.2205E-04     5.2962   0.0695   110.5608
 48      0.0000     0.0000E+00    0.0000E+00    4.250000E+09  0.02000  3.271E-05    0   0.5468   age158_m62            0.0000     8.5969E-05     4.4465  -0.2576   110.5156
 49      0.0000     0.0000E+00    0.0000E+00    1.000000E+10  0.02000  1.360E-05    0   0.5167   age181_m62            0.0000     6.2213E-05     4.1083  -0.6359   111.2986
 50     17.0364     1.5525E+01    1.5619E+01    1.800000E+10  0.02000  7.124E-06    0   0.5013   age213_m62            0.0000     6.2319E-05     4.2665  -0.8730   111.5101
 51      0.0000     0.0000E+00    0.0000E+00    1.000000E+06  0.05000  2.592E-02    0   0.9998   age020_m72            0.0000     6.5845E-04    12.1303   3.5661    92.4162
 52      0.0000     0.0000E+00    0.0000E+00    3.160000E+06  0.05000  4.845E-02    0   0.9577   age045_m72            0.0000     5.9884E-04    11.5031   3.3888    94.7268
 53      0.0000     0.0000E+00    0.0000E+00    5.010000E+06  0.05000  3.072E-02    0   0.9147   age055_m72            0.0000     6.6610E-04    12.7982   2.9261    97.9541
 54      0.0000     0.0000E+00    0.0000E+00    6.610000E+06  0.05000  1.455E-02    0   0.8877   age061_m72            0.0000     1.1114E-03    18.0822   2.2313   100.7997
 55      0.0000     0.0000E+00    0.0000E+00    1.000000E+07  0.05000  9.074E-03    0   0.8524   age070_m72            0.0000     7.0461E-04    12.6839   3.0912    97.8682
 56      0.0000     0.0000E+00    0.0000E+00    2.512000E+07  0.05000  4.250E-03    0   0.7902   age090_m72            0.0000     6.4424E-04    12.4793   2.8027    99.5584
 57      0.0000     0.0000E+00    0.0000E+00    4.000000E+07  0.05000  3.087E-03    0   0.7618   age104_m72            0.0000     6.4257E-04    12.5554   2.5780   101.0839
 58      0.0000     0.0000E+00    0.0000E+00    1.015200E+08  0.05000  1.700E-03    0   0.7096   age116_m72            0.0000     5.3123E-04    11.3617   2.3140   104.4072
 59      0.0000     0.0000E+00    0.0000E+00    2.861200E+08  0.05000  7.384E-04    0   0.6633   age125_m72            0.0000     3.8068E-04     9.4216   1.7581   110.7978
 60      0.0000     0.0000E+00    0.0000E+00    5.088000E+08  0.05000  3.819E-04    0   0.6372   age130_m72            0.0000     2.5525E-04     7.6625   1.2433   113.7154
 61     16.5021     6.3921E-01    7.8382E-01    9.047900E+08  0.05000  1.676E-04    0   0.6110   age135_m72            0.0000     1.3671E-04     5.5899   0.5216   112.9487
 62     21.5539     1.5834E+00    1.8667E+00    1.434000E+09  0.05000  8.837E-05    0   0.5874   age139_m72            0.0000     1.0956E-04     5.0816   0.0595   112.5724
 63      0.0000     0.0000E+00    0.0000E+00    2.500000E+09  0.05000  4.233E-05    0   0.5598   age150_m72            0.0000     7.3195E-05     4.2542  -0.2705   112.0281
 64      0.0000     0.0000E+00    0.0000E+00    6.250000E+09  0.05000  1.435E-05    0   0.5249   age166_m72            0.0000     5.8814E-05     4.1326  -0.7438   111.3147
 65      5.5265     5.5086E+00    5.5675E+00    1.300000E+10  0.05000  6.513E-06    0   0.5036   age193_m72            0.0000     7.2220E-05     4.6445  -1.0000   111.9370
 66     53.5152     7.6744E+01    7.6163E+01    1.800000E+10  0.05000  4.527E-06    0   0.4945   age213_m72            0.0000     1.3566E-04     6.3943  -1.0000   106.7813


## Synthesis Results - Average & Chains ##

# j      x_j: min, <> & last-chain-values for 1 ...  7 chains
  1      0.0000      0.1681      0.0022      0.0748      0.0199      0.0301      0.0433      0.0000      0.0279
  2      0.0000      0.1272      0.0000      0.0328      0.0000      0.0087      0.0323      0.0122      0.0057
  3      0.0000      0.2316      0.0020      0.0208      0.0000      0.0135      0.0122      0.0000      0.0254
  4      0.0000      0.1885      0.0030      0.0239      0.0042      0.0102      0.0111      0.0142      0.0197
  5      0.0000      0.2273      0.0013      0.0355      0.0000      0.0344      0.0155      0.0002      0.0228
  6      0.0000      0.1911      0.0023      0.0263      0.0134      0.0462      0.0000      0.0130      0.0557
  7      0.0000      0.2188      0.0000      0.0000      0.0000      0.0192      0.0064      0.0176      0.0000
  8      0.0000      0.2717      0.0024      0.0147      0.0019      0.0343      0.0304      0.0763      0.0075
  9      0.0000      0.1896      0.0031      0.0000      0.0000      0.0033      0.0000      0.0066      0.0156
 10      0.0000      0.1731      0.0003      0.0173      0.0000      0.0000      0.0033      0.0057      0.0030
 11      0.0000      0.2359      0.0000      0.0000      0.0000      0.0210      0.0655      0.0417      0.0180
 12      0.0000      0.2698      0.0007      0.0295      0.0017      0.0153      0.0001      0.0236      0.0064
 13      0.0000      0.2049      0.0000      0.0065      0.0021      0.0000      0.0324      0.0570      0.0145
 14      0.0000      0.1610      0.0000      0.0189      0.0032      0.0194      0.1186      0.0183      0.0178
 15      0.0000      0.2048      0.0000      0.0782      0.0111      0.0138      0.0000      0.0100      0.0574
 16      0.0000      0.2076      0.0007      0.0169      0.0000      0.0452      0.0089      0.0000      0.0363
 17      0.0000      0.1896      0.0027      0.0015      0.0008      0.0079      0.0101      0.0524      0.0349
 18      0.0000      0.1921      0.0000      0.0571      0.0005      0.0116      0.0181      0.0038      0.0212
 19      0.0000      0.2893      0.0000      0.0000      0.0034      0.0050      0.0505      0.0339      0.0272
 20      0.0000      0.2443      0.0039      0.0306      0.0066      0.0000      0.0140      0.0510      0.0639
 21      0.0000      0.1914      0.0011      0.0467      0.0005      0.0025      0.0019      0.0093      0.0074
 22      0.0000      0.1857      0.0062      0.0014      0.0000      0.0077      0.0275      0.0168      0.0000
 23      0.0000      0.2328      0.0001      0.0000      0.0081      0.0700      0.0139      0.0000      0.0041
 24      0.0000      0.2199      0.0041      0.0252      0.0023      0.0580      0.0394      0.0367      0.0000
 25      0.0000      0.1815      0.0000      0.0220      0.0101      0.0301      0.0141      0.0414      0.0317
 26      0.0000      0.1500      0.0006      0.0178      0.0028      0.0237      0.0283      0.0233      0.0294
 27      0.0000      0.1717      0.0042      0.0098      0.0027      0.0019      0.0047      0.0150      0.0302
 28      0.0000      0.1953      0.0122      0.0655      0.0032      0.0531      0.0148      0.0475      0.0125
 29      0.0000      0.1967      0.0021      0.0179      0.0000      0.0185      0.0565      0.0392      0.0000
 30      0.0000      0.1821      0.0025      0.0149      0.0011      0.0027      0.0303      0.0199      0.0207
 31      0.0000      0.1703      0.0002      0.0339      0.0029      0.0232      0.0270      0.0191      0.0353
 32      0.0000      0.1959      0.0019      0.0441      0.0042      0.0164      0.0194      0.0125      0.0084
 33      0.0000      0.1657      0.0113      0.0269      0.0005      0.0797      0.0231      0.0000      0.0089
 34      0.0000      0.2015      0.0000      0.0505      0.0017      0.0185      0.0346      0.0435      0.0000
 35      0.0000      0.2109      0.0000      0.0280      0.0231      0.0246      0.0159      0.0000      0.0000
 36      0.0000      0.1860      0.0000      0.0000      0.0007      0.0009      0.0319      0.0328      0.0224
 37      0.0000      0.1505      0.0059      0.0308      0.0000      0.0044      0.0000      0.0325      0.0050
 38      0.0000      0.2213      0.0000      0.0000      0.0018      0.0154      0.0343      0.0038      0.0086
 39      0.0000      0.2013      0.0003      0.0022      0.0000      0.0132      0.0087      0.0383      0.1245
 40      0.0000      0.2170      0.0188      0.1474      0.0130      0.0537      0.0872      0.0920      0.0840
 41      0.0000      0.2288      0.0015      0.0120      0.0021      0.0123      0.0085      0.0000      0.0140
 42      0.0000      0.2148      0.0000      0.0000      0.0059      0.0009      0.0000      0.0427      0.0000
 43      0.0000      0.1702      0.0028      0.0801      0.0082      0.0346      0.0223      0.0229      0.0144
 44      0.0000      0.2605      0.0236      0.0075      0.0012      0.0132      0.0389      0.0517      0.0354
 45      0.0000      0.1510      0.0028      0.0483      0.0000      0.0000      0.0190      0.0026      0.0416
 46      0.0000      0.1593      0.0000      0.0047      0.0090      0.0372      0.0218      0.0747      0.0209
