###################################################################
## OUTPUT of StarlightChains_v04.for    [Cid@UFSC - 01/Apr/2007] ##
###################################################################

## Some input info
KUG0210-078._29_38.txt                   [arq_obs]
Base.CB07.vall.4m                        [arq_base]
Masks.EmLines.NEW.gm                     [arq_masks]
StCv04.C11.config                        [arq_config]
   66                                    [N_base]
    0                                    [N_YAV_components = # of components with extra extinction!]
    0                                    [i_FitPowerLaw (1/0 = Yes/No)]
-9.99                                    [alpha_PowerLaw]
CCM                                      [red_law_option]
 1.458241                                [q_norm = A(l_norm)/A(V)]

## (Re)Sampling Parameters
 3741.00                                 [l_ini (A)]
 7218.00                                 [l_fin (A)]
    1.00                                 [dl    (A)]     (OBS: dl_cushion =    50.00 A)

## Normalization info
 4020.00                                 [l_norm (A) - for base]
 4010.00                                 [llow_norm (A) - window for f_obs]
 4060.00                                 [lupp_norm (A) - window for f_obs]
3.664912E-17                             [fobs_norm (in input units)]

## S/N
 3691.00                                 [llow_SN (A) - window for S/N]
 7268.00                                 [lupp_SN (A) - window for S/N]
   6.748                                 [S/N in S/N window]
   7.000                                 [S/N in norm. window]
   0.053                                 [S/N_err in S/N window]
   0.055                                 [S/N_err in norm. window]
  1.0000                                 [fscale_chi2]

## etc...
    -2007414                             [idum_orig]
  2432                                   [NOl_eff]
  2432                                   [Nl_eff]
     0    NSIGMA                         [Ntot_cliped & clip_method]
   444780                                [Nglobal_steps]
   7                                     [N_chains]
  19                                     [NEX0s_base = N_base in EX0s-fits]
 0   0   1       22   2.0   8.773E-02    [Clip-Bug, RC-Crash & Burn-In warning-flags, n_censored_weights, wei_nsig_threshold & wei_limit]
    10      9.875      9.491      0.384  [idt_all, wdt_TotTime, wdt_UsrTime & wdt_SysTime (sec)]

## Synthesis Results - Best model ##

 4.88024E-05                             [chi2/Nl_eff]
     9.73269                             [adev (%)]

    93.13657                             [sum-of-x (%)]
 3.97954E-16                             [Flux_tot (units of input spectrum!)]
 7.01723E-13                             [Mini_tot (???)]
 3.77647E-13                             [Mcor_tot (???)]

 107.27                                  [v0_min  (km/s)]
 458.00                                  [vd_min  (km/s)]
 1.8287                                  [AV_min  (mag)]
 0.0000                                  [YAV_min (mag)]

# j     x_j(%)      Mini_j(%)     Mcor_j(%)     age_j(yr)     Z_j      (L/M)_j    YAV?  Mstars   component_j        a/Fe...       SSP_chi2r SSP_adev(%)   SSP_AV   SSP_x(%)
  1      0.0000     0.0000E+00    0.0000E+00    1.000000E+06  0.00400  1.094E-02    0   1.0000   age020_m42            0.0000     1.0298E-04    15.0783   3.2586    82.4050
  2      0.0000     0.0000E+00    0.0000E+00    3.160000E+06  0.00400  4.007E-02    0   0.9999   age045_m42            0.0000     8.8779E-05    13.9251   2.5232    88.4410
  3      2.0461     4.9070E-02    8.6511E-02    5.010000E+06  0.00400  2.539E-02    0   0.9488   age055_m42            0.0000     9.2849E-05    14.3087   2.8471    86.1587
  4      0.0000     0.0000E+00    0.0000E+00    6.610000E+06  0.00400  2.620E-02    0   0.9220   age061_m42            0.0000     8.5496E-05    13.6739   2.4501    88.6721
  5      0.0000     0.0000E+00    0.0000E+00    1.000000E+07  0.00400  1.322E-02    0   0.8862   age070_m42            0.0000     6.9536E-05    12.2860   2.1921    90.0522
  6      0.0000     0.0000E+00    0.0000E+00    1.445000E+07  0.00400  7.883E-03    0   0.8571   age078_m42            0.0000     7.4706E-05    12.7481   2.5173    87.7626
  7      0.0000     0.0000E+00    0.0000E+00    2.512000E+07  0.00400  5.251E-03    0   0.8174   age090_m42            0.0000     6.5990E-05    11.9437   2.0664    90.4939
  8      0.0000     0.0000E+00    0.0000E+00    4.000000E+07  0.00400  3.649E-03    0   0.7851   age104_m42            0.0000     6.6126E-05    11.9532   1.8353    91.3768
  9      0.0000     0.0000E+00    0.0000E+00    5.500000E+07  0.00400  3.098E-03    0   0.7629   age110_m42            0.0000     7.1821E-05    12.4477   1.9764    91.6619
 10      0.0000     0.0000E+00    0.0000E+00    1.015200E+08  0.00400  2.228E-03    0   0.7207   age116_m42            0.0000     7.5836E-05    12.7821   1.9897    91.9988
 11      0.0000     0.0000E+00    0.0000E+00    2.861200E+08  0.00400  1.093E-03    0   0.6648   age125_m42            0.0000     6.7271E-05    11.9578   1.4228    94.6692
 12      0.0000     0.0000E+00    0.0000E+00    5.088000E+08  0.00400  6.597E-04    0   0.6365   age130_m42            0.0000     7.6265E-05    12.7424   1.4036    95.6856
 13      0.0000     0.0000E+00    0.0000E+00    1.434000E+09  0.00400  2.132E-04    0   0.5798   age139_m42            0.0000     8.2542E-05    13.1569   0.4389    97.4032
 14      0.0000     0.0000E+00    0.0000E+00    4.250000E+09  0.00400  5.895E-05    0   0.5377   age158_m42            0.0000     1.0226E-04    14.5725  -0.0107    93.7505
 15      0.0000     0.0000E+00    0.0000E+00    7.500000E+09  0.00400  3.510E-05    0   0.5212   age171_m42            0.0000     1.1129E-04    15.1259  -0.2016    93.1160
 16      0.0000     0.0000E+00    0.0000E+00    1.300000E+10  0.00400  2.005E-05    0   0.5034   age193_m42            0.0000     1.1974E-04    15.6244  -0.3707    92.6271
 17      0.0000     0.0000E+00    0.0000E+00    1.800000E+10  0.00400  1.525E-05    0   0.4967   age213_m42            0.0000     1.1842E-04    15.5316  -0.3920    92.1875
 18      0.0000     0.0000E+00    0.0000E+00    1.000000E+06  0.00800  1.238E-02    0   1.0000   age020_m52            0.0000     1.0321E-04    15.0947   3.2550    82.5682
 19      0.0000     0.0000E+00    0.0000E+00    3.160000E+06  0.00800  3.074E-02    0   0.9966   age045_m52            0.0000     1.0255E-04    15.0512   3.1763    83.3775
 20      0.0000     0.0000E+00    0.0000E+00    5.010000E+06  0.00800  2.668E-02    0   0.9443   age055_m52            0.0000     9.4177E-05    14.4140   2.9320    85.3251
 21      0.0000     0.0000E+00    0.0000E+00    6.610000E+06  0.00800  2.136E-02    0   0.9177   age061_m52            0.0000     7.4686E-05    12.7813   1.6978    90.9124
 22      0.0000     0.0000E+00    0.0000E+00    1.000000E+07  0.00800  1.215E-02    0   0.8827   age070_m52            0.0000     6.7036E-05    12.0145   2.3770    89.6828
 23      0.0000     0.0000E+00    0.0000E+00    1.445000E+07  0.00800  8.717E-03    0   0.8552   age078_m52            0.0000     7.2804E-05    12.5794   2.4834    88.9911
 24      0.0000     0.0000E+00    0.0000E+00    2.512000E+07  0.00800  5.592E-03    0   0.8162   age090_m52            0.0000     6.4016E-05    11.7373   2.1294    91.5915
 25      0.0000     0.0000E+00    0.0000E+00    4.000000E+07  0.00800  3.896E-03    0   0.7841   age104_m52            0.0000     6.4884E-05    11.8156   2.0354    92.4550
 26      0.0000     0.0000E+00    0.0000E+00    1.015200E+08  0.00800  2.148E-03    0   0.7226   age116_m52            0.0000     7.1001E-05    12.3722   1.9623    92.6065
 27      0.0000     0.0000E+00    0.0000E+00    2.861200E+08  0.00800  9.925E-04    0   0.6683   age125_m52            0.0000     7.5505E-05    12.6980   1.4685    96.5941
 28      0.0000     0.0000E+00    0.0000E+00    9.047900E+08  0.00800  3.141E-04    0   0.6138   age135_m52            0.0000     9.1847E-05    13.7480   0.6668   100.5272
 29      0.0000     0.0000E+00    0.0000E+00    1.434000E+09  0.00800  1.719E-04    0   0.5853   age139_m52            0.0000     9.2785E-05    13.9061   0.0861    98.4759
 30      0.0000     0.0000E+00    0.0000E+00    2.500000E+09  0.00800  7.872E-05    0   0.5600   age150_m52            0.0000     1.1360E-04    15.3032  -0.1910    95.9977
 31      0.0000     0.0000E+00    0.0000E+00    4.250000E+09  0.00800  4.336E-05    0   0.5426   age158_m52            0.0000     1.1680E-04    15.4271  -0.2048    95.0263
 32      0.0000     0.0000E+00    0.0000E+00    6.250000E+09  0.00800  3.159E-05    0   0.5319   age166_m52            0.0000     1.2990E-04    16.1614  -0.4140    95.1384
 33      1.9439     8.6970E+01    8.1981E+01    1.300000E+10  0.00800  1.361E-05    0   0.5073   age193_m52            0.0000     1.4878E-04    17.1689  -0.8885    94.6033
 34      0.0000     0.0000E+00    0.0000E+00    1.800000E+10  0.00800  9.886E-06    0   0.4990   age213_m52            0.0000     1.6407E-04    17.9674  -1.0000    94.1417
 35      0.0000     0.0000E+00    0.0000E+00    1.000000E+06  0.02000  1.544E-02    0   1.0000   age020_m62            0.0000     1.0372E-04    15.1301   3.2513    82.7518
 36      0.0000     0.0000E+00    0.0000E+00    3.160000E+06  0.02000  3.762E-02    0   0.9858   age045_m62            0.0000     1.0392E-04    15.1483   3.1876    83.5553
 37      0.0000     0.0000E+00    0.0000E+00    5.010000E+06  0.02000  3.296E-02    0   0.9342   age055_m62            0.0000     9.2452E-05    14.2739   2.8005    87.4253
 38      0.0000     0.0000E+00    0.0000E+00    8.710000E+06  0.02000  1.154E-02    0   0.8861   age067_m62            0.0000     5.1749E-05     9.7112   1.8668    91.2688
 39      0.0000     0.0000E+00    0.0000E+00    1.445000E+07  0.02000  7.663E-03    0   0.8472   age078_m62            0.0000     5.9382E-05    11.1173   2.0340    91.4607
 40      0.0000     0.0000E+00    0.0000E+00    2.512000E+07  0.02000  4.532E-03    0   0.8099   age090_m62            0.0000     5.6406E-05    10.8194   2.0244    91.2839
 41      0.0000     0.0000E+00    0.0000E+00    5.500000E+07  0.02000  2.733E-03    0   0.7595   age110_m62            0.0000     6.5780E-05    11.9085   2.0185    91.7929
 42      0.0000     0.0000E+00    0.0000E+00    1.609000E+08  0.02000  1.369E-03    0   0.6985   age120_m62            0.0000     7.2107E-05    12.4468   1.8389    94.8388
 43      0.0000     0.0000E+00    0.0000E+00    2.861200E+08  0.02000  9.013E-04    0   0.6714   age125_m62            0.0000     7.8598E-05    12.9292   1.5831    97.7362
 44      0.0000     0.0000E+00    0.0000E+00    5.088000E+08  0.02000  5.028E-04    0   0.6449   age130_m62            0.0000     9.4680E-05    14.1024   1.1958   100.4565
 45      0.0000     0.0000E+00    0.0000E+00    9.047900E+08  0.02000  2.428E-04    0   0.6179   age135_m62            0.0000     1.0259E-04    14.5704   0.6057    99.8834
 46      0.0000     0.0000E+00    0.0000E+00    1.434000E+09  0.02000  1.263E-04    0   0.5908   age139_m62            0.0000     1.1031E-04    15.0031   0.1618    98.3718
 47      0.0000     0.0000E+00    0.0000E+00    2.500000E+09  0.02000  5.985E-05    0   0.5673   age150_m62            0.0000     1.2889E-04    16.1396  -0.2136    97.1783
 48      0.0000     0.0000E+00    0.0000E+00    4.250000E+09  0.02000  3.271E-05    0   0.5468   age158_m62            0.0000     1.4977E-04    17.3205  -0.5291    96.5346
 49      0.0000     0.0000E+00    0.0000E+00    1.000000E+10  0.02000  1.360E-05    0   0.5167   age181_m62            0.0000     1.7664E-04    18.6337  -0.8883    96.2980
 50      0.0000     0.0000E+00    0.0000E+00    1.800000E+10  0.02000  7.124E-06    0   0.5013   age213_m62            0.0000     1.9959E-04    19.6055  -1.0000    92.5991
 51      0.0000     0.0000E+00    0.0000E+00    1.000000E+06  0.05000  2.592E-02    0   0.9998   age020_m72            0.0000     1.0480E-04    15.1958   3.2454    82.7089
 52      1.4006     1.7602E-02    3.1324E-02    3.160000E+06  0.05000  4.845E-02    0   0.9577   age045_m72            0.0000     1.0049E-04    14.9151   3.0634    84.9004
 53      0.0000     0.0000E+00    0.0000E+00    5.010000E+06  0.05000  3.072E-02    0   0.9147   age055_m72            0.0000     7.3040E-05    12.5193   2.6031    88.1875
 54     58.3733     2.4429E+00    4.0294E+00    6.610000E+06  0.05000  1.455E-02    0   0.8877   age061_m72            0.0000     5.3538E-05     9.7005   1.8988    92.0013
 55      0.0000     0.0000E+00    0.0000E+00    1.000000E+07  0.05000  9.074E-03    0   0.8524   age070_m72            0.0000     7.3369E-05    12.5981   2.7671    88.1588
 56      0.0000     0.0000E+00    0.0000E+00    2.512000E+07  0.05000  4.250E-03    0   0.7902   age090_m72            0.0000     6.5156E-05    11.8438   2.4738    89.9428
 57      0.0000     0.0000E+00    0.0000E+00    4.000000E+07  0.05000  3.087E-03    0   0.7618   age104_m72            0.0000     6.0623E-05    11.4000   2.2477    91.4757
 58     29.3726     1.0521E+01    1.3872E+01    1.015200E+08  0.05000  1.700E-03    0   0.7096   age116_m72            0.0000     6.6634E-05    11.9453   1.9846    94.3506
 59      0.0000     0.0000E+00    0.0000E+00    2.861200E+08  0.05000  7.384E-04    0   0.6633   age125_m72            0.0000     8.6645E-05    13.5463   1.4448    99.2039
 60      0.0000     0.0000E+00    0.0000E+00    5.088000E+08  0.05000  3.819E-04    0   0.6372   age130_m72            0.0000     1.0103E-04    14.5796   0.9446   100.9616
 61      0.0000     0.0000E+00    0.0000E+00    9.047900E+08  0.05000  1.676E-04    0   0.6110   age135_m72            0.0000     1.2614E-04    16.0838   0.2393    99.2834
 62      0.0000     0.0000E+00    0.0000E+00    1.434000E+09  0.05000  8.837E-05    0   0.5874   age139_m72            0.0000     1.3272E-04    16.3085  -0.2172    98.7019
 63      0.0000     0.0000E+00    0.0000E+00    2.500000E+09  0.05000  4.233E-05    0   0.5598   age150_m72            0.0000     1.5739E-04    17.7401  -0.5355    97.5235
 64      0.0000     0.0000E+00    0.0000E+00    6.250000E+09  0.05000  1.435E-05    0   0.5249   age166_m72            0.0000     1.8292E-04    19.0233  -0.9907    96.0602
 65      0.0000     0.0000E+00    0.0000E+00    1.300000E+10  0.05000  6.513E-06    0   0.5036   age193_m72            0.0000     2.1837E-04    20.2642  -1.0000    88.8801
 66      0.0000     0.0000E+00    0.0000E+00    1.800000E+10  0.05000  4.527E-06    0   0.4945   age213_m72            0.0000     2.4708E-04    21.1103  -1.0000    83.8287


## Synthesis Results - Average & Chains ##

# j      x_j: min, <> & last-chain-values for 1 ...  7 chains
  1      0.0000      1.6252      0.0109      3.3073      0.1024      0.0000      0.0000      0.0000      0.0000
  2      0.0000      1.8451      0.1295      1.2717      0.0000      0.0000      0.0094      0.0000      0.0000
  3      2.0461      1.2975      0.8198      0.5735      1.3690      0.0141      0.0000      0.0387      0.0000
  4      0.0000      1.8905      0.0000     18.0903      6.2228      0.0000      0.0000      1.0843      0.0000
  5      0.0000      2.0729      0.0113      0.0000      8.1176      0.0000      0.0000      0.0000     12.7011
  6      0.0000      1.8327      0.0000      0.0043      0.1976      0.0003      2.3904      3.3431      0.0001
  7      0.0000      1.7332      0.4007      0.2034      0.0000      0.0000      0.5903      0.0829      0.0000
  8      0.0000      1.7947      3.6822     15.4580     18.0551      0.0000      1.4850      0.0000      0.0000
  9      0.0000      1.4268      5.0981     10.6032      0.2745      0.0000      5.1914      0.0774      0.0046
 10      0.0000      1.7845      0.0000      0.0004      0.2052      0.0002     16.9222      0.0000      0.0057
 11      0.0000      1.7429      0.0000      0.2002      0.0000      0.0000      0.0000      4.7425      0.0000
 12      0.0000      1.3978      0.2653      1.9491      0.0000      7.4266      0.0000      2.5737      0.1478
 13      0.0000      1.0923      1.2266      0.0000      0.0000      0.0000      0.0000      0.9864      0.2099
 14      0.0000      1.8251      5.6798      0.0011      5.2861      0.0000      0.0189      0.0000      0.0000
 15      0.0000      1.5900      0.0000      0.0000      0.0000      0.0000      0.3005      0.0000      0.0000
 16      0.0000      1.4155      1.8095      0.0010      0.0346      0.1903      0.0000      4.1397      0.6588
 17      0.0000      1.2501      0.0000      0.4394      7.1115      0.0000      0.0000      0.0000      7.1193
 18      0.0000      1.5698      0.0280      0.0000      0.0863      0.0000      0.0000      1.4418      0.0739
 19      0.0000      1.8941      0.0000      5.1947      0.0000      0.0000      6.4673      6.2500      5.0249
 20      0.0000      1.4100      0.1891      0.0293      0.0000      0.0000      1.2209      0.1929      0.7838
 21      0.0000      1.4425      0.0689      0.0210      0.0832      1.6726      0.0853      1.3023      0.0000
 22      0.0000      1.3967      0.0000      0.0000      0.0000      0.0000      0.1877      8.0453      0.0000
 23      0.0000      1.7688      0.7586      0.0007      0.0000      0.0000      0.6229      0.0011      0.2870
 24      0.0000      1.3348      0.9142      0.0000      1.4372     26.1704      0.0000      1.2853      0.0000
 25      0.0000      1.2905      0.0000      0.1474      0.0000      0.0000      0.0176      0.0000      0.0001
 26      0.0000      1.8548      0.0000      0.0000      0.1390      4.3602      0.0646      0.0016      1.3273
 27      0.0000      1.4301      0.0000      0.0000      2.0217      0.5706      1.3134      0.0000      0.0000
 28      0.0000      1.3039      0.0000      0.0000      0.0000      0.9373      0.0058      0.5927      0.0000
 29      0.0000      1.4186      0.6802      0.0000      0.0163      0.0000      1.0895      0.0000      0.0881
 30      0.0000      1.2030      0.0000      0.0000      0.0000      0.0000      0.0000      0.0574      0.0001
 31      0.0000      2.0761      0.0000      0.0000      0.2761      0.0000      0.0000      0.0052     12.1093
 32      0.0000      1.2532      0.0000      0.0000      0.0000      0.0000      0.0000      0.0184      1.7984
 33      1.9439      1.3290      0.0000     16.0478      0.0000      0.0000      0.0102      0.0000      0.0000
 34      0.0000      1.0353     10.7859      0.0090      0.0000      9.9528      0.0663      0.5998      0.0205
 35      0.0000      1.0147      0.1099      0.0000      0.1808      0.0000      2.5576      0.0000      0.0608
 36      0.0000      2.0563      0.0000      0.0000      0.0000      0.0000      0.0000      0.0000      0.3515
 37      0.0000      1.4570      0.0002      0.0389      0.1706      0.0000      0.0000      0.0000      4.5868
 38      0.0000      2.0053      0.0000      4.2839      0.7819      1.1209      2.8110      0.2124     14.3226
 39      0.0000      1.0209      0.0005      0.0385      0.0000      0.0000      0.0438      0.0023      0.0036
 40      0.0000      2.0558      0.1723      0.0000      5.1696      0.0000      5.0200      4.8703      0.2978
 41      0.0000      1.1708     11.0408      0.0514      0.1482      0.0000      6.9916      0.6078      0.0000
 42      0.0000      1.5810      0.0116      1.4573      0.0190     21.6787      0.4518      0.0000      0.0067
 43      0.0000      1.4754      0.0000      0.2923      0.0000      4.1040      0.6021      6.8859      0.0126
 44      0.0000      1.0353      0.0000      0.0000      0.0002      0.0000      0.0063      0.0000      0.0000
 45      0.0000      1.2417      0.1582      0.1088      0.0000      0.7319      3.6736      0.0000      0.0000
 46      0.0000      1.5301      0.4734      0.0000      0.0362      0.0000      0.1787     10.6008      3.3197
