###################################################################
## OUTPUT of StarlightChains_v04.for    [Cid@UFSC - 01/Apr/2007] ##
###################################################################

## Some input info
KUG0210-078._35_34.txt                   [arq_obs]
Base.CB07.vall.4m                        [arq_base]
Masks.EmLines.NEW.gm                     [arq_masks]
StCv04.C11.config                        [arq_config]
   66                                    [N_base]
    0                                    [N_YAV_components = # of components with extra extinction!]
    0                                    [i_FitPowerLaw (1/0 = Yes/No)]
-9.99                                    [alpha_PowerLaw]
CCM                                      [red_law_option]
 1.458241                                [q_norm = A(l_norm)/A(V)]

## (Re)Sampling Parameters
 3741.00                                 [l_ini (A)]
 7218.00                                 [l_fin (A)]
    1.00                                 [dl    (A)]     (OBS: dl_cushion =    50.00 A)

## Normalization info
 4020.00                                 [l_norm (A) - for base]
 4010.00                                 [llow_norm (A) - window for f_obs]
 4060.00                                 [lupp_norm (A) - window for f_obs]
3.864326E-17                             [fobs_norm (in input units)]

## S/N
 3691.00                                 [llow_SN (A) - window for S/N]
 7268.00                                 [lupp_SN (A) - window for S/N]
   3.893                                 [S/N in S/N window]
   2.550                                 [S/N in norm. window]
   0.081                                 [S/N_err in S/N window]
   0.053                                 [S/N_err in norm. window]
  1.0000                                 [fscale_chi2]

## etc...
    -2007569                             [idum_orig]
  2432                                   [NOl_eff]
  2428                                   [Nl_eff]
     4    NSIGMA                         [Ntot_cliped & clip_method]
 12596570                                [Nglobal_steps]
   7                                     [N_chains]
  32                                     [NEX0s_base = N_base in EX0s-fits]
 0   1   1        6   2.0   3.869E+03    [Clip-Bug, RC-Crash & Burn-In warning-flags, n_censored_weights, wei_nsig_threshold & wei_limit]
   129    128.701    128.155      0.546  [idt_all, wdt_TotTime, wdt_UsrTime & wdt_SysTime (sec)]

## Synthesis Results - Best model ##

 1.84124E-02                             [chi2/Nl_eff]
    13.35880                             [adev (%)]

   110.01023                             [sum-of-x (%)]
 9.26796E-17                             [Flux_tot (units of input spectrum!)]
 5.34317E-12                             [Mini_tot (???)]
 2.71334E-12                             [Mcor_tot (???)]

-323.86                                  [v0_min  (km/s)]
 371.94                                  [vd_min  (km/s)]
 0.5803                                  [AV_min  (mag)]
 0.0000                                  [YAV_min (mag)]

# j     x_j(%)      Mini_j(%)     Mcor_j(%)     age_j(yr)     Z_j      (L/M)_j    YAV?  Mstars   component_j        a/Fe...       SSP_chi2r SSP_adev(%)   SSP_AV   SSP_x(%)
  1      4.1802     6.0246E-03    1.1864E-02    1.000000E+06  0.00400  1.094E-02    0   1.0000   age020_m42            0.0000     2.7691E-02   100.0868   1.2447   354.0664
  2      0.0000     0.0000E+00    0.0000E+00    3.160000E+06  0.00400  4.007E-02    0   0.9999   age045_m42            0.0000     2.6313E-02    96.5551   0.5555   376.8224
  3      0.0000     0.0000E+00    0.0000E+00    5.010000E+06  0.00400  2.539E-02    0   0.9488   age055_m42            0.0000     1.8628E-02    86.3179   1.0876   333.4669
  4      0.0000     0.0000E+00    0.0000E+00    6.610000E+06  0.00400  2.620E-02    0   0.9220   age061_m42            0.0000     1.9346E-02    86.4451   0.6755   347.6844
  5      0.0000     0.0000E+00    0.0000E+00    1.000000E+07  0.00400  1.322E-02    0   0.8862   age070_m42            0.0000     1.2832E-02    73.9322   0.6973   315.1199
  6      0.0000     0.0000E+00    0.0000E+00    1.445000E+07  0.00400  7.883E-03    0   0.8571   age078_m42            0.0000     1.9732E-02    87.0551   0.7622   342.8448
  7      0.0000     0.0000E+00    0.0000E+00    2.512000E+07  0.00400  5.251E-03    0   0.8174   age090_m42            0.0000     1.5421E-02    78.0264   0.4841   329.3752
  8      0.0000     0.0000E+00    0.0000E+00    4.000000E+07  0.00400  3.649E-03    0   0.7851   age104_m42            0.0000     1.1998E-02    70.3596   0.4056   310.9974
  9      0.3429     1.7454E-03    2.6222E-03    5.500000E+07  0.00400  3.098E-03    0   0.7629   age110_m42            0.0000     1.3688E-02    74.8865   0.4302   327.2651
 10      0.0000     0.0000E+00    0.0000E+00    1.015200E+08  0.00400  2.228E-03    0   0.7207   age116_m42            0.0000     1.6440E-02    79.5793   0.3266   345.0976
 11      0.0000     0.0000E+00    0.0000E+00    2.861200E+08  0.00400  1.093E-03    0   0.6648   age125_m42            0.0000     5.2784E-03    50.3928   0.4541   266.0009
 12      0.4980     1.1902E-02    1.4918E-02    5.088000E+08  0.00400  6.597E-04    0   0.6365   age130_m42            0.0000     2.2970E-03    35.8141   0.8692   221.6521
 13      0.0249     1.8451E-03    2.1067E-03    1.434000E+09  0.00400  2.132E-04    0   0.5798   age139_m42            0.0000     1.3810E-03    28.6574   0.1192   202.7697
 14     15.4578     4.1344E+00    4.3778E+00    4.250000E+09  0.00400  5.895E-05    0   0.5377   age158_m42            0.0000     2.0036E-03    34.3115  -0.5839   215.0433
 15      2.4964     1.1214E+00    1.1509E+00    7.500000E+09  0.00400  3.510E-05    0   0.5212   age171_m42            0.0000     2.0260E-04    15.7419   0.2173   138.8497
 16      7.0910     5.5763E+00    5.5278E+00    1.300000E+10  0.00400  2.005E-05    0   0.5034   age193_m42            0.0000     2.0043E-04    15.5861   0.8796    96.3595
 17      8.4145     8.6998E+00    8.5094E+00    1.800000E+10  0.00400  1.525E-05    0   0.4967   age213_m42            0.0000     1.1218E-04    13.4658   0.4147   116.0443
 18      0.0000     0.0000E+00    0.0000E+00    1.000000E+06  0.00800  1.238E-02    0   1.0000   age020_m52            0.0000     2.8446E-02   101.5617   1.2136   358.8317
 19      0.0000     0.0000E+00    0.0000E+00    3.160000E+06  0.00800  3.074E-02    0   0.9966   age045_m52            0.0000     2.9729E-02   102.0277   1.1250   363.8734
 20      0.0000     0.0000E+00    0.0000E+00    5.010000E+06  0.00800  2.668E-02    0   0.9443   age055_m52            0.0000     2.4409E-02    94.4819   1.0154   352.7625
 21      0.0000     0.0000E+00    0.0000E+00    6.610000E+06  0.00800  2.136E-02    0   0.9177   age061_m52            0.0000     1.7987E-02    82.7846   0.0081   344.1888
 22      0.0000     0.0000E+00    0.0000E+00    1.000000E+07  0.00800  1.215E-02    0   0.8827   age070_m52            0.0000     1.2462E-02    72.2028   0.9313   307.8253
 23      0.0000     0.0000E+00    0.0000E+00    1.445000E+07  0.00800  8.717E-03    0   0.8552   age078_m52            0.0000     1.8389E-02    83.7855   0.7873   338.7093
 24      0.0000     0.0000E+00    0.0000E+00    2.512000E+07  0.00800  5.592E-03    0   0.8162   age090_m52            0.0000     1.4003E-02    75.1123   0.6047   325.1039
 25      0.8688     3.5160E-03    5.4289E-03    4.000000E+07  0.00800  3.896E-03    0   0.7841   age104_m52            0.0000     1.3223E-02    72.0736   0.5654   320.7155
 26      0.0000     0.0000E+00    0.0000E+00    1.015200E+08  0.00800  2.148E-03    0   0.7226   age116_m52            0.0000     1.7189E-02    81.4263   0.2712   352.3946
 27      0.7483     1.1887E-02    1.5644E-02    2.861200E+08  0.00800  9.925E-04    0   0.6683   age125_m52            0.0000     7.8554E-03    59.0829   0.2292   302.1480
 28      0.6457     3.2411E-02    3.9175E-02    9.047900E+08  0.00800  3.141E-04    0   0.6138   age135_m52            0.0000     3.6713E-03    42.5648  -0.1853   263.8309
 29      0.2775     2.5448E-02    2.9331E-02    1.434000E+09  0.00800  1.719E-04    0   0.5853   age139_m52            0.0000     5.5937E-04    21.2787   0.1492   172.7467
 30      2.1894     4.3852E-01    4.8358E-01    2.500000E+09  0.00800  7.872E-05    0   0.5600   age150_m52            0.0000     1.7930E-04    14.8569   0.9971   102.5396
 31      4.1016     1.4915E+00    1.5936E+00    4.250000E+09  0.00800  4.336E-05    0   0.5426   age158_m52            0.0000     2.4412E-04    16.0488   0.1165   147.8056
 32      5.3422     2.6664E+00    2.7928E+00    6.250000E+09  0.00800  3.159E-05    0   0.5319   age166_m52            0.0000     1.7067E-04    13.8486   0.0081   141.2382
 33     12.5031     1.4485E+01    1.4470E+01    1.300000E+10  0.00800  1.361E-05    0   0.5073   age193_m52            0.0000     6.8907E-05    10.3434  -0.1227   119.9808
 34      4.3172     6.8855E+00    6.7659E+00    1.800000E+10  0.00800  9.886E-06    0   0.4990   age213_m52            0.0000     2.6205E-04    17.1808   0.5403    85.2775
 35      0.0000     0.0000E+00    0.0000E+00    1.000000E+06  0.02000  1.544E-02    0   1.0000   age020_m62            0.0000     2.7530E-02    99.1345   1.2542   352.6559
 36      0.0000     0.0000E+00    0.0000E+00    3.160000E+06  0.02000  3.762E-02    0   0.9858   age045_m62            0.0000     2.8220E-02   100.9626   1.1574   361.0107
 37      0.0000     0.0000E+00    0.0000E+00    5.010000E+06  0.02000  3.296E-02    0   0.9342   age055_m62            0.0000     2.9040E-02   100.5985   0.7554   382.2823
 38      0.0000     0.0000E+00    0.0000E+00    8.710000E+06  0.02000  1.154E-02    0   0.8861   age067_m62            0.0000     6.6444E-03    56.4209   0.8692   262.5653
 39      1.6129     3.3186E-03    5.5365E-03    1.445000E+07  0.02000  7.663E-03    0   0.8472   age078_m62            0.0000     1.0437E-02    66.4759   0.7272   297.6167
 40      0.7356     2.5592E-03    4.0815E-03    2.512000E+07  0.02000  4.532E-03    0   0.8099   age090_m62            0.0000     7.8715E-03    59.8945   0.8788   277.8042
 41      0.0000     0.0000E+00    0.0000E+00    5.500000E+07  0.02000  2.733E-03    0   0.7595   age110_m62            0.0000     1.0536E-02    67.2723   0.6563   303.3714
 42      0.0000     0.0000E+00    0.0000E+00    1.609000E+08  0.02000  1.369E-03    0   0.6985   age120_m62            0.0000     1.1630E-02    69.2487   0.3850   325.4951
 43      0.2284     3.9955E-03    5.2825E-03    2.861200E+08  0.02000  9.013E-04    0   0.6714   age125_m62            0.0000     1.1764E-02    69.1051   0.0835   341.0980
 44      0.0000     0.0000E+00    0.0000E+00    5.088000E+08  0.02000  5.028E-04    0   0.6449   age130_m62            0.0000     8.4103E-03    60.0523  -0.1378   324.3807
 45      0.0000     0.0000E+00    0.0000E+00    9.047900E+08  0.02000  2.428E-04    0   0.6179   age135_m62            0.0000     1.6357E-03    30.3426   0.1457   219.4061
 46      0.4662     5.8202E-02    6.7713E-02    1.434000E+09  0.02000  1.263E-04    0   0.5908   age139_m62            0.0000     3.9052E-04    18.1213   0.3000   165.2801
 47      0.2779     7.3212E-02    8.1789E-02    2.500000E+09  0.02000  5.985E-05    0   0.5673   age150_m62            0.0000     1.0287E-04    12.3687   0.4056   132.0146
 48      5.6415     2.7194E+00    2.9281E+00    4.250000E+09  0.02000  3.271E-05    0   0.5468   age158_m62            0.0000     2.8575E-04    17.7697   1.0414    86.4033
 49      5.5647     6.4514E+00    6.5643E+00    1.000000E+10  0.02000  1.360E-05    0   0.5167   age181_m62            0.0000     6.3173E-04    27.4279   1.2940    65.9459
 50      7.8230     1.7314E+01    1.7092E+01    1.800000E+10  0.02000  7.124E-06    0   0.5013   age213_m62            0.0000     1.6990E-03    46.2145   2.3163    38.1589
 51      0.0000     0.0000E+00    0.0000E+00    1.000000E+06  0.05000  2.592E-02    0   0.9998   age020_m72            0.0000     2.8869E-02   102.0572   1.1981   360.0876
 52      0.0000     0.0000E+00    0.0000E+00    3.160000E+06  0.05000  4.845E-02    0   0.9577   age045_m72            0.0000     2.9595E-02   102.1107   1.0049   371.8409
 53      0.0000     0.0000E+00    0.0000E+00    5.010000E+06  0.05000  3.072E-02    0   0.9147   age055_m72            0.0000     1.2950E-02    74.7007   1.1264   307.4953
 54      0.0000     0.0000E+00    0.0000E+00    6.610000E+06  0.05000  1.455E-02    0   0.8877   age061_m72            0.0000     6.9255E-04    32.3683   2.4642   139.6917
 55      0.0000     0.0000E+00    0.0000E+00    1.000000E+07  0.05000  9.074E-03    0   0.8524   age070_m72            0.0000     2.3055E-02    91.1020   0.9971   353.1912
 56      0.0000     0.0000E+00    0.0000E+00    2.512000E+07  0.05000  4.250E-03    0   0.7902   age090_m72            0.0000     9.9071E-03    66.4998   1.1825   291.9633
 57      1.7884     9.1343E-03    1.3703E-02    4.000000E+07  0.05000  3.087E-03    0   0.7618   age104_m72            0.0000     1.0715E-02    68.0621   0.9104   303.1570
 58      3.4234     3.1752E-02    4.4368E-02    1.015200E+08  0.05000  1.700E-03    0   0.7096   age116_m72            0.0000     1.3448E-02    72.8658   0.4686   333.8934
 59      0.0000     0.0000E+00    0.0000E+00    2.861200E+08  0.05000  7.384E-04    0   0.6633   age125_m72            0.0000     1.0012E-02    64.3288   0.0273   333.0680
 60      0.0000     0.0000E+00    0.0000E+00    5.088000E+08  0.05000  3.819E-04    0   0.6372   age130_m72            0.0000     3.2533E-03    41.3953   0.1160   260.0016
 61      0.5107     4.8048E-02    5.7811E-02    9.047900E+08  0.05000  1.676E-04    0   0.6110   age135_m72            0.0000     2.4775E-03    38.2204  -0.5066   243.4364
 62      1.8710     3.3383E-01    3.8614E-01    1.434000E+09  0.05000  8.837E-05    0   0.5874   age139_m72            0.0000     4.5932E-04    17.7900  -0.1979   173.0291
 63      0.0000     0.0000E+00    0.0000E+00    2.500000E+09  0.05000  4.233E-05    0   0.5598   age150_m72            0.0000     1.5551E-04    13.2206   0.7512    98.3836
 64      2.2201     2.4394E+00    2.5215E+00    6.250000E+09  0.05000  1.435E-05    0   0.5249   age166_m72            0.0000     5.3910E-04    25.2309   1.0798    68.5526
 65      3.9109     9.4677E+00    9.3892E+00    1.300000E+10  0.05000  6.513E-06    0   0.5036   age193_m72            0.0000     7.8492E-04    30.9041   1.1789    58.3717
 66      4.4362     1.5451E+01    1.5046E+01    1.800000E+10  0.05000  4.527E-06    0   0.4945   age213_m72            0.0000     1.1787E-03    38.3506   1.5329    46.3648


## Synthesis Results - Average & Chains ##

# j      x_j: min, <> & last-chain-values for 1 ...  7 chains
  1      4.1802      4.3871      4.3012      4.3626      4.1646      4.2464      4.5160      4.5499      4.3444
  2      0.0000      0.2253      0.1625      0.1849      0.2300      0.2077      0.2492      0.3387      0.2429
  3      0.0000      0.0161      0.0000      0.0000      0.0000      0.0000      0.0000      0.0470      0.0000
  4      0.0000      0.0286      0.0125      0.0000      0.0005      0.0000      0.0000      0.0856      0.0101
  5      0.0000      0.0245      0.0615      0.0000      0.0072      0.0000      0.0000      0.0000      0.0791
  6      0.0000      0.0140      0.0000      0.0000      0.0000      0.0000      0.0501      0.0580      0.0000
  7      0.0000      0.0366      0.0000      0.0883      0.0000      0.0000      0.0003      0.0453      0.0000
  8      0.0000      0.2573      0.3767      0.2555      0.2504      0.1868      0.2931      0.1896      0.2741
  9      0.3429      0.3438      0.4055      0.3029      0.3845      0.3219      0.3355      0.3392      0.3076
 10      0.0000      0.0277      0.0000      0.0000      0.0448      0.0441      0.1554      0.1625      0.0400
 11      0.0000      0.0439      0.0799      0.0000      0.0162      0.0000      0.0717      0.0000      0.0145
 12      0.4980      0.3821      0.3907      0.3633      0.4418      0.3882      0.3949      0.2922      0.1992
 13      0.0249      0.5341      0.4778      0.4786      0.5431      0.4771      0.5188      0.6498      0.5030
 14     15.4578     15.3124     15.2717     15.1536     15.2578     15.3155     15.5997     15.5411     15.5953
 15      2.4964      2.1920      2.1702      1.8724      2.2108      2.5353      2.9038      2.3303      2.3818
 16      7.0910      5.5354      6.4815      7.1376      5.0620      6.3208      6.1760      6.1210      6.5484
 17      8.4145      9.4517      9.4732      9.4387     10.1885      9.6801      9.3251      9.3264      9.9757
 18      0.0000      0.0173      0.0000      0.0428      0.0000      0.1326      0.0130      0.0142      0.0000
 19      0.0000      0.0354      0.0000      0.0904      0.0642      0.0440      0.0000      0.0496      0.0000
 20      0.0000      0.0227      0.0351      0.0000      0.0494      0.0000      0.1284      0.0000      0.0000
 21      0.0000      0.0277      0.0000      0.0000      0.0000      0.0000      0.0000      0.0148      0.0000
 22      0.0000      0.0280      0.0245      0.0000      0.0000      0.0000      0.1035      0.0832      0.0177
 23      0.0000      0.0606      0.0753      0.0033      0.1208      0.0000      0.0441      0.0586      0.1338
 24      0.0000      0.0269      0.0000      0.0594      0.0000      0.0625      0.0000      0.0000      0.0000
 25      0.8688      0.7879      0.7571      0.7171      0.8029      0.7399      0.8350      0.7727      0.7669
 26      0.0000      0.0247      0.0000      0.0878      0.0314      0.0000      0.0595      0.0000      0.0288
 27      0.7483      0.7087      0.7103      0.7031      0.6746      0.6361      0.8400      0.7654      0.7937
 28      0.6457      0.3562      0.3636      0.3644      0.4109      0.2570      0.5559      0.2748      0.5896
 29      0.2775      0.2489      0.2075      0.1872      0.4908      0.2656      0.3024      0.2728      0.1760
 30      2.1894      1.7508      1.7803      1.7491      1.6593      2.0189      1.6488      1.4597      1.6993
 31      4.1016      3.0390      3.1073      2.4873      2.9289      3.1173      3.0806      3.6435      3.1333
 32      5.3422      4.2506      4.1085      3.9700      4.2830      4.1794      4.1722      4.5694      3.9714
 33     12.5031     13.3073     12.9090     13.2382     13.2611     13.2465     13.2461     13.7833     13.2307
 34      4.3172      4.1577      4.0439      4.0723      4.1884      3.8799      3.8931      3.9121      3.9121
 35      0.0000      0.0255      0.0000      0.0672      0.0545      0.0115      0.0000      0.0157      0.0188
 36      0.0000      0.0175      0.0000      0.0000      0.0262      0.0000      0.0177      0.0073      0.0156
 37      0.0000      0.0278      0.0000      0.0000      0.0735      0.0000      0.0626      0.0584      0.0000
 38      0.0000      0.0311      0.0544      0.0373      0.0000      0.0000      0.0000      0.0000      0.1497
 39      1.6129      1.6720      1.6888      1.7006      1.6571      1.6714      1.6990      1.6974      1.5412
 40      0.7356      0.8326      0.7644      0.8207      0.7924      0.8201      0.8750      0.8528      0.8308
 41      0.0000      0.0451      0.0000      0.0152      0.0318      0.0335      0.0000      0.0000      0.0000
 42      0.0000      0.0243      0.0000      0.0000      0.1090      0.0042      0.0000      0.0000      0.0000
 43      0.2284      0.2303      0.2164      0.2202      0.2367      0.3257      0.3453      0.3322      0.0885
 44      0.0000      0.0944      0.1625      0.1239      0.1007      0.1053      0.1446      0.1137      0.0967
 45      0.0000      0.2686      0.2626      0.1378      0.2046      0.1412      0.2211      0.0000      0.2283
 46      0.4662      0.9212      1.0063      0.7090      1.0433      1.0725      0.9032      0.6791      0.8933
