###################################################################
## OUTPUT of StarlightChains_v04.for    [Cid@UFSC - 01/Apr/2007] ##
###################################################################

## Some input info
KUG0210-078._32_35.txt                   [arq_obs]
Base.CB07.vall.4m                        [arq_base]
Masks.EmLines.NEW.gm                     [arq_masks]
StCv04.C11.config                        [arq_config]
   66                                    [N_base]
    0                                    [N_YAV_components = # of components with extra extinction!]
    0                                    [i_FitPowerLaw (1/0 = Yes/No)]
-9.99                                    [alpha_PowerLaw]
CCM                                      [red_law_option]
 1.458241                                [q_norm = A(l_norm)/A(V)]

## (Re)Sampling Parameters
 3741.00                                 [l_ini (A)]
 7218.00                                 [l_fin (A)]
    1.00                                 [dl    (A)]     (OBS: dl_cushion =    50.00 A)

## Normalization info
 4020.00                                 [l_norm (A) - for base]
 4010.00                                 [llow_norm (A) - window for f_obs]
 4060.00                                 [lupp_norm (A) - window for f_obs]
7.560533E-17                             [fobs_norm (in input units)]

## S/N
 3691.00                                 [llow_SN (A) - window for S/N]
 7268.00                                 [lupp_SN (A) - window for S/N]
   5.071                                 [S/N in S/N window]
   3.963                                 [S/N in norm. window]
   0.143                                 [S/N_err in S/N window]
   0.112                                 [S/N_err in norm. window]
  1.0000                                 [fscale_chi2]

## etc...
    -2007483                             [idum_orig]
  2432                                   [NOl_eff]
  2424                                   [Nl_eff]
     8    NSIGMA                         [Ntot_cliped & clip_method]
 10217830                                [Nglobal_steps]
   7                                     [N_chains]
  26                                     [NEX0s_base = N_base in EX0s-fits]
 0   1   1        8   2.0   8.769E+03    [Clip-Bug, RC-Crash & Burn-In warning-flags, n_censored_weights, wei_nsig_threshold & wei_limit]
   240    238.037    236.272      1.765  [idt_all, wdt_TotTime, wdt_UsrTime & wdt_SysTime (sec)]

## Synthesis Results - Best model ##

 6.68427E-05                             [chi2/Nl_eff]
     4.32256                             [adev (%)]

   114.62269                             [sum-of-x (%)]
 5.60552E-17                             [Flux_tot (units of input spectrum!)]
 5.34550E-12                             [Mini_tot (???)]
 2.69337E-12                             [Mcor_tot (???)]

 -74.17                                  [v0_min  (km/s)]
 224.45                                  [vd_min  (km/s)]
-0.3244                                  [AV_min  (mag)]
 0.0000                                  [YAV_min (mag)]

# j     x_j(%)      Mini_j(%)     Mcor_j(%)     age_j(yr)     Z_j      (L/M)_j    YAV?  Mstars   component_j        a/Fe...       SSP_chi2r SSP_adev(%)   SSP_AV   SSP_x(%)
  1      0.0000     0.0000E+00    0.0000E+00    1.000000E+06  0.00400  1.094E-02    0   1.0000   age020_m42            0.0000     5.3591E-04    10.7907   3.7200    93.3906
  2      0.0000     0.0000E+00    0.0000E+00    3.160000E+06  0.00400  4.007E-02    0   0.9999   age045_m42            0.0000     4.1033E-04     9.3803   2.9823   100.2101
  3      0.0000     0.0000E+00    0.0000E+00    5.010000E+06  0.00400  2.539E-02    0   0.9488   age055_m42            0.0000     4.6685E-04    10.0098   3.3089    97.5279
  4      0.0000     0.0000E+00    0.0000E+00    6.610000E+06  0.00400  2.620E-02    0   0.9220   age061_m42            0.0000     4.1182E-04     9.3427   2.9092   100.3803
  5      0.0000     0.0000E+00    0.0000E+00    1.000000E+07  0.00400  1.322E-02    0   0.8862   age070_m42            0.0000     4.7837E-04    10.3880   2.6401   101.8110
  6      0.0000     0.0000E+00    0.0000E+00    1.445000E+07  0.00400  7.883E-03    0   0.8571   age078_m42            0.0000     5.0499E-04    10.6179   2.9681    99.2175
  7      0.0000     0.0000E+00    0.0000E+00    2.512000E+07  0.00400  5.251E-03    0   0.8174   age090_m42            0.0000     4.8569E-04    10.5845   2.5114   102.3016
  8      0.0000     0.0000E+00    0.0000E+00    4.000000E+07  0.00400  3.649E-03    0   0.7851   age104_m42            0.0000     4.5257E-04    10.2185   2.2802   103.3447
  9      0.0000     0.0000E+00    0.0000E+00    5.500000E+07  0.00400  3.098E-03    0   0.7629   age110_m42            0.0000     4.0723E-04     9.4578   2.4264   103.7149
 10      0.0000     0.0000E+00    0.0000E+00    1.015200E+08  0.00400  2.228E-03    0   0.7207   age116_m42            0.0000     3.7905E-04     8.9440   2.4405   104.1925
 11      0.0000     0.0000E+00    0.0000E+00    2.861200E+08  0.00400  1.093E-03    0   0.6648   age125_m42            0.0000     3.7282E-04     8.8614   1.8640   107.3172
 12      0.0000     0.0000E+00    0.0000E+00    5.088000E+08  0.00400  6.597E-04    0   0.6365   age130_m42            0.0000     3.1853E-04     8.0285   1.8471   108.6553
 13      0.0000     0.0000E+00    0.0000E+00    1.434000E+09  0.00400  2.132E-04    0   0.5798   age139_m42            0.0000     2.1874E-04     7.0743   0.8732   111.1570
 14      0.0000     0.0000E+00    0.0000E+00    4.250000E+09  0.00400  5.895E-05    0   0.5377   age158_m42            0.0000     1.7515E-04     6.3330   0.4259   107.3877
 15      0.0000     0.0000E+00    0.0000E+00    7.500000E+09  0.00400  3.510E-05    0   0.5212   age171_m42            0.0000     1.5526E-04     5.9796   0.2321   106.9439
 16      0.0000     0.0000E+00    0.0000E+00    1.300000E+10  0.00400  2.005E-05    0   0.5034   age193_m42            0.0000     1.4442E-04     5.7225   0.0615   106.5877
 17      0.0000     0.0000E+00    0.0000E+00    1.800000E+10  0.00400  1.525E-05    0   0.4967   age213_m42            0.0000     1.5014E-04     5.8573   0.0398   106.0568
 18      0.0000     0.0000E+00    0.0000E+00    1.000000E+06  0.00800  1.238E-02    0   1.0000   age020_m52            0.0000     5.3568E-04    10.7808   3.7154    93.6047
 19      0.0000     0.0000E+00    0.0000E+00    3.160000E+06  0.00800  3.074E-02    0   0.9966   age045_m52            0.0000     5.2410E-04    10.6750   3.6393    94.4513
 20      0.0000     0.0000E+00    0.0000E+00    5.010000E+06  0.00800  2.668E-02    0   0.9443   age055_m52            0.0000     4.8418E-04    10.2096   3.3925    96.6221
 21      0.0000     0.0000E+00    0.0000E+00    6.610000E+06  0.00800  2.136E-02    0   0.9177   age061_m52            0.0000     4.4175E-04    10.1423   2.1404   103.0967
 22      0.0000     0.0000E+00    0.0000E+00    1.000000E+07  0.00800  1.215E-02    0   0.8827   age070_m52            0.0000     5.2066E-04    10.9123   2.8197   101.4456
 23      0.0000     0.0000E+00    0.0000E+00    1.445000E+07  0.00800  8.717E-03    0   0.8552   age078_m52            0.0000     4.9381E-04    10.5270   2.9320   100.6496
 24      0.0000     0.0000E+00    0.0000E+00    2.512000E+07  0.00800  5.592E-03    0   0.8162   age090_m52            0.0000     4.8223E-04    10.5782   2.5721   103.5746
 25      0.0000     0.0000E+00    0.0000E+00    4.000000E+07  0.00800  3.896E-03    0   0.7841   age104_m52            0.0000     4.4130E-04    10.0316   2.4789   104.6159
 26      0.0000     0.0000E+00    0.0000E+00    1.015200E+08  0.00800  2.148E-03    0   0.7226   age116_m52            0.0000     3.8597E-04     9.1649   2.4095   104.8881
 27      0.0000     0.0000E+00    0.0000E+00    2.861200E+08  0.00800  9.925E-04    0   0.6683   age125_m52            0.0000     3.1461E-04     8.0340   1.9106   109.7183
 28      6.4640     1.8828E-01    2.2936E-01    9.047900E+08  0.00800  3.141E-04    0   0.6138   age135_m52            0.0000     1.8825E-04     6.3888   1.0967   115.1111
 29      0.0000     0.0000E+00    0.0000E+00    1.434000E+09  0.00800  1.719E-04    0   0.5853   age139_m52            0.0000     1.6678E-04     6.1134   0.5157   112.8272
 30      0.0000     0.0000E+00    0.0000E+00    2.500000E+09  0.00800  7.872E-05    0   0.5600   age150_m52            0.0000     1.2647E-04     5.4299   0.2419   110.3575
 31      0.0000     0.0000E+00    0.0000E+00    4.250000E+09  0.00800  4.336E-05    0   0.5426   age158_m52            0.0000     1.2902E-04     5.4834   0.2271   109.3297
 32      0.0000     0.0000E+00    0.0000E+00    6.250000E+09  0.00800  3.159E-05    0   0.5319   age166_m52            0.0000     1.0604E-04     5.0648   0.0149   109.8149
 33      0.0000     0.0000E+00    0.0000E+00    1.300000E+10  0.00800  1.361E-05    0   0.5073   age193_m52            0.0000     8.8556E-05     4.7371  -0.4647   109.6775
 34      0.0000     0.0000E+00    0.0000E+00    1.800000E+10  0.00800  9.886E-06    0   0.4990   age213_m52            0.0000     8.2459E-05     4.6499  -0.5840   109.6688
 35      0.0000     0.0000E+00    0.0000E+00    1.000000E+06  0.02000  1.544E-02    0   1.0000   age020_m62            0.0000     5.3954E-04    10.8177   3.7118    93.8159
 36      0.0000     0.0000E+00    0.0000E+00    3.160000E+06  0.02000  3.762E-02    0   0.9858   age045_m62            0.0000     5.3713E-04    10.7903   3.6517    94.6201
 37      0.0000     0.0000E+00    0.0000E+00    5.010000E+06  0.02000  3.296E-02    0   0.9342   age055_m62            0.0000     4.3882E-04     9.6471   3.2646    98.9246
 38      0.0000     0.0000E+00    0.0000E+00    8.710000E+06  0.02000  1.154E-02    0   0.8861   age067_m62            0.0000     7.7901E-04    14.4136   2.2898   102.9084
 39      0.0000     0.0000E+00    0.0000E+00    1.445000E+07  0.02000  7.663E-03    0   0.8472   age078_m62            0.0000     5.7092E-04    11.6858   2.4679   103.4241
 40      0.0000     0.0000E+00    0.0000E+00    2.512000E+07  0.02000  4.532E-03    0   0.8099   age090_m62            0.0000     5.8146E-04    11.8004   2.4583   103.1288
 41      0.0000     0.0000E+00    0.0000E+00    5.500000E+07  0.02000  2.733E-03    0   0.7595   age110_m62            0.0000     4.4726E-04    10.0487   2.4620   103.8596
 42      0.0000     0.0000E+00    0.0000E+00    1.609000E+08  0.02000  1.369E-03    0   0.6985   age120_m62            0.0000     3.6420E-04     8.7208   2.2861   107.4292
 43      0.0000     0.0000E+00    0.0000E+00    2.861200E+08  0.02000  9.013E-04    0   0.6714   age125_m62            0.0000     3.1537E-04     8.0276   2.0267   110.9885
 44      0.0000     0.0000E+00    0.0000E+00    5.088000E+08  0.02000  5.028E-04    0   0.6449   age130_m62            0.0000     2.2767E-04     6.7588   1.6343   114.7257
 45      0.0000     0.0000E+00    0.0000E+00    9.047900E+08  0.02000  2.428E-04    0   0.6179   age135_m62            0.0000     1.5134E-04     5.7737   1.0391   114.5591
 46      0.0000     0.0000E+00    0.0000E+00    1.434000E+09  0.02000  1.263E-04    0   0.5908   age139_m62            0.0000     1.2973E-04     5.4914   0.5928   113.0802
 47      0.0000     0.0000E+00    0.0000E+00    2.500000E+09  0.02000  5.985E-05    0   0.5673   age150_m62            0.0000     1.0580E-04     5.1285   0.2171   112.0969
 48      0.0000     0.0000E+00    0.0000E+00    4.250000E+09  0.02000  3.271E-05    0   0.5468   age158_m62            0.0000     8.4506E-05     4.7907  -0.1017   111.8494
 49      0.0000     0.0000E+00    0.0000E+00    1.000000E+10  0.02000  1.360E-05    0   0.5167   age181_m62            0.0000     7.7706E-05     4.7370  -0.4700   112.3288
 50     41.2858     5.3019E+01    5.2750E+01    1.800000E+10  0.02000  7.124E-06    0   0.5013   age213_m62            0.0000     8.9742E-05     5.2083  -0.6967   112.1863
 51      0.0000     0.0000E+00    0.0000E+00    1.000000E+06  0.05000  2.592E-02    0   0.9998   age020_m72            0.0000     5.5370E-04    10.9880   3.7055    93.7770
 52      0.0000     0.0000E+00    0.0000E+00    3.160000E+06  0.05000  4.845E-02    0   0.9577   age045_m72            0.0000     4.9568E-04    10.3228   3.5300    96.0658
 53      0.0000     0.0000E+00    0.0000E+00    5.010000E+06  0.05000  3.072E-02    0   0.9147   age055_m72            0.0000     5.5819E-04    11.0036   3.0451    99.8480
 54      0.0000     0.0000E+00    0.0000E+00    6.610000E+06  0.05000  1.455E-02    0   0.8877   age061_m72            0.0000     1.0082E-03    16.9190   2.3081   103.6978
 55      0.0000     0.0000E+00    0.0000E+00    1.000000E+07  0.05000  9.074E-03    0   0.8524   age070_m72            0.0000     6.0698E-04    11.3521   3.2041    99.8976
 56      0.0000     0.0000E+00    0.0000E+00    2.512000E+07  0.05000  4.250E-03    0   0.7902   age090_m72            0.0000     5.3188E-04    10.6911   2.9142   101.7548
 57      0.0000     0.0000E+00    0.0000E+00    4.000000E+07  0.05000  3.087E-03    0   0.7618   age104_m72            0.0000     5.2583E-04    10.7286   2.6858   103.4423
 58      0.0000     0.0000E+00    0.0000E+00    1.015200E+08  0.05000  1.700E-03    0   0.7096   age116_m72            0.0000     4.0408E-04     9.2475   2.4287   106.8112
 59      0.0000     0.0000E+00    0.0000E+00    2.861200E+08  0.05000  7.384E-04    0   0.6633   age125_m72            0.0000     2.6409E-04     7.3008   1.8855   112.9997
 60     14.6909     3.5193E-01    4.4507E-01    5.088000E+08  0.05000  3.819E-04    0   0.6372   age130_m72            0.0000     1.7413E-04     6.0863   1.3827   115.5475
 61     18.7958     1.0260E+00    1.2442E+00    9.047900E+08  0.05000  1.676E-04    0   0.6110   age135_m72            0.0000     1.1026E-04     5.2973   0.6746   114.3271
 62      0.0000     0.0000E+00    0.0000E+00    1.434000E+09  0.05000  8.837E-05    0   0.5874   age139_m72            0.0000     9.8019E-05     4.9984   0.2096   114.0455
 63      1.9710     4.2598E-01    4.7328E-01    2.500000E+09  0.05000  4.233E-05    0   0.5598   age150_m72            0.0000     8.0045E-05     4.7428  -0.1104   113.2046
 64      3.0573     1.9491E+00    2.0305E+00    6.250000E+09  0.05000  1.435E-05    0   0.5249   age166_m72            0.0000     8.0141E-05     4.8858  -0.5744   112.2078
 65     23.1557     3.2526E+01    3.2510E+01    1.300000E+10  0.05000  6.513E-06    0   0.5036   age193_m72            0.0000     1.0573E-04     5.7104  -0.8735   114.0922
 66      5.2023     1.0513E+01    1.0318E+01    1.800000E+10  0.05000  4.527E-06    0   0.4945   age213_m72            0.0000     1.3263E-04     6.3207  -1.0000   112.6983


## Synthesis Results - Average & Chains ##

# j      x_j: min, <> & last-chain-values for 1 ...  7 chains
  1      0.0000      1.5806      5.2469      2.0273      5.9453      5.5000      5.3135      5.3777      8.4082
  2      0.0000      1.9402      0.0316      0.0000      0.0223      0.3732      0.0205      0.0355      0.1164
  3      0.0000      1.5320      0.2352      0.7130      0.1974      0.0639      0.0230      0.2363      0.0000
  4      0.0000      1.2092      2.0646      0.3309      0.0000      1.2145      1.1626      1.9134      0.3050
  5      0.0000      1.2548      1.4683      0.8848      1.2026      1.7027      1.2658      1.2066      0.3288
  6      0.0000      1.1459      1.6483      0.4250      1.3277      1.6629      1.1563      1.4314      2.1142
  7      0.0000      1.3214      0.0421      0.5562      0.0863      0.0000      0.2565      0.0000      0.0000
  8      0.0000      1.1690      0.2251      6.2736      0.0000      0.2099      0.0483      0.3055      0.1824
  9      0.0000      1.6933      0.1253      0.0000      0.0558      0.0000      0.1568      0.0028      0.0296
 10      0.0000      1.2007      0.3954      0.8504      1.2484      0.4634      0.2265      0.3322      0.0954
 11      0.0000      1.0048      0.1347      0.8166      0.0602      0.0358      0.1662      0.2075      0.0366
 12      0.0000      1.1788      0.4153      0.2876      0.4186      0.3171      0.9580      0.0000      0.1430
 13      0.0000      1.5723      0.0185      0.7695      0.0000      0.0000      0.0000      0.0027      0.0552
 14      0.0000      1.5760      0.0115      0.2201      0.0000      0.1115      0.8077      0.0000      0.1641
 15      0.0000      1.5076      0.0020      1.7740      3.1754      0.0000      0.0000      0.0000      0.0476
 16      0.0000      1.3831      0.0403      0.0000      0.0000      0.0309      0.2850      0.0540      0.0000
 17      0.0000      1.1716      0.0449      0.0000      0.3668      0.5227      0.3464      0.1117      0.0839
 18      0.0000      1.1988      0.2491      0.2444      1.6624      0.3247      0.0287      0.2581      0.1863
 19      0.0000      0.8948      0.0596      0.0000      0.0000      0.0000      0.0000      0.0925      0.1374
 20      0.0000      1.1380      0.1845      0.1550      0.0000      0.1080      0.2871      0.1799      0.0000
 21      0.0000      1.4735      0.0393      0.9150      0.0279      0.1010      0.6766      1.0306      0.0004
 22      0.0000      0.8525      0.1407      0.9134      0.1561      0.0000      0.0000      0.2010      0.0147
 23      0.0000      1.1062      0.1196      0.6470      0.0000      0.1189      0.1145      0.0595      0.1691
 24      0.0000      1.0514      0.0258      0.6945      1.0768      0.1887      0.0039      0.0043      0.0000
 25      0.0000      0.8952      0.0252      0.1841      0.0909      0.0000      0.0732      0.0354      0.0113
 26      0.0000      1.0624      0.0000      0.0000      0.0000      0.0000      0.2973      0.0477      0.0766
 27      0.0000      1.2847      0.0427      3.8357      0.1076      0.2083      0.2978      0.0471      0.0950
 28      6.4640      1.4103      1.8140      5.3720      1.5539      1.1957      2.7487      1.8399      0.1914
 29      0.0000      1.4106      0.0024      0.0000      3.1437      0.0056      0.0306      0.1057      0.1861
 30      0.0000      1.3732      0.0085      1.8151      0.0275      0.0000      0.1818      0.0531      0.1275
 31      0.0000      1.2528      0.0602      9.4317      0.0000      0.0000      0.6296      0.0498      0.0000
 32      0.0000      1.1845      0.0727      9.4239      0.0677      0.1923      0.0721      0.1457      0.0158
 33      0.0000      1.3564      0.6973      2.3058      0.3306      0.5173      0.7505      0.5500      0.1367
 34      0.0000      1.5088      0.7436      1.6038      3.3982      0.9585      0.9335      0.7003      0.0442
 35      0.0000      1.0143      0.0302      1.9641      0.0000      0.0000      0.1061      0.1912      0.1470
 36      0.0000      1.3661      0.1574      0.0000      0.0177      0.1331      0.6457      0.0763      0.0648
 37      0.0000      1.6345      0.0538      0.6052      0.0193      0.1432      0.1480      0.0525      0.0150
 38      0.0000      1.2482      0.0925      3.0743      0.0000      0.0000      0.0073      0.0204      0.0163
 39      0.0000      1.0763      0.0532      0.0000      0.0610      0.2829      0.0420      0.0480      0.1252
 40      0.0000      2.8463      9.5360      0.8319      7.8647      9.4690      8.2986      9.7518     17.8733
 41      0.0000      1.2752      0.0160      0.0000      0.0000      0.1403      0.3467      0.0253      0.0832
 42      0.0000      1.2420      0.0125      1.0161      0.0000      0.1551      0.0000      0.0394      0.0266
 43      0.0000      1.2242      0.2583      0.7369      0.1071      0.3720      0.2339      0.1305      0.0000
 44      0.0000      1.2220      0.0032      0.0000      0.0000      0.1405      0.0000      0.0208      0.0923
 45      0.0000      1.6673      0.0000      0.0000      0.0260      0.3323      0.3535      0.0459      0.1957
 46      0.0000      1.4879      0.0854      0.6757      0.0035      0.2921      0.0000      0.0750      0.0811
