###################################################################
## OUTPUT of StarlightChains_v04.for    [Cid@UFSC - 01/Apr/2007] ##
###################################################################

## Some input info
KUG0210-078._32_34.txt                   [arq_obs]
Base.CB07.vall.4m                        [arq_base]
Masks.EmLines.NEW.gm                     [arq_masks]
StCv04.C11.config                        [arq_config]
   66                                    [N_base]
    0                                    [N_YAV_components = # of components with extra extinction!]
    0                                    [i_FitPowerLaw (1/0 = Yes/No)]
-9.99                                    [alpha_PowerLaw]
CCM                                      [red_law_option]
 1.458241                                [q_norm = A(l_norm)/A(V)]

## (Re)Sampling Parameters
 3741.00                                 [l_ini (A)]
 7218.00                                 [l_fin (A)]
    1.00                                 [dl    (A)]     (OBS: dl_cushion =    50.00 A)

## Normalization info
 4020.00                                 [l_norm (A) - for base]
 4010.00                                 [llow_norm (A) - window for f_obs]
 4060.00                                 [lupp_norm (A) - window for f_obs]
8.062147E-17                             [fobs_norm (in input units)]

## S/N
 3691.00                                 [llow_SN (A) - window for S/N]
 7268.00                                 [lupp_SN (A) - window for S/N]
   4.276                                 [S/N in S/N window]
   2.930                                 [S/N in norm. window]
   0.197                                 [S/N_err in S/N window]
   0.135                                 [S/N_err in norm. window]
  1.0000                                 [fscale_chi2]

## etc...
    -2007482                             [idum_orig]
  2432                                   [NOl_eff]
  2380                                   [Nl_eff]
    52    NSIGMA                         [Ntot_cliped & clip_method]
 15710590                                [Nglobal_steps]
   7                                     [N_chains]
  10                                     [NEX0s_base = N_base in EX0s-fits]
 0   0   1       52   2.0   2.466E+04    [Clip-Bug, RC-Crash & Burn-In warning-flags, n_censored_weights, wei_nsig_threshold & wei_limit]
   111    110.612    109.541      1.071  [idt_all, wdt_TotTime, wdt_UsrTime & wdt_SysTime (sec)]

## Synthesis Results - Best model ##

 1.62087E-04                             [chi2/Nl_eff]
     5.14032                             [adev (%)]

   113.35214                             [sum-of-x (%)]
 1.51789E-16                             [Flux_tot (units of input spectrum!)]
 7.79302E-12                             [Mini_tot (???)]
 3.99413E-12                             [Mcor_tot (???)]

 -47.24                                  [v0_min  (km/s)]
 269.92                                  [vd_min  (km/s)]
 0.3778                                  [AV_min  (mag)]
 0.0000                                  [YAV_min (mag)]

# j     x_j(%)      Mini_j(%)     Mcor_j(%)     age_j(yr)     Z_j      (L/M)_j    YAV?  Mstars   component_j        a/Fe...       SSP_chi2r SSP_adev(%)   SSP_AV   SSP_x(%)
  1      0.0000     0.0000E+00    0.0000E+00    1.000000E+06  0.00400  1.094E-02    0   1.0000   age020_m42            0.0000     6.7911E-04    10.5723   4.0000    95.2981
  2      0.0000     0.0000E+00    0.0000E+00    3.160000E+06  0.00400  4.007E-02    0   0.9999   age045_m42            0.0000     5.2989E-04     9.1159   3.2979   100.8987
  3      0.0000     0.0000E+00    0.0000E+00    5.010000E+06  0.00400  2.539E-02    0   0.9488   age055_m42            0.0000     5.9274E-04     9.6905   3.6209    98.3130
  4      0.0000     0.0000E+00    0.0000E+00    6.610000E+06  0.00400  2.620E-02    0   0.9220   age061_m42            0.0000     5.2640E-04     8.9220   3.2203   101.2019
  5      0.0000     0.0000E+00    0.0000E+00    1.000000E+07  0.00400  1.322E-02    0   0.8862   age070_m42            0.0000     5.8598E-04     9.1257   2.9261   103.3386
  6      0.0000     0.0000E+00    0.0000E+00    1.445000E+07  0.00400  7.883E-03    0   0.8571   age078_m42            0.0000     6.1798E-04     9.4265   3.2550   100.7037
  7      0.0000     0.0000E+00    0.0000E+00    2.512000E+07  0.00400  5.251E-03    0   0.8174   age090_m42            0.0000     5.9324E-04     9.1954   2.7945   103.9047
  8      0.0000     0.0000E+00    0.0000E+00    4.000000E+07  0.00400  3.649E-03    0   0.7851   age104_m42            0.0000     5.5501E-04     8.8862   2.5661   104.8825
  9      0.0000     0.0000E+00    0.0000E+00    5.500000E+07  0.00400  3.098E-03    0   0.7629   age110_m42            0.0000     5.0903E-04     8.4330   2.7228   104.9482
 10      0.0000     0.0000E+00    0.0000E+00    1.015200E+08  0.00400  2.228E-03    0   0.7207   age116_m42            0.0000     4.8214E-04     8.1428   2.7443   105.2269
 11      0.0000     0.0000E+00    0.0000E+00    2.861200E+08  0.00400  1.093E-03    0   0.6648   age125_m42            0.0000     4.7325E-04     7.7806   2.1596   108.6233
 12      0.0000     0.0000E+00    0.0000E+00    5.088000E+08  0.00400  6.597E-04    0   0.6365   age130_m42            0.0000     4.1647E-04     7.2681   2.1545   109.6324
 13      0.0000     0.0000E+00    0.0000E+00    1.434000E+09  0.00400  2.132E-04    0   0.5798   age139_m42            0.0000     2.9444E-04     6.4074   1.1930   111.7781
 14      0.0000     0.0000E+00    0.0000E+00    4.250000E+09  0.00400  5.895E-05    0   0.5377   age158_m42            0.0000     2.4748E-04     6.3233   0.7622   107.5281
 15      0.0000     0.0000E+00    0.0000E+00    7.500000E+09  0.00400  3.510E-05    0   0.5212   age171_m42            0.0000     2.2805E-04     6.1270   0.5745   106.8982
 16      0.0000     0.0000E+00    0.0000E+00    1.300000E+10  0.00400  2.005E-05    0   0.5034   age193_m42            0.0000     2.1926E-04     6.0145   0.4087   106.3968
 17      0.0000     0.0000E+00    0.0000E+00    1.800000E+10  0.00400  1.525E-05    0   0.4967   age213_m42            0.0000     2.2575E-04     6.1012   0.3869   105.8804
 18      0.0000     0.0000E+00    0.0000E+00    1.000000E+06  0.00800  1.238E-02    0   1.0000   age020_m52            0.0000     6.7828E-04    10.5679   4.0000    95.3623
 19      0.0000     0.0000E+00    0.0000E+00    3.160000E+06  0.00800  3.074E-02    0   0.9966   age045_m52            0.0000     6.6333E-04    10.4820   3.9521    95.2204
 20      0.0000     0.0000E+00    0.0000E+00    5.010000E+06  0.00800  2.668E-02    0   0.9443   age055_m52            0.0000     6.1097E-04     9.8614   3.7044    97.4067
 21      0.0000     0.0000E+00    0.0000E+00    6.610000E+06  0.00800  2.136E-02    0   0.9177   age061_m52            0.0000     5.3705E-04     8.9525   2.4323   104.4806
 22      0.0000     0.0000E+00    0.0000E+00    1.000000E+07  0.00800  1.215E-02    0   0.8827   age070_m52            0.0000     6.3264E-04     9.4458   3.1007   103.1104
 23      0.0000     0.0000E+00    0.0000E+00    1.445000E+07  0.00800  8.717E-03    0   0.8552   age078_m52            0.0000     6.0318E-04     9.2801   3.2203   102.1099
 24      0.0000     0.0000E+00    0.0000E+00    2.512000E+07  0.00800  5.592E-03    0   0.8162   age090_m52            0.0000     5.8814E-04     9.0990   2.8544   105.2372
 25      0.0000     0.0000E+00    0.0000E+00    4.000000E+07  0.00800  3.896E-03    0   0.7841   age104_m52            0.0000     5.4243E-04     8.6635   2.7649   106.1825
 26      0.0000     0.0000E+00    0.0000E+00    1.015200E+08  0.00800  2.148E-03    0   0.7226   age116_m52            0.0000     4.8408E-04     8.1449   2.7073   106.1124
 27      0.0000     0.0000E+00    0.0000E+00    2.861200E+08  0.00800  9.925E-04    0   0.6683   age125_m52            0.0000     4.1127E-04     7.2230   2.2181   110.6857
 28      0.0000     0.0000E+00    0.0000E+00    9.047900E+08  0.00800  3.141E-04    0   0.6138   age135_m52            0.0000     2.6602E-04     5.8990   1.4219   115.5951
 29      0.0000     0.0000E+00    0.0000E+00    1.434000E+09  0.00800  1.719E-04    0   0.5853   age139_m52            0.0000     2.3518E-04     5.6512   0.8449   113.2234
 30      0.0000     0.0000E+00    0.0000E+00    2.500000E+09  0.00800  7.872E-05    0   0.5600   age150_m52            0.0000     1.9679E-04     5.6062   0.5883   110.1904
 31      0.0000     0.0000E+00    0.0000E+00    4.250000E+09  0.00800  4.336E-05    0   0.5426   age158_m52            0.0000     1.9940E-04     5.7175   0.5745   109.1342
 32      0.0000     0.0000E+00    0.0000E+00    6.250000E+09  0.00800  3.159E-05    0   0.5319   age166_m52            0.0000     1.8446E-04     5.5273   0.3735   109.2718
 33      0.0000     0.0000E+00    0.0000E+00    1.300000E+10  0.00800  1.361E-05    0   0.5073   age193_m52            0.0000     1.7940E-04     5.4044  -0.0916   108.6885
 34      0.0000     0.0000E+00    0.0000E+00    1.800000E+10  0.00800  9.886E-06    0   0.4990   age213_m52            0.0000     1.8930E-04     5.5522  -0.1985   108.2916
 35      0.0000     0.0000E+00    0.0000E+00    1.000000E+06  0.02000  1.544E-02    0   1.0000   age020_m62            0.0000     6.8248E-04    10.5984   4.0000    95.4485
 36      0.7226     3.3004E-04    6.3481E-04    3.160000E+06  0.02000  3.762E-02    0   0.9858   age045_m62            0.0000     6.7824E-04    10.5696   3.9653    95.3595
 37      0.0000     0.0000E+00    0.0000E+00    5.010000E+06  0.02000  3.296E-02    0   0.9342   age055_m62            0.0000     5.6213E-04     9.4021   3.5802    99.6106
 38      0.0000     0.0000E+00    0.0000E+00    8.710000E+06  0.02000  1.154E-02    0   0.8861   age067_m62            0.0000     9.4723E-04    12.2931   2.5314   105.7201
 39      0.0000     0.0000E+00    0.0000E+00    1.445000E+07  0.02000  7.663E-03    0   0.8472   age078_m62            0.0000     6.9132E-04     9.9173   2.7361   105.5130
 40      0.0000     0.0000E+00    0.0000E+00    2.512000E+07  0.02000  4.532E-03    0   0.8099   age090_m62            0.0000     7.0614E-04    10.0175   2.7251   105.2428
 41      0.0000     0.0000E+00    0.0000E+00    5.500000E+07  0.02000  2.733E-03    0   0.7595   age110_m62            0.0000     5.4706E-04     8.6746   2.7502   105.3491
 42      0.0000     0.0000E+00    0.0000E+00    1.609000E+08  0.02000  1.369E-03    0   0.6985   age120_m62            0.0000     4.6145E-04     7.7354   2.5867   108.5890
 43      0.0000     0.0000E+00    0.0000E+00    2.861200E+08  0.02000  9.013E-04    0   0.6714   age125_m62            0.0000     4.1162E-04     7.2893   2.3355   111.9173
 44      0.0000     0.0000E+00    0.0000E+00    5.088000E+08  0.02000  5.028E-04    0   0.6449   age130_m62            0.0000     3.1982E-04     6.6323   1.9623   115.0640
 45      0.0000     0.0000E+00    0.0000E+00    9.047900E+08  0.02000  2.428E-04    0   0.6179   age135_m62            0.0000     2.2450E-04     5.7369   1.3767   114.6403
 46      0.0000     0.0000E+00    0.0000E+00    1.434000E+09  0.02000  1.263E-04    0   0.5908   age139_m62            0.0000     1.9638E-04     5.5402   0.9358   113.0145
 47      0.0000     0.0000E+00    0.0000E+00    2.500000E+09  0.02000  5.985E-05    0   0.5673   age150_m62            0.0000     1.8096E-04     5.5651   0.5759   111.5384
 48      0.2241     1.1773E-01    1.2560E-01    4.250000E+09  0.02000  3.271E-05    0   0.5468   age158_m62            0.0000     1.7823E-04     5.4836   0.2749   110.7352
 49     23.8645     3.0152E+01    3.0398E+01    1.000000E+10  0.02000  1.360E-05    0   0.5167   age181_m62            0.0000     1.9477E-04     5.6898  -0.0740   110.5935
 50     15.7267     3.7933E+01    3.7102E+01    1.800000E+10  0.02000  7.124E-06    0   0.5013   age213_m62            0.0000     2.3292E-04     6.2927  -0.2841   109.9283
 51      0.0000     0.0000E+00    0.0000E+00    1.000000E+06  0.05000  2.592E-02    0   0.9998   age020_m72            0.0000     6.9762E-04    10.7181   4.0000    95.1771
 52      0.0000     0.0000E+00    0.0000E+00    3.160000E+06  0.05000  4.845E-02    0   0.9577   age045_m72            0.0000     6.3111E-04    10.1729   3.8456    96.7640
 53      0.0000     0.0000E+00    0.0000E+00    5.010000E+06  0.05000  3.072E-02    0   0.9147   age055_m72            0.0000     6.8524E-04     9.6962   3.3267   101.5436
 54      0.0000     0.0000E+00    0.0000E+00    6.610000E+06  0.05000  1.455E-02    0   0.8877   age061_m72            0.0000     1.3021E-03    15.1430   2.5388   106.9847
 55      0.0000     0.0000E+00    0.0000E+00    1.000000E+07  0.05000  9.074E-03    0   0.8524   age070_m72            0.0000     7.7532E-04    10.3584   3.4893   101.6132
 56      0.0000     0.0000E+00    0.0000E+00    2.512000E+07  0.05000  4.250E-03    0   0.7902   age090_m72            0.0000     6.6697E-04     9.4573   3.1953   103.5013
 57      0.0000     0.0000E+00    0.0000E+00    4.000000E+07  0.05000  3.087E-03    0   0.7618   age104_m72            0.0000     6.6060E-04     9.4257   2.9631   105.3310
 58      0.0000     0.0000E+00    0.0000E+00    1.015200E+08  0.05000  1.700E-03    0   0.7096   age116_m72            0.0000     5.0842E-04     8.0539   2.7214   108.2178
 59      0.0000     0.0000E+00    0.0000E+00    2.861200E+08  0.05000  7.384E-04    0   0.6633   age125_m72            0.0000     3.5438E-04     6.8268   2.2039   113.6344
 60      0.0000     0.0000E+00    0.0000E+00    5.088000E+08  0.05000  3.819E-04    0   0.6372   age130_m72            0.0000     2.5202E-04     6.1479   1.7192   115.6390
 61     64.2657     6.5888E+00    7.8548E+00    9.047900E+08  0.05000  1.676E-04    0   0.6110   age135_m72            0.0000     1.8830E-04     5.6907   1.0332   113.7490
 62      0.0000     0.0000E+00    0.0000E+00    1.434000E+09  0.05000  8.837E-05    0   0.5874   age139_m72            0.0000     1.7500E-04     5.3906   0.5719   113.3829
 63      0.0000     0.0000E+00    0.0000E+00    2.500000E+09  0.05000  4.233E-05    0   0.5598   age150_m72            0.0000     1.7924E-04     5.4654   0.2721   111.8926
 64      2.7864     3.3365E+00    3.4170E+00    6.250000E+09  0.05000  1.435E-05    0   0.5249   age166_m72            0.0000     2.0923E-04     5.8282  -0.1701   110.2211
 65      0.0000     0.0000E+00    0.0000E+00    1.300000E+10  0.05000  6.513E-06    0   0.5036   age193_m72            0.0000     2.6991E-04     6.7928  -0.4489   111.4271
 66      5.7621     2.1871E+01    2.1102E+01    1.800000E+10  0.05000  4.527E-06    0   0.4945   age213_m72            0.0000     3.2109E-04     7.4936  -0.6092   111.2686


## Synthesis Results - Average & Chains ##

# j      x_j: min, <> & last-chain-values for 1 ...  7 chains
  1      0.0000      0.2750      0.0439      0.0163      0.0258      0.0000      0.0055      0.0306      0.0239
  2      0.0000      0.2349      0.0331      0.0081      0.0299      0.1093      0.0080      0.0167      0.0186
  3      0.0000      0.2781      0.0096      0.0175      0.0015      0.0040      0.0000      0.0364      0.0347
  4      0.0000      0.1775      0.0401      0.0171      0.0196      0.0856      0.0318      0.0270      0.0127
  5      0.0000      0.1877      0.0160      0.0388      0.0280      0.0004      0.0000      0.0394      0.0361
  6      0.0000      0.2545      0.0082      0.1343      0.0098      0.0627      0.0044      0.0230      0.0120
  7      0.0000      0.2069      0.0581      0.0024      0.0293      0.0094      0.0109      0.0277      0.0360
  8      0.0000      0.2715      0.0591      0.0361      0.0150      0.0000      0.0221      0.0134      0.0430
  9      0.0000      0.2765      0.0275      0.0108      0.0249      0.0059      0.0000      0.0000      0.0177
 10      0.0000      0.1841      0.1411      0.0248      0.0000      0.0522      0.0005      0.0245      0.0581
 11      0.0000      0.3121      0.1138      0.0122      0.0591      0.0413      0.0270      0.0855      0.0166
 12      0.0000      0.2450      0.0332      0.0028      0.0407      0.0603      0.0282      0.0723      0.0430
 13      0.0000      0.2686      0.0629      0.0437      0.0159      0.0862      0.0169      0.0040      0.0188
 14      0.0000      0.2725      0.0785      0.0705      0.0351      0.0209      0.0480      0.0065      0.0293
 15      0.0000      0.2092      0.1575      0.0214      0.0000      0.0000      0.0232      0.0185      0.0449
 16      0.0000      0.2593      0.0000      0.0173      0.0840      0.0305      0.0107      0.0321      0.0117
 17      0.0000      0.2302      0.0144      0.0000      0.0244      0.0192      0.0881      0.0110      0.0450
 18      0.0000      0.3000      0.0767      0.0271      0.0174      0.0309      0.0244      0.0253      0.0080
 19      0.0000      0.1949      0.0073      0.0000      0.0114      0.0548      0.0029      0.0543      0.0065
 20      0.0000      0.2395      0.0292      0.0351      0.0666      0.0012      0.0220      0.0176      0.0198
 21      0.0000      0.2495      0.0268      0.0170      0.0440      0.0000      0.0253      0.0000      0.0000
 22      0.0000      0.2438      0.0463      0.0364      0.0306      0.0523      0.0000      0.0151      0.0767
 23      0.0000      0.2180      0.0228      0.0000      0.0395      0.0372      0.0000      0.0352      0.0329
 24      0.0000      0.3344      0.0353      0.0239      0.0445      0.0381      0.0259      0.0148      0.0170
 25      0.0000      0.2115      0.0555      0.0000      0.0096      0.0175      0.0205      0.0446      0.0101
 26      0.0000      0.2607      0.0000      0.0764      0.0395      0.0441      0.0236      0.0030      0.0181
 27      0.0000      0.2424      0.0145      0.1050      0.0349      0.0102      0.0059      0.0347      0.0138
 28      0.0000      0.3490      0.0469      0.0191      0.0484      0.0000      0.0419      0.0772      0.0351
 29      0.0000      0.3436      0.0004      0.0536      0.0373      0.1223      0.0263      0.0379      0.0102
 30      0.0000      0.2619      0.0396      0.0081      0.0215      0.0373      0.0000      0.0275      0.0456
 31      0.0000      0.2685      0.0083      0.0251      0.0011      0.0421      0.0002      0.0466      0.0089
 32      0.0000      0.2797      0.0321      0.0380      0.0092      0.0000      0.0289      0.0301      0.0186
 33      0.0000      0.2724      0.0338      0.0257      0.0258      0.0230      0.0229      0.0070      0.0636
 34      0.0000      0.2751      0.1437      0.0348      0.0823      0.2504      0.0153      0.0055      0.0281
 35      0.0000      0.2961      0.0734      0.0605      0.0177      0.0448      0.0000      0.0564      0.0000
 36      0.7226      0.9221      0.8618      1.0208      1.0080      0.9704      0.8003      1.0274      0.8774
 37      0.0000      0.2210      0.0296      0.0210      0.0184      0.0703      0.0000      0.0264      0.0295
 38      0.0000      0.2124      0.0775      0.0017      0.0239      0.1027      0.0533      0.0476      0.0285
 39      0.0000      0.2461      0.0294      0.0063      0.0291      0.0195      0.0150      0.0179      0.0000
 40      0.0000      0.2687      0.0330      0.0207      0.0105      0.0281      0.0114      0.0453      0.0077
 41      0.0000      0.2347      0.0209      0.0530      0.0417      0.1218      0.0084      0.0108      0.0397
 42      0.0000      0.2704      0.0304      0.0269      0.0325      0.0394      0.0110      0.0091      0.0000
 43      0.0000      0.2383      0.1178      0.0210      0.0304      0.1031      0.0278      0.0238      0.0061
 44      0.0000      0.3194      0.0807      0.0372      0.0291      0.1553      0.0073      0.0220      0.0005
 45      0.0000      0.2950      0.0740      0.0510      0.0069      0.0021      0.0173      0.0257      0.0000
 46      0.0000      0.2079      0.0399      0.0289      0.0082      0.0253      0.0194      0.0362      0.0073
