###################################################################
## OUTPUT of StarlightChains_v04.for    [Cid@UFSC - 01/Apr/2007] ##
###################################################################

## Some input info
KUG0210-078._31_23.txt                   [arq_obs]
Base.CB07.vall.4m                        [arq_base]
Masks.EmLines.NEW.gm                     [arq_masks]
StCv04.C11.config                        [arq_config]
   66                                    [N_base]
    0                                    [N_YAV_components = # of components with extra extinction!]
    0                                    [i_FitPowerLaw (1/0 = Yes/No)]
-9.99                                    [alpha_PowerLaw]
CCM                                      [red_law_option]
 1.458241                                [q_norm = A(l_norm)/A(V)]

## (Re)Sampling Parameters
 3741.00                                 [l_ini (A)]
 7218.00                                 [l_fin (A)]
    1.00                                 [dl    (A)]     (OBS: dl_cushion =    50.00 A)

## Normalization info
 4020.00                                 [l_norm (A) - for base]
 4010.00                                 [llow_norm (A) - window for f_obs]
 4060.00                                 [lupp_norm (A) - window for f_obs]
8.721363E-18                             [fobs_norm (in input units)]

## S/N
 3691.00                                 [llow_SN (A) - window for S/N]
 7268.00                                 [lupp_SN (A) - window for S/N]
   3.775                                 [S/N in S/N window]
   3.695                                 [S/N in norm. window]
   0.011                                 [S/N_err in S/N window]
   0.011                                 [S/N_err in norm. window]
  1.0000                                 [fscale_chi2]

## etc...
    -2007448                             [idum_orig]
  2404                                   [NOl_eff]
  2260                                   [Nl_eff]
   144    NSIGMA                         [Ntot_cliped & clip_method]
 10441200                                [Nglobal_steps]
   7                                     [N_chains]
  32                                     [NEX0s_base = N_base in EX0s-fits]
 0   0   1      144   2.0   4.589E+03    [Clip-Bug, RC-Crash & Burn-In warning-flags, n_censored_weights, wei_nsig_threshold & wei_limit]
    79     78.327     77.467      0.860  [idt_all, wdt_TotTime, wdt_UsrTime & wdt_SysTime (sec)]

## Synthesis Results - Best model ##

 1.49212E-05                             [chi2/Nl_eff]
    22.85382                             [adev (%)]

   119.65053                             [sum-of-x (%)]
 1.63233E-17                             [Flux_tot (units of input spectrum!)]
 3.41282E-13                             [Mini_tot (???)]
 1.73684E-13                             [Mcor_tot (???)]

 282.43                                  [v0_min  (km/s)]
 242.34                                  [vd_min  (km/s)]
 0.3331                                  [AV_min  (mag)]
 0.0000                                  [YAV_min (mag)]

# j     x_j(%)      Mini_j(%)     Mcor_j(%)     age_j(yr)     Z_j      (L/M)_j    YAV?  Mstars   component_j        a/Fe...       SSP_chi2r SSP_adev(%)   SSP_AV   SSP_x(%)
  1      0.0000     0.0000E+00    0.0000E+00    1.000000E+06  0.00400  1.094E-02    0   1.0000   age020_m42            0.0000     1.6114E-05    25.0717   2.6319   107.6946
  2      0.0000     0.0000E+00    0.0000E+00    3.160000E+06  0.00400  4.007E-02    0   0.9999   age045_m42            0.0000     1.6082E-05    24.5598   1.9823   111.6017
  3      1.6758     2.6383E-03    4.9188E-03    5.010000E+06  0.00400  2.539E-02    0   0.9488   age055_m42            0.0000     1.5995E-05    24.5659   2.2742   110.2092
  4      0.0000     0.0000E+00    0.0000E+00    6.610000E+06  0.00400  2.620E-02    0   0.9220   age061_m42            0.0000     1.5935E-05    24.2699   1.9194   111.5116
  5      0.0000     0.0000E+00    0.0000E+00    1.000000E+07  0.00400  1.322E-02    0   0.8862   age070_m42            0.0000     1.5545E-05    23.2910   1.6672   113.2304
  6      0.0000     0.0000E+00    0.0000E+00    1.445000E+07  0.00400  7.883E-03    0   0.8571   age078_m42            0.0000     1.5582E-05    23.4502   1.9691   111.4117
  7      0.0000     0.0000E+00    0.0000E+00    2.512000E+07  0.00400  5.251E-03    0   0.8174   age090_m42            0.0000     1.5471E-05    23.0738   1.5498   113.4629
  8      0.0000     0.0000E+00    0.0000E+00    4.000000E+07  0.00400  3.649E-03    0   0.7851   age104_m42            0.0000     1.5455E-05    23.0822   1.3288   114.0731
  9      0.0000     0.0000E+00    0.0000E+00    5.500000E+07  0.00400  3.098E-03    0   0.7629   age110_m42            0.0000     1.5698E-05    23.3782   1.4832   113.6811
 10      0.0000     0.0000E+00    0.0000E+00    1.015200E+08  0.00400  2.228E-03    0   0.7207   age116_m42            0.0000     1.5851E-05    23.5890   1.5069   113.5245
 11      0.6807     2.4897E-02    3.2523E-02    2.861200E+08  0.00400  1.093E-03    0   0.6648   age125_m42            0.0000     1.5681E-05    23.3156   0.9623   115.8481
 12      0.0000     0.0000E+00    0.0000E+00    5.088000E+08  0.00400  6.597E-04    0   0.6365   age130_m42            0.0000     1.5888E-05    23.5404   0.9519   116.5585
 13      1.3659     2.5610E-01    2.9177E-01    1.434000E+09  0.00400  2.132E-04    0   0.5798   age139_m42            0.0000     1.5763E-05    23.4383  -0.0251   119.1668
 14      0.0000     0.0000E+00    0.0000E+00    4.250000E+09  0.00400  5.895E-05    0   0.5377   age158_m42            0.0000     1.6051E-05    24.5067  -0.5412   117.6153
 15      0.0000     0.0000E+00    0.0000E+00    7.500000E+09  0.00400  3.510E-05    0   0.5212   age171_m42            0.0000     1.6322E-05    24.8305  -0.7426   117.2716
 16      0.0000     0.0000E+00    0.0000E+00    1.300000E+10  0.00400  2.005E-05    0   0.5034   age193_m42            0.0000     1.6589E-05    25.0741  -0.9211   117.0120
 17     10.4595     2.7417E+01    2.6759E+01    1.800000E+10  0.00400  1.525E-05    0   0.4967   age213_m42            0.0000     1.6590E-05    25.0695  -0.9455   116.6118
 18      0.0000     0.0000E+00    0.0000E+00    1.000000E+06  0.00800  1.238E-02    0   1.0000   age020_m52            0.0000     1.6102E-05    25.1055   2.6260   107.9770
 19      5.8628     7.6240E-03    1.4930E-02    3.160000E+06  0.00800  3.074E-02    0   0.9966   age045_m52            0.0000     1.6063E-05    25.0649   2.5529   108.7846
 20      0.0000     0.0000E+00    0.0000E+00    5.010000E+06  0.00800  2.668E-02    0   0.9443   age055_m52            0.0000     1.5901E-05    24.5827   2.3437   109.8162
 21     13.7302     2.5695E-02    4.6335E-02    6.610000E+06  0.00800  2.136E-02    0   0.9177   age061_m52            0.0000     1.5268E-05    23.5063   1.1405   115.7734
 22      0.0000     0.0000E+00    0.0000E+00    1.000000E+07  0.00800  1.215E-02    0   0.8827   age070_m52            0.0000     1.5431E-05    23.1276   1.8403   113.3895
 23      0.0000     0.0000E+00    0.0000E+00    1.445000E+07  0.00800  8.717E-03    0   0.8552   age078_m52            0.0000     1.5532E-05    23.3552   1.9431   112.6189
 24      0.0000     0.0000E+00    0.0000E+00    2.512000E+07  0.00800  5.592E-03    0   0.8162   age090_m52            0.0000     1.5439E-05    22.9950   1.6179   114.6102
 25      0.0000     0.0000E+00    0.0000E+00    4.000000E+07  0.00800  3.896E-03    0   0.7841   age104_m52            0.0000     1.5489E-05    23.0734   1.5374   114.9988
 26      0.0000     0.0000E+00    0.0000E+00    1.015200E+08  0.00800  2.148E-03    0   0.7226   age116_m52            0.0000     1.5595E-05    23.4424   1.4744   114.5989
 27      0.0000     0.0000E+00    0.0000E+00    2.861200E+08  0.00800  9.925E-04    0   0.6683   age125_m52            0.0000     1.5777E-05    23.4975   1.0185   117.6134
 28      0.0000     0.0000E+00    0.0000E+00    9.047900E+08  0.00800  3.141E-04    0   0.6138   age135_m52            0.0000     1.6159E-05    23.9247   0.2032   122.8384
 29      0.0000     0.0000E+00    0.0000E+00    1.434000E+09  0.00800  1.719E-04    0   0.5853   age139_m52            0.0000     1.5905E-05    23.9416  -0.4083   121.8380
 30      0.0000     0.0000E+00    0.0000E+00    2.500000E+09  0.00800  7.872E-05    0   0.5600   age150_m52            0.0000     1.6423E-05    24.7585  -0.7214   120.2851
 31      2.8682     2.6443E+00    2.8193E+00    4.250000E+09  0.00800  4.336E-05    0   0.5426   age158_m52            0.0000     1.6588E-05    24.9355  -0.7453   119.5481
 32      0.0000     0.0000E+00    0.0000E+00    6.250000E+09  0.00800  3.159E-05    0   0.5319   age166_m52            0.0000     1.7018E-05    25.3142  -0.9605   119.8279
 33     13.6085     3.9970E+01    3.9843E+01    1.300000E+10  0.00800  1.361E-05    0   0.5073   age193_m52            0.0000     1.8753E-05    23.7478  -1.0000   107.2328
 34      0.0000     0.0000E+00    0.0000E+00    1.800000E+10  0.00800  9.886E-06    0   0.4990   age213_m52            0.0000     1.9968E-05    24.2538  -1.0000   103.4770
 35      0.0000     0.0000E+00    0.0000E+00    1.000000E+06  0.02000  1.544E-02    0   1.0000   age020_m62            0.0000     1.6098E-05    25.1240   2.6223   108.2828
 36     20.7135     2.2010E-02    4.2634E-02    3.160000E+06  0.02000  3.762E-02    0   0.9858   age045_m62            0.0000     1.6038E-05    25.0879   2.5565   109.3608
 37      6.4738     7.8514E-03    1.4413E-02    5.010000E+06  0.02000  3.296E-02    0   0.9342   age055_m62            0.0000     1.5955E-05    24.6093   2.2418   111.1502
 38      0.0000     0.0000E+00    0.0000E+00    8.710000E+06  0.02000  1.154E-02    0   0.8861   age067_m62            0.0000     1.5100E-05    22.4256   1.3186   116.7157
 39      3.7595     1.9611E-02    3.2647E-02    1.445000E+07  0.02000  7.663E-03    0   0.8472   age078_m62            0.0000     1.5217E-05    22.7324   1.4990   115.8048
 40      0.0000     0.0000E+00    0.0000E+00    2.512000E+07  0.02000  4.532E-03    0   0.8099   age090_m62            0.0000     1.5214E-05    22.6139   1.5004   115.0619
 41      0.0000     0.0000E+00    0.0000E+00    5.500000E+07  0.02000  2.733E-03    0   0.7595   age110_m62            0.0000     1.5425E-05    23.0486   1.5114   114.5886
 42      0.0000     0.0000E+00    0.0000E+00    1.609000E+08  0.02000  1.369E-03    0   0.6985   age120_m62            0.0000     1.5717E-05    23.3572   1.3748   116.1969
 43      0.0000     0.0000E+00    0.0000E+00    2.861200E+08  0.02000  9.013E-04    0   0.6714   age125_m62            0.0000     1.5917E-05    23.4278   1.1405   118.5990
 44      0.0000     0.0000E+00    0.0000E+00    5.088000E+08  0.02000  5.028E-04    0   0.6449   age130_m62            0.0000     1.6309E-05    23.9412   0.7481   121.9137
 45      0.0000     0.0000E+00    0.0000E+00    9.047900E+08  0.02000  2.428E-04    0   0.6179   age135_m62            0.0000     1.6377E-05    24.3978   0.1165   123.1592
 46      0.0000     0.0000E+00    0.0000E+00    1.434000E+09  0.02000  1.263E-04    0   0.5908   age139_m62            0.0000     1.6485E-05    24.6976  -0.3588   122.7712
 47      0.0000     0.0000E+00    0.0000E+00    2.500000E+09  0.02000  5.985E-05    0   0.5673   age150_m62            0.0000     1.6992E-05    25.2999  -0.7582   122.3081
 48      0.0000     0.0000E+00    0.0000E+00    4.250000E+09  0.02000  3.271E-05    0   0.5468   age158_m62            0.0000     1.7607E-05    25.0321  -1.0000   119.5662
 49     10.0282     2.9476E+01    2.9927E+01    1.000000E+10  0.02000  1.360E-05    0   0.5167   age181_m62            0.0000     1.9675E-05    23.8399  -1.0000   109.1296
 50      0.0000     0.0000E+00    0.0000E+00    1.800000E+10  0.02000  7.124E-06    0   0.5013   age213_m62            0.0000     2.1896E-05    24.5648  -1.0000   101.9453
 51      0.0000     0.0000E+00    0.0000E+00    1.000000E+06  0.05000  2.592E-02    0   0.9998   age020_m72            0.0000     1.6089E-05    25.2516   2.6023   108.7755
 52      1.1989     9.8914E-04    1.8614E-03    3.160000E+06  0.05000  4.845E-02    0   0.9577   age045_m72            0.0000     1.5996E-05    24.9026   2.4620   109.8270
 53     26.3855     3.4334E-02    6.1710E-02    5.010000E+06  0.05000  3.072E-02    0   0.9147   age055_m72            0.0000     1.5460E-05    23.4494   2.0326   113.0633
 54      0.0000     0.0000E+00    0.0000E+00    6.610000E+06  0.05000  1.455E-02    0   0.8877   age061_m72            0.0000     1.5419E-05    23.7763   1.3579   117.7373
 55      0.0000     0.0000E+00    0.0000E+00    1.000000E+07  0.05000  9.074E-03    0   0.8524   age070_m72            0.0000     1.5629E-05    23.9822   2.2085   112.5975
 56      0.0000     0.0000E+00    0.0000E+00    2.512000E+07  0.05000  4.250E-03    0   0.7902   age090_m72            0.0000     1.5512E-05    23.3117   1.9527   113.0475
 57      0.6565     8.5005E-03    1.2725E-02    4.000000E+07  0.05000  3.087E-03    0   0.7618   age104_m72            0.0000     1.5504E-05    23.1930   1.7489   114.0019
 58      0.0000     0.0000E+00    0.0000E+00    1.015200E+08  0.05000  1.700E-03    0   0.7096   age116_m72            0.0000     1.5633E-05    23.2420   1.5188   115.7733
 59      0.0000     0.0000E+00    0.0000E+00    2.861200E+08  0.05000  7.384E-04    0   0.6633   age125_m72            0.0000     1.6080E-05    23.6799   0.9993   120.4021
 60      0.0000     0.0000E+00    0.0000E+00    5.088000E+08  0.05000  3.819E-04    0   0.6372   age130_m72            0.0000     1.6342E-05    24.2852   0.4705   123.7467
 61      0.0000     0.0000E+00    0.0000E+00    9.047900E+08  0.05000  1.676E-04    0   0.6110   age135_m72            0.0000     1.6952E-05    25.3497  -0.2921   124.3101
 62      0.1831     8.2826E-02    9.5599E-02    1.434000E+09  0.05000  8.837E-05    0   0.5874   age139_m72            0.0000     1.7224E-05    25.4372  -0.7644   124.2753
 63      0.0000     0.0000E+00    0.0000E+00    2.500000E+09  0.05000  4.233E-05    0   0.5598   age150_m72            0.0000     1.7907E-05    25.1613  -1.0000   120.6544
 64      0.0000     0.0000E+00    0.0000E+00    6.250000E+09  0.05000  1.435E-05    0   0.5249   age166_m72            0.0000     2.0516E-05    24.1800  -1.0000   105.8835
 65      0.0000     0.0000E+00    0.0000E+00    1.300000E+10  0.05000  6.513E-06    0   0.5036   age193_m72            0.0000     2.3847E-05    25.6878  -1.0000    98.1384
 66      0.0000     0.0000E+00    0.0000E+00    1.800000E+10  0.05000  4.527E-06    0   0.4945   age213_m72            0.0000     2.6333E-05    26.8203  -1.0000    92.8024


## Synthesis Results - Average & Chains ##

# j      x_j: min, <> & last-chain-values for 1 ...  7 chains
  1      0.0000      0.2491      0.0270      0.0339      0.0000      0.1070      0.0176      0.0643      0.7131
  2      0.0000      0.3078      0.2907      0.1109      0.0971      1.8803      0.0669      0.0774      0.3886
  3      1.6758      0.2735      0.3073      0.0477      0.0000      1.4084      0.0000      0.7229      0.2599
  4      0.0000      0.2096      0.0689      0.1183      0.7036      0.0000      0.0000      0.2909      0.6962
  5      0.0000      0.2872      0.0000      0.0464      0.5897      0.0000      0.1062      0.2882      0.2258
  6      0.0000      0.4465      0.6695      0.1778      0.0000      0.0000      0.0959      0.2593      0.8009
  7      0.0000      0.3017      0.0000      0.4529      0.2562      1.2927      0.0089      0.0710      0.7542
  8      0.0000      0.2209      0.3703      0.0084      0.4206      0.0000      0.0000      0.2081      0.0000
  9      0.0000      0.2421      0.3502      0.1589      1.4946      1.0668      0.1421      0.0000      0.0841
 10      0.0000      0.3162      0.0000      0.0442      1.0327      0.4872      0.0077      0.3358      0.0000
 11      0.6807      0.3905      0.4961      0.2691      1.7326      0.1164      0.0088      0.3383      0.9407
 12      0.0000      0.2716      0.6327      0.2251      0.9253      0.0113      0.0667      0.2097      0.0000
 13      1.3659      0.2811      0.4881      0.0881      1.4713      0.3181      0.0675      0.2193      0.4972
 14      0.0000      0.3045      0.0000      0.0727      0.0000      1.4062      0.0273      0.1626      0.0000
 15      0.0000      0.3076      0.0000      0.0000      0.0000      1.0477      0.0733      0.1437      0.3738
 16      0.0000      0.3867      0.1276      0.0000      0.0028      1.1197      0.2674      0.0000      0.2209
 17     10.4595      0.3487      1.5141      0.0631      0.2287      0.2990      0.0600      0.6429      0.0000
 18      0.0000      0.3070      0.1765      0.1373      1.1461      1.1130      0.0191      0.0000      0.2141
 19      5.8628      0.3083      0.6723      0.1434      0.3388      0.0000      0.2438      0.0000      0.0000
 20      0.0000      0.3865      0.0000      0.0390      0.6392      2.9532      0.1906      0.0304      1.2592
 21     13.7302      0.3490      0.3176      0.0913      1.3848      0.0000      0.1454      0.5352      0.2328
 22      0.0000      0.3361      0.0000      0.1812      0.5396      0.4534      0.0000      0.7538      1.2793
 23      0.0000      0.2282      0.0000      0.0407      1.2801      0.2688      0.0704      0.3934      0.3580
 24      0.0000      0.3020      0.3303      0.4232      1.3681      0.0000      0.0000      0.0585      0.8195
 25      0.0000      0.3343      0.1259      0.1011      0.0000      0.8900      0.0000      0.3509      0.0000
 26      0.0000      0.2550      0.0000      0.0267      0.0000      0.3661      0.0189      0.1891      0.4894
 27      0.0000      0.2062      0.0000      0.0036      0.0000      0.2373      0.0000      0.1846      0.5439
 28      0.0000      0.3300      0.0000      0.0988      0.8021      0.0000      0.0437      0.1687      0.7177
 29      0.0000      0.2566      0.1084      0.1762      0.0000      2.0527      0.1035      0.3694      0.5145
 30      0.0000      0.2272      0.0000      0.0307      0.6313      0.0446      0.0275      0.0000      0.1207
 31      2.8682      0.3411      0.6547      0.0000      1.4148      0.1577      0.0000      0.0000      0.8181
 32      0.0000      0.2257      0.5998      0.0647      0.0000      0.6814      0.0000      0.1931      0.0000
 33     13.6085     17.8931     17.8627     13.7621     16.8908     13.1373     18.3911     18.7656     16.8577
 34      0.0000     21.2848     20.6309     31.8042     20.3973     20.0239     24.1440     15.3141     21.0787
 35      0.0000      0.3712      0.6453      0.1231      1.8314      0.0000      0.0798      0.6915      0.4335
 36     20.7135      0.2215      0.3909      0.1590      0.0000      0.0000      0.0678      0.3647      0.5304
 37      6.4738      0.3310      0.3415      0.1721      0.6405      0.3182      0.0308      0.1189      0.0000
 38      0.0000      0.2737      0.0000      0.0560      0.0000      0.3925      0.1046      0.4289      0.0947
 39      3.7595      0.3139      1.4502      0.1217      1.0277      0.3625      0.1648      0.3828      0.2055
 40      0.0000      0.2601      0.0000      0.0000      0.0000      0.1352      0.0468      0.0000      0.2268
 41      0.0000      0.2752      0.6138      0.0273      0.0961      0.4270      0.0315      0.4569      0.0000
 42      0.0000      0.2468      0.0000      0.1624      0.1771      1.9830      0.0526      0.2755      0.9812
 43      0.0000      0.2948      0.1556      0.1565      0.1303      0.6152      0.0000      0.1417      0.9637
 44      0.0000      0.2888      0.3008      0.0369      0.2638      1.2374      0.1124      0.2131      0.7168
 45      0.0000      0.2172      0.0000      0.0599      0.0000      0.3298      0.0000      0.0966      0.4490
 46      0.0000      0.3085      0.0000      0.2199      0.7861      0.9620      0.0000      0.1453      1.0024
