###################################################################
## OUTPUT of StarlightChains_v04.for    [Cid@UFSC - 01/Apr/2007] ##
###################################################################

## Some input info
KUG0210-078._34_29.txt                   [arq_obs]
Base.CB07.vall.4m                        [arq_base]
Masks.EmLines.NEW.gm                     [arq_masks]
StCv04.C11.config                        [arq_config]
   66                                    [N_base]
    0                                    [N_YAV_components = # of components with extra extinction!]
    0                                    [i_FitPowerLaw (1/0 = Yes/No)]
-9.99                                    [alpha_PowerLaw]
CCM                                      [red_law_option]
 1.458241                                [q_norm = A(l_norm)/A(V)]

## (Re)Sampling Parameters
 3741.00                                 [l_ini (A)]
 7218.00                                 [l_fin (A)]
    1.00                                 [dl    (A)]     (OBS: dl_cushion =    50.00 A)

## Normalization info
 4020.00                                 [l_norm (A) - for base]
 4010.00                                 [llow_norm (A) - window for f_obs]
 4060.00                                 [lupp_norm (A) - window for f_obs]
3.455608E-17                             [fobs_norm (in input units)]

## S/N
 3691.00                                 [llow_SN (A) - window for S/N]
 7268.00                                 [lupp_SN (A) - window for S/N]
   4.041                                 [S/N in S/N window]
   4.105                                 [S/N in norm. window]
   0.049                                 [S/N_err in S/N window]
   0.049                                 [S/N_err in norm. window]
  1.0000                                 [fscale_chi2]

## etc...
    -2007534                             [idum_orig]
  2427                                   [NOl_eff]
  2228                                   [Nl_eff]
   199    NSIGMA                         [Ntot_cliped & clip_method]
  5618060                                [Nglobal_steps]
   7                                     [N_chains]
  35                                     [NEX0s_base = N_base in EX0s-fits]
 0   0   1      199   2.0   2.146E+04    [Clip-Bug, RC-Crash & Burn-In warning-flags, n_censored_weights, wei_nsig_threshold & wei_limit]
    37     37.239     36.641      0.598  [idt_all, wdt_TotTime, wdt_UsrTime & wdt_SysTime (sec)]

## Synthesis Results - Best model ##

 3.97173E-05                             [chi2/Nl_eff]
     6.99210                             [adev (%)]

   119.79260                             [sum-of-x (%)]
 1.08058E-17                             [Flux_tot (units of input spectrum!)]
 7.80306E-13                             [Mini_tot (???)]
 3.98382E-13                             [Mcor_tot (???)]

-130.95                                  [v0_min  (km/s)]
 177.10                                  [vd_min  (km/s)]
-1.0000                                  [AV_min  (mag)]
 0.0000                                  [YAV_min (mag)]

# j     x_j(%)      Mini_j(%)     Mcor_j(%)     age_j(yr)     Z_j      (L/M)_j    YAV?  Mstars   component_j        a/Fe...       SSP_chi2r SSP_adev(%)   SSP_AV   SSP_x(%)
  1      0.0000     0.0000E+00    0.0000E+00    1.000000E+06  0.00400  1.094E-02    0   1.0000   age020_m42            0.0000     1.4995E-04    10.0891   2.8758   102.8626
  2      0.0000     0.0000E+00    0.0000E+00    3.160000E+06  0.00400  4.007E-02    0   0.9999   age045_m42            0.0000     1.1667E-04     9.9894   2.1464   109.6607
  3      0.0000     0.0000E+00    0.0000E+00    5.010000E+06  0.00400  2.539E-02    0   0.9488   age055_m42            0.0000     1.2504E-04     9.9014   2.4560   107.6235
  4      0.0000     0.0000E+00    0.0000E+00    6.610000E+06  0.00400  2.620E-02    0   0.9220   age061_m42            0.0000     1.1047E-04    10.0332   2.0664   110.1946
  5      0.0000     0.0000E+00    0.0000E+00    1.000000E+07  0.00400  1.322E-02    0   0.8862   age070_m42            0.0000     1.2443E-04    11.5183   1.8107   111.6127
  6      0.0000     0.0000E+00    0.0000E+00    1.445000E+07  0.00400  7.883E-03    0   0.8571   age078_m42            0.0000     1.3076E-04    11.2675   2.1286   109.2395
  7      0.0000     0.0000E+00    0.0000E+00    2.512000E+07  0.00400  5.251E-03    0   0.8174   age090_m42            0.0000     1.2502E-04    11.8781   1.6873   111.9874
  8      0.0000     0.0000E+00    0.0000E+00    4.000000E+07  0.00400  3.649E-03    0   0.7851   age104_m42            0.0000     1.1918E-04    11.7321   1.4606   112.7866
  9      0.0000     0.0000E+00    0.0000E+00    5.500000E+07  0.00400  3.098E-03    0   0.7629   age110_m42            0.0000     1.0860E-04    11.0383   1.6015   113.1809
 10      0.0000     0.0000E+00    0.0000E+00    1.015200E+08  0.00400  2.228E-03    0   0.7207   age116_m42            0.0000     9.9088E-05    10.5742   1.6111   113.7343
 11      0.0000     0.0000E+00    0.0000E+00    2.861200E+08  0.00400  1.093E-03    0   0.6648   age125_m42            0.0000     9.6969E-05    11.3099   1.0524   116.3109
 12      0.0000     0.0000E+00    0.0000E+00    5.088000E+08  0.00400  6.597E-04    0   0.6365   age130_m42            0.0000     8.5550E-05    10.5284   1.0349   117.4991
 13      0.0000     0.0000E+00    0.0000E+00    1.434000E+09  0.00400  2.132E-04    0   0.5798   age139_m42            0.0000     7.4766E-05     9.9862   0.0910   118.5372
 14      0.0000     0.0000E+00    0.0000E+00    4.250000E+09  0.00400  5.895E-05    0   0.5377   age158_m42            0.0000     6.8229E-05     8.5240  -0.3650   114.6030
 15      0.0000     0.0000E+00    0.0000E+00    7.500000E+09  0.00400  3.510E-05    0   0.5212   age171_m42            0.0000     6.3897E-05     8.0101  -0.5587   113.9745
 16      0.3118     1.7980E-01    1.7728E-01    1.300000E+10  0.00400  2.005E-05    0   0.5034   age193_m42            0.0000     6.2027E-05     7.6270  -0.7279   113.3931
 17      0.0000     0.0000E+00    0.0000E+00    1.800000E+10  0.00400  1.525E-05    0   0.4967   age213_m42            0.0000     6.3068E-05     7.6899  -0.7512   112.9404
 18      0.0000     0.0000E+00    0.0000E+00    1.000000E+06  0.00800  1.238E-02    0   1.0000   age020_m52            0.0000     1.5020E-04    10.0752   2.8722   103.0736
 19      0.0000     0.0000E+00    0.0000E+00    3.160000E+06  0.00800  3.074E-02    0   0.9966   age045_m52            0.0000     1.4385E-04     9.9215   2.7886   104.2974
 20      0.0000     0.0000E+00    0.0000E+00    5.010000E+06  0.00800  2.668E-02    0   0.9443   age055_m52            0.0000     1.2928E-04     9.9247   2.5388   106.7428
 21      0.0000     0.0000E+00    0.0000E+00    6.610000E+06  0.00800  2.136E-02    0   0.9177   age061_m52            0.0000     1.2641E-04    11.3013   1.3268   112.2342
 22      0.0000     0.0000E+00    0.0000E+00    1.000000E+07  0.00800  1.215E-02    0   0.8827   age070_m52            0.0000     1.3366E-04    11.9222   1.9897   111.3999
 23      0.0000     0.0000E+00    0.0000E+00    1.445000E+07  0.00800  8.717E-03    0   0.8552   age078_m52            0.0000     1.2830E-04    11.3326   2.0961   110.6539
 24      0.0000     0.0000E+00    0.0000E+00    2.512000E+07  0.00800  5.592E-03    0   0.8162   age090_m52            0.0000     1.2421E-04    11.9641   1.7489   113.3367
 25      0.0000     0.0000E+00    0.0000E+00    4.000000E+07  0.00800  3.896E-03    0   0.7841   age104_m52            0.0000     1.1553E-04    11.6714   1.6571   114.2228
 26      0.0000     0.0000E+00    0.0000E+00    1.015200E+08  0.00800  2.148E-03    0   0.7226   age116_m52            0.0000     1.0041E-04    10.9086   1.5826   114.4547
 27      0.0000     0.0000E+00    0.0000E+00    2.861200E+08  0.00800  9.925E-04    0   0.6683   age125_m52            0.0000     8.5537E-05    10.5974   1.1040   118.4143
 28      0.0000     0.0000E+00    0.0000E+00    9.047900E+08  0.00800  3.141E-04    0   0.6138   age135_m52            0.0000     7.2233E-05     9.7083   0.3215   122.1423
 29      0.0000     0.0000E+00    0.0000E+00    1.434000E+09  0.00800  1.719E-04    0   0.5853   age139_m52            0.0000     6.7691E-05     9.1196  -0.2646   119.9236
 30      0.0000     0.0000E+00    0.0000E+00    2.500000E+09  0.00800  7.872E-05    0   0.5600   age150_m52            0.0000     5.8505E-05     7.7598  -0.5449   117.2992
 31      0.0000     0.0000E+00    0.0000E+00    4.250000E+09  0.00800  4.336E-05    0   0.5426   age158_m52            0.0000     5.9458E-05     7.6970  -0.5604   116.2086
 32      4.6979     1.7192E+00    1.7911E+00    6.250000E+09  0.00800  3.159E-05    0   0.5319   age166_m52            0.0000     5.3222E-05     7.0893  -0.7690   116.3282
 33      0.0000     0.0000E+00    0.0000E+00    1.300000E+10  0.00800  1.361E-05    0   0.5073   age193_m52            0.0000     5.3398E-05    10.1057  -1.0000   108.8437
 34      0.0000     0.0000E+00    0.0000E+00    1.800000E+10  0.00800  9.886E-06    0   0.4990   age213_m52            0.0000     5.9393E-05    11.7657  -1.0000   105.1402
 35      0.0000     0.0000E+00    0.0000E+00    1.000000E+06  0.02000  1.544E-02    0   1.0000   age020_m62            0.0000     1.5081E-04    10.0644   2.8676   103.3606
 36      0.0000     0.0000E+00    0.0000E+00    3.160000E+06  0.02000  3.762E-02    0   0.9858   age045_m62            0.0000     1.4668E-04     9.8845   2.7959   104.7053
 37      0.0000     0.0000E+00    0.0000E+00    5.010000E+06  0.02000  3.296E-02    0   0.9342   age055_m62            0.0000     1.1693E-04     9.6935   2.4109   109.1044
 38      0.0000     0.0000E+00    0.0000E+00    8.710000E+06  0.02000  1.154E-02    0   0.8861   age067_m62            0.0000     1.8431E-04    15.4625   1.4840   112.9150
 39      0.0000     0.0000E+00    0.0000E+00    1.445000E+07  0.02000  7.663E-03    0   0.8472   age078_m62            0.0000     1.4661E-04    13.0408   1.6548   113.0614
 40      0.0000     0.0000E+00    0.0000E+00    2.512000E+07  0.02000  4.532E-03    0   0.8099   age090_m62            0.0000     1.4306E-04    13.1925   1.6393   113.0049
 41      0.0000     0.0000E+00    0.0000E+00    5.500000E+07  0.02000  2.733E-03    0   0.7595   age110_m62            0.0000     1.1404E-04    11.5411   1.6357   113.6414
 42      0.0000     0.0000E+00    0.0000E+00    1.609000E+08  0.02000  1.369E-03    0   0.6985   age120_m62            0.0000     9.2420E-05    10.7805   1.4626   116.9681
 43      0.0000     0.0000E+00    0.0000E+00    2.861200E+08  0.02000  9.013E-04    0   0.6714   age125_m62            0.0000     8.3227E-05    10.5148   1.2173   119.9229
 44      0.0000     0.0000E+00    0.0000E+00    5.088000E+08  0.02000  5.028E-04    0   0.6449   age130_m62            0.0000     7.4886E-05     9.6386   0.8460   122.4460
 45      0.0000     0.0000E+00    0.0000E+00    9.047900E+08  0.02000  2.428E-04    0   0.6179   age135_m62            0.0000     6.4708E-05     8.7297   0.2592   121.5953
 46      0.0000     0.0000E+00    0.0000E+00    1.434000E+09  0.02000  1.263E-04    0   0.5908   age139_m62            0.0000     5.9918E-05     8.0769  -0.1904   120.0464
 47      5.7162     1.1041E+00    1.2268E+00    2.500000E+09  0.02000  5.985E-05    0   0.5673   age150_m62            0.0000     5.3393E-05     7.0872  -0.5693   118.8766
 48      0.0000     0.0000E+00    0.0000E+00    4.250000E+09  0.02000  3.271E-05    0   0.5468   age158_m62            0.0000     4.3012E-05     6.1074  -0.8940   118.5758
 49     37.5397     3.1909E+01    3.2294E+01    1.000000E+10  0.02000  1.360E-05    0   0.5167   age181_m62            0.0000     4.4471E-05     9.2794  -1.0000   111.0789
 50     35.1599     5.7054E+01    5.6021E+01    1.800000E+10  0.02000  7.124E-06    0   0.5013   age213_m62            0.0000     6.4894E-05    13.0392  -1.0000   103.8927
 51      0.0000     0.0000E+00    0.0000E+00    1.000000E+06  0.05000  2.592E-02    0   0.9998   age020_m72            0.0000     1.5453E-04    10.1323   2.8603   103.4036
 52      0.0000     0.0000E+00    0.0000E+00    3.160000E+06  0.05000  4.845E-02    0   0.9577   age045_m72            0.0000     1.3161E-04     9.6385   2.6689   106.3968
 53      0.0000     0.0000E+00    0.0000E+00    5.010000E+06  0.05000  3.072E-02    0   0.9147   age055_m72            0.0000     1.4508E-04    11.7321   2.2107   109.8413
 54      0.0000     0.0000E+00    0.0000E+00    6.610000E+06  0.05000  1.455E-02    0   0.8877   age061_m72            0.0000     2.1878E-04    17.4343   1.5123   113.6358
 55      0.0000     0.0000E+00    0.0000E+00    1.000000E+07  0.05000  9.074E-03    0   0.8524   age070_m72            0.0000     1.5110E-04    12.0207   2.3711   109.7971
 56      0.0000     0.0000E+00    0.0000E+00    2.512000E+07  0.05000  4.250E-03    0   0.7902   age090_m72            0.0000     1.3061E-04    11.9974   2.0820   111.7199
 57      0.0000     0.0000E+00    0.0000E+00    4.000000E+07  0.05000  3.087E-03    0   0.7618   age104_m72            0.0000     1.2602E-04    12.3152   1.8572   113.4087
 58      0.0000     0.0000E+00    0.0000E+00    1.015200E+08  0.05000  1.700E-03    0   0.7096   age116_m72            0.0000     9.8795E-05    11.2876   1.6037   116.5183
 59      5.2440     8.2099E-02    1.0666E-01    2.861200E+08  0.05000  7.384E-04    0   0.6633   age125_m72            0.0000     7.6082E-05     9.9744   1.0829   121.5030
 60      9.5566     2.8928E-01    3.6104E-01    5.088000E+08  0.05000  3.819E-04    0   0.6372   age130_m72            0.0000     6.5238E-05     8.8560   0.5914   123.2956
 61      5.6105     3.8698E-01    4.6313E-01    9.047900E+08  0.05000  1.676E-04    0   0.6110   age135_m72            0.0000     5.4050E-05     7.2372  -0.1149   121.4260
 62      0.0000     0.0000E+00    0.0000E+00    1.434000E+09  0.05000  8.837E-05    0   0.5874   age139_m72            0.0000     5.0634E-05     6.9414  -0.5766   120.8376
 63     14.6764     4.0080E+00    4.3947E+00    2.500000E+09  0.05000  4.233E-05    0   0.5598   age150_m72            0.0000     4.3117E-05     5.8993  -0.8990   119.7243
 64      0.0000     0.0000E+00    0.0000E+00    6.250000E+09  0.05000  1.435E-05    0   0.5249   age166_m72            0.0000     5.4421E-05    11.0436  -1.0000   107.7337
 65      0.0000     0.0000E+00    0.0000E+00    1.300000E+10  0.05000  6.513E-06    0   0.5036   age193_m72            0.0000     9.4421E-05    16.3169  -1.0000   100.0257
 66      1.2795     3.2673E+00    3.1646E+00    1.800000E+10  0.05000  4.527E-06    0   0.4945   age213_m72            0.0000     1.3049E-04    19.3015  -1.0000    94.6477


## Synthesis Results - Average & Chains ##

# j      x_j: min, <> & last-chain-values for 1 ...  7 chains
  1      0.0000      0.2874      0.4871      0.2526      0.0000      0.2439      0.0556      0.2691      0.0000
  2      0.0000      0.2127      0.4135      0.2565      0.0194      0.0990      0.1034      0.0000      0.1714
  3      0.0000      0.2169      0.3970      0.1370      0.0189      0.0156      0.3287      0.0000      0.2085
  4      0.0000      0.1838      0.1357      0.1463      0.2399      0.2874      0.0067      0.6092      0.0138
  5      0.0000      0.2807      0.1379      0.2462      0.2728      0.1154      0.1214      0.1373      0.2640
  6      0.0000      0.2069      0.0622      0.0647      0.0000      0.6355      0.1001      0.0493      0.2006
  7      0.0000      0.2084      0.0000      0.0104      0.1435      0.0000      0.3116      0.1864      0.0085
  8      0.0000      0.2115      0.0000      0.2510      0.1174      0.1047      0.1566      0.0000      0.2241
  9      0.0000      0.2299      0.4200      0.3151      0.1178      0.0000      0.1968      0.4038      0.5349
 10      0.0000      0.2102      0.0000      0.1735      0.2649      0.2579      0.3066      0.0618      0.1131
 11      0.0000      0.1679      0.1193      0.0608      0.1884      0.2288      0.2084      0.2577      0.2469
 12      0.0000      0.3579      0.6804      0.3519      0.3596      0.3820      0.1766      0.2276      0.1681
 13      0.0000      0.2332      0.1965      0.1654      0.3217      0.1756      0.3550      0.3039      0.0492
 14      0.0000      0.1470      0.0000      0.0000      0.2133      0.2297      0.0388      0.2816      0.2493
 15      0.0000      0.2596      0.3407      0.1507      0.0371      0.3155      0.1262      0.2167      0.2226
 16      0.3118      0.2446      0.1437      0.3321      0.0234      0.0000      0.3537      0.2750      0.2676
 17      0.0000      0.2509      0.0122      0.2882      0.1703      0.0000      0.2795      0.0000      0.4919
 18      0.0000      0.2446      0.2268      0.2425      0.3786      0.1900      0.3533      0.0000      0.0000
 19      0.0000      0.1760      0.0000      0.0400      0.0264      0.1220      0.1824      0.1116      0.1008
 20      0.0000      0.2559      0.1292      0.2231      0.2047      0.1521      0.0954      0.2164      0.2821
 21      0.0000      0.2818      0.0000      0.4095      0.0685      0.1829      0.0591      0.0912      0.1171
 22      0.0000      0.1572      0.0000      0.0013      0.0793      0.0000      0.0000      0.0363      0.1022
 23      0.0000      0.1836      0.0000      0.1793      0.2526      0.2821      0.0414      0.1104      0.0773
 24      0.0000      0.1470      0.2672      0.0312      0.0000      0.1371      0.1883      0.0923      0.0508
 25      0.0000      0.2244      0.0000      0.0299      0.0953      0.3672      0.5510      0.0775      0.1104
 26      0.0000      0.2032      0.0000      0.2470      0.2711      0.3522      0.1437      0.3512      0.0000
 27      0.0000      0.1876      0.3184      0.0776      0.2281      0.3826      0.0749      0.2379      0.1966
 28      0.0000      0.1618      0.1537      0.0730      0.1425      0.6088      0.0000      0.0867      0.1780
 29      0.0000      0.2231      0.5733      0.0530      0.0706      0.0786      0.2436      0.3052      0.3475
 30      0.0000      0.2175      0.0000      0.1262      0.1079      0.0000      0.1115      0.4416      0.0001
 31      0.0000      0.1882      0.1225      0.0582      0.0969      0.0000      0.5313      0.0365      0.1099
 32      4.6979      0.1691      0.0193      0.0000      0.1333      0.0000      0.0462      0.0744      0.1624
 33      0.0000      0.2040      0.1029      0.0269      0.0000      0.0000      0.0311      0.0309      0.0859
 34      0.0000      0.2221      0.2746      0.0386      0.1985      0.2518      0.3266      0.1367      0.1255
 35      0.0000      0.2814      0.4797      0.2222      0.2733      0.2720      0.0667      0.1412      0.0887
 36      0.0000      0.2627      0.0904      0.1096      0.0353      0.1771      0.1485      0.5793      0.0317
 37      0.0000      0.1719      0.1311      0.1991      0.0517      0.1906      0.0920      0.3322      0.0118
 38      0.0000      0.2372      0.1720      0.2320      0.0437      0.4565      0.0634      0.2481      0.4075
 39      0.0000      0.1553      0.1401      0.0108      0.1618      0.4078      0.2695      0.1124      0.1121
 40      0.0000      0.1821      0.7300      0.1120      0.1288      0.0000      0.0000      0.0553      0.2430
 41      0.0000      0.1804      0.2083      0.1092      0.0228      0.0317      0.2424      0.1115      0.5330
 42      0.0000      0.2165      0.3717      0.0647      0.0474      0.0000      0.0955      0.0000      0.0812
 43      0.0000      0.2475      0.2372      0.0349      0.2943      0.3666      0.1002      0.0000      0.1167
 44      0.0000     14.9332     14.9040     15.5584     15.5347     14.6858     14.8524     15.6270     15.4389
 45      0.0000      0.1784      0.1572      0.0365      0.2060      0.2017      0.0000      0.0000      0.3668
 46      0.0000      0.2328      0.0475      0.0123      0.0504      0.1732      0.1377      0.0000      0.2252
