###################################################################
## OUTPUT of StarlightChains_v04.for    [Cid@UFSC - 01/Apr/2007] ##
###################################################################

## Some input info
KUG0210-078._35_31.txt                   [arq_obs]
Base.CB07.vall.4m                        [arq_base]
Masks.EmLines.NEW.gm                     [arq_masks]
StCv04.C11.config                        [arq_config]
   66                                    [N_base]
    0                                    [N_YAV_components = # of components with extra extinction!]
    0                                    [i_FitPowerLaw (1/0 = Yes/No)]
-9.99                                    [alpha_PowerLaw]
CCM                                      [red_law_option]
 1.458241                                [q_norm = A(l_norm)/A(V)]

## (Re)Sampling Parameters
 3741.00                                 [l_ini (A)]
 7218.00                                 [l_fin (A)]
    1.00                                 [dl    (A)]     (OBS: dl_cushion =    50.00 A)

## Normalization info
 4020.00                                 [l_norm (A) - for base]
 4010.00                                 [llow_norm (A) - window for f_obs]
 4060.00                                 [lupp_norm (A) - window for f_obs]
4.966102E-17                             [fobs_norm (in input units)]

## S/N
 3691.00                                 [llow_SN (A) - window for S/N]
 7268.00                                 [lupp_SN (A) - window for S/N]
   3.659                                 [S/N in S/N window]
   2.699                                 [S/N in norm. window]
   0.117                                 [S/N_err in S/N window]
   0.087                                 [S/N_err in norm. window]
  1.0000                                 [fscale_chi2]

## etc...
    -2007566                             [idum_orig]
  2429                                   [NOl_eff]
  2361                                   [Nl_eff]
    68    NSIGMA                         [Ntot_cliped & clip_method]
  9978780                                [Nglobal_steps]
   7                                     [N_chains]
   9                                     [NEX0s_base = N_base in EX0s-fits]
 0   0   1       68   2.0   1.750E+04    [Clip-Bug, RC-Crash & Burn-In warning-flags, n_censored_weights, wei_nsig_threshold & wei_limit]
    58     56.909     56.298      0.612  [idt_all, wdt_TotTime, wdt_UsrTime & wdt_SysTime (sec)]

## Synthesis Results - Best model ##

 2.03219E-04                             [chi2/Nl_eff]
    12.59019                             [adev (%)]

   130.00000                             [sum-of-x (%)]
 1.68524E-17                             [Flux_tot (units of input spectrum!)]
 3.02361E-12                             [Mini_tot (???)]
 1.50346E-12                             [Mcor_tot (???)]

 -53.17                                  [v0_min  (km/s)]
 267.54                                  [vd_min  (km/s)]
-1.0000                                  [AV_min  (mag)]
 0.0000                                  [YAV_min (mag)]

# j     x_j(%)      Mini_j(%)     Mcor_j(%)     age_j(yr)     Z_j      (L/M)_j    YAV?  Mstars   component_j        a/Fe...       SSP_chi2r SSP_adev(%)   SSP_AV   SSP_x(%)
  1      0.0000     0.0000E+00    0.0000E+00    1.000000E+06  0.00400  1.094E-02    0   1.0000   age020_m42            0.0000     1.0191E-03    26.5850   3.5254   108.3122
  2      0.0000     0.0000E+00    0.0000E+00    3.160000E+06  0.00400  4.007E-02    0   0.9999   age045_m42            0.0000     9.3954E-04    25.5818   2.7968   115.7249
  3      0.0000     0.0000E+00    0.0000E+00    5.010000E+06  0.00400  2.539E-02    0   0.9488   age055_m42            0.0000     9.8651E-04    26.1276   3.1226   112.6698
  4      0.0000     0.0000E+00    0.0000E+00    6.610000E+06  0.00400  2.620E-02    0   0.9220   age061_m42            0.0000     9.5477E-04    25.7360   2.7288   115.6509
  5      0.0000     0.0000E+00    0.0000E+00    1.000000E+07  0.00400  1.322E-02    0   0.8862   age070_m42            0.0000     1.0804E-03    27.7636   2.4583   117.1879
  6      0.0000     0.0000E+00    0.0000E+00    1.445000E+07  0.00400  7.883E-03    0   0.8571   age078_m42            0.0000     1.0896E-03    27.7932   2.7827   114.3898
  7      0.0000     0.0000E+00    0.0000E+00    2.512000E+07  0.00400  5.251E-03    0   0.8174   age090_m42            0.0000     1.0991E-03    28.0834   2.3296   117.7281
  8      0.0000     0.0000E+00    0.0000E+00    4.000000E+07  0.00400  3.649E-03    0   0.7851   age104_m42            0.0000     1.0613E-03    27.6197   2.0984   118.9649
  9      0.0000     0.0000E+00    0.0000E+00    5.500000E+07  0.00400  3.098E-03    0   0.7629   age110_m42            0.0000     9.9350E-04    26.5203   2.2455   119.4107
 10      0.0000     0.0000E+00    0.0000E+00    1.015200E+08  0.00400  2.228E-03    0   0.7207   age116_m42            0.0000     9.5146E-04    25.7784   2.2624   119.8569
 11      0.0000     0.0000E+00    0.0000E+00    2.861200E+08  0.00400  1.093E-03    0   0.6648   age125_m42            0.0000     9.7530E-04    26.1417   1.6864   123.3049
 12      0.0000     0.0000E+00    0.0000E+00    5.088000E+08  0.00400  6.597E-04    0   0.6365   age130_m42            0.0000     8.8251E-04    24.7232   1.6667   125.1206
 13      0.0000     0.0000E+00    0.0000E+00    1.434000E+09  0.00400  2.132E-04    0   0.5798   age139_m42            0.0000     7.4270E-04    23.2332   0.6846   128.6859
 14      0.0000     0.0000E+00    0.0000E+00    4.250000E+09  0.00400  5.895E-05    0   0.5377   age158_m42            0.0000     6.3040E-04    21.4195   0.2282   124.9841
 15      0.0000     0.0000E+00    0.0000E+00    7.500000E+09  0.00400  3.510E-05    0   0.5212   age171_m42            0.0000     5.7704E-04    20.4489   0.0291   124.8237
 16      0.0000     0.0000E+00    0.0000E+00    1.300000E+10  0.00400  2.005E-05    0   0.5034   age193_m42            0.0000     5.3433E-04    19.5790  -0.1478   124.7947
 17      0.0000     0.0000E+00    0.0000E+00    1.800000E+10  0.00400  1.525E-05    0   0.4967   age213_m42            0.0000     5.4656E-04    19.7992  -0.1696   124.1492
 18      0.0000     0.0000E+00    0.0000E+00    1.000000E+06  0.00800  1.238E-02    0   1.0000   age020_m52            0.0000     1.0201E-03    26.5911   3.5218   108.5218
 19      0.0000     0.0000E+00    0.0000E+00    3.160000E+06  0.00800  3.074E-02    0   0.9966   age045_m52            0.0000     1.0141E-03    26.5091   3.4487   109.3641
 20      0.0000     0.0000E+00    0.0000E+00    5.010000E+06  0.00800  2.668E-02    0   0.9443   age055_m52            0.0000     1.0025E-03    26.3713   3.2077   111.5628
 21      0.0000     0.0000E+00    0.0000E+00    6.610000E+06  0.00800  2.136E-02    0   0.9177   age061_m52            0.0000     1.0144E-03    27.2372   1.9527   119.1330
 22      0.0000     0.0000E+00    0.0000E+00    1.000000E+07  0.00800  1.215E-02    0   0.8827   age070_m52            0.0000     1.1374E-03    28.5368   2.6379   116.7165
 23      0.0000     0.0000E+00    0.0000E+00    1.445000E+07  0.00800  8.717E-03    0   0.8552   age078_m52            0.0000     1.0863E-03    27.8188   2.7480   115.9674
 24      0.0000     0.0000E+00    0.0000E+00    2.512000E+07  0.00800  5.592E-03    0   0.8162   age090_m52            0.0000     1.1045E-03    28.1773   2.3903   119.1632
 25      0.0000     0.0000E+00    0.0000E+00    4.000000E+07  0.00800  3.896E-03    0   0.7841   age104_m52            0.0000     1.0569E-03    27.5132   2.2980   120.3473
 26      0.0000     0.0000E+00    0.0000E+00    1.015200E+08  0.00800  2.148E-03    0   0.7226   age116_m52            0.0000     9.7845E-04    26.2979   2.2336   120.4939
 27      0.0000     0.0000E+00    0.0000E+00    2.861200E+08  0.00800  9.925E-04    0   0.6683   age125_m52            0.0000     8.8238E-04    24.7465   1.7316   126.2608
 28      0.0000     0.0000E+00    0.0000E+00    9.047900E+08  0.00800  3.141E-04    0   0.6138   age135_m52            0.0000     6.7962E-04    22.0045   0.8988   133.8378
 29      0.0000     0.0000E+00    0.0000E+00    1.434000E+09  0.00800  1.719E-04    0   0.5853   age139_m52            0.0000     6.5444E-04    21.8384   0.3180   131.2032
 30      0.0000     0.0000E+00    0.0000E+00    2.500000E+09  0.00800  7.872E-05    0   0.5600   age150_m52            0.0000     5.3781E-04    19.8781   0.0383   128.8885
 31      0.0000     0.0000E+00    0.0000E+00    4.250000E+09  0.00800  4.336E-05    0   0.5426   age158_m52            0.0000     5.3150E-04    19.6999   0.0209   127.8387
 32      0.0000     0.0000E+00    0.0000E+00    6.250000E+09  0.00800  3.159E-05    0   0.5319   age166_m52            0.0000     4.6238E-04    18.3428  -0.1961   128.7639
 33      0.0000     0.0000E+00    0.0000E+00    1.300000E+10  0.00800  1.361E-05    0   0.5073   age193_m52            0.0000     3.7808E-04    16.5277  -0.6850   129.2417
 34      0.0000     0.0000E+00    0.0000E+00    1.800000E+10  0.00800  9.886E-06    0   0.4990   age213_m52            0.0000     3.2124E-04    15.1505  -0.8103   129.6365
 35      0.0000     0.0000E+00    0.0000E+00    1.000000E+06  0.02000  1.544E-02    0   1.0000   age020_m62            0.0000     1.0247E-03    26.6514   3.5204   108.6778
 36      0.0000     0.0000E+00    0.0000E+00    3.160000E+06  0.02000  3.762E-02    0   0.9858   age045_m62            0.0000     1.0240E-03    26.5816   3.4582   109.6760
 37      0.0000     0.0000E+00    0.0000E+00    5.010000E+06  0.02000  3.296E-02    0   0.9342   age055_m62            0.0000     9.6294E-04    25.7590   3.0835   114.0379
 38      0.0000     0.0000E+00    0.0000E+00    8.710000E+06  0.02000  1.154E-02    0   0.8861   age067_m62            0.0000     1.4670E-03    32.9685   2.0961   118.6510
 39      0.0000     0.0000E+00    0.0000E+00    1.445000E+07  0.02000  7.663E-03    0   0.8472   age078_m62            0.0000     1.2128E-03    29.7122   2.2779   119.2854
 40      0.0000     0.0000E+00    0.0000E+00    2.512000E+07  0.02000  4.532E-03    0   0.8099   age090_m62            0.0000     1.2375E-03    29.9587   2.2728   118.6651
 41      0.0000     0.0000E+00    0.0000E+00    5.500000E+07  0.02000  2.733E-03    0   0.7595   age110_m62            0.0000     1.0616E-03    27.5891   2.2852   119.3000
 42      0.0000     0.0000E+00    0.0000E+00    1.609000E+08  0.02000  1.369E-03    0   0.6985   age120_m62            0.0000     9.5161E-04    25.8113   2.1130   123.2875
 43      0.0000     0.0000E+00    0.0000E+00    2.861200E+08  0.02000  9.013E-04    0   0.6714   age125_m62            0.0000     8.7112E-04    24.6167   1.8499   127.6774
 44      0.0000     0.0000E+00    0.0000E+00    5.088000E+08  0.02000  5.028E-04    0   0.6449   age130_m62            0.0000     7.1189E-04    22.2718   1.4429   133.0480
 45      0.0000     0.0000E+00    0.0000E+00    9.047900E+08  0.02000  2.428E-04    0   0.6179   age135_m62            0.0000     6.0378E-04    20.9472   0.8413   133.3639
 46      0.0000     0.0000E+00    0.0000E+00    1.434000E+09  0.02000  1.263E-04    0   0.5908   age139_m62            0.0000     5.5719E-04    20.2690   0.3920   131.8933
 47      0.0000     0.0000E+00    0.0000E+00    2.500000E+09  0.02000  5.985E-05    0   0.5673   age150_m62            0.0000     4.6847E-04    18.5388   0.0093   131.3019
 48      0.0000     0.0000E+00    0.0000E+00    4.250000E+09  0.02000  3.271E-05    0   0.5468   age158_m62            0.0000     3.7130E-04    16.4715  -0.3188   131.6777
 49      0.0000     0.0000E+00    0.0000E+00    1.000000E+10  0.02000  1.360E-05    0   0.5167   age181_m62            0.0000     2.7563E-04    14.1309  -0.6993   133.0603
 50     66.9647     4.0301E+01    4.0630E+01    1.800000E+10  0.02000  7.124E-06    0   0.5013   age213_m62            0.0000     2.1934E-04    12.5103  -0.9330   133.3984
 51      0.0000     0.0000E+00    0.0000E+00    1.000000E+06  0.05000  2.592E-02    0   0.9998   age020_m72            0.0000     1.0405E-03    26.8776   3.5144   108.5986
 52      0.0000     0.0000E+00    0.0000E+00    3.160000E+06  0.05000  4.845E-02    0   0.9577   age045_m72            0.0000     9.9496E-04    26.1635   3.3445   110.9876
 53      0.0000     0.0000E+00    0.0000E+00    5.010000E+06  0.05000  3.072E-02    0   0.9147   age055_m72            0.0000     1.1556E-03    28.6007   2.8530   115.3136
 54      0.0000     0.0000E+00    0.0000E+00    6.610000E+06  0.05000  1.455E-02    0   0.8877   age061_m72            0.0000     1.7196E-03    35.2451   2.1080   119.4652
 55      0.0000     0.0000E+00    0.0000E+00    1.000000E+07  0.05000  9.074E-03    0   0.8524   age070_m72            0.0000     1.2093E-03    28.8875   3.0074   115.4126
 56      0.0000     0.0000E+00    0.0000E+00    2.512000E+07  0.05000  4.250E-03    0   0.7902   age090_m72            0.0000     1.1594E-03    28.5032   2.7288   117.0619
 57      0.0000     0.0000E+00    0.0000E+00    4.000000E+07  0.05000  3.087E-03    0   0.7618   age104_m72            0.0000     1.1717E-03    28.6907   2.5049   118.7448
 58      0.0000     0.0000E+00    0.0000E+00    1.015200E+08  0.05000  1.700E-03    0   0.7096   age116_m72            0.0000     1.0180E-03    26.6853   2.2564   122.3992
 59      0.0000     0.0000E+00    0.0000E+00    2.861200E+08  0.05000  7.384E-04    0   0.6633   age125_m72            0.0000     7.8310E-04    23.4147   1.7020   130.4906
 60      0.0000     0.0000E+00    0.0000E+00    5.088000E+08  0.05000  3.819E-04    0   0.6372   age130_m72            0.0000     6.3283E-04    21.4190   1.1907   134.2059
 61      0.0000     0.0000E+00    0.0000E+00    9.047900E+08  0.05000  1.676E-04    0   0.6110   age135_m72            0.0000     4.8254E-04    18.9753   0.4722   133.6293
 62      0.0000     0.0000E+00    0.0000E+00    1.434000E+09  0.05000  8.837E-05    0   0.5874   age139_m72            0.0000     4.4889E-04    18.1835   0.0005   133.6924
 63      0.0000     0.0000E+00    0.0000E+00    2.500000E+09  0.05000  4.233E-05    0   0.5598   age150_m72            0.0000     3.4005E-04    15.7757  -0.3324   133.6135
 64      0.0000     0.0000E+00    0.0000E+00    6.250000E+09  0.05000  1.435E-05    0   0.5249   age166_m72            0.0000     2.5467E-04    13.7051  -0.8053   133.0922
 65      0.0000     0.0000E+00    0.0000E+00    1.300000E+10  0.05000  6.513E-06    0   0.5036   age193_m72            0.0000     2.0515E-04    12.7752  -1.0000   131.2707
 66     63.0353     5.9699E+01    5.9370E+01    1.800000E+10  0.05000  4.527E-06    0   0.4945   age213_m72            0.0000     2.2983E-04    13.7906  -1.0000   124.4516


## Synthesis Results - Average & Chains ##

# j      x_j: min, <> & last-chain-values for 1 ...  7 chains
  1      0.0000      0.6544      0.0688      0.0000      0.0000      0.0000      0.0000      0.0173      0.8850
  2      0.0000      0.8338      0.0425      0.0000      0.7067      0.3490      0.2061      0.7588      0.0000
  3      0.0000      0.7162      0.0000      0.0000      0.3030      0.2636      0.2806      0.0000      0.4196
  4      0.0000      0.5713      0.2758      0.0000      0.9889      0.0000      0.4514      1.0844      0.0000
  5      0.0000      0.6462      0.4904      0.0197      0.1476      0.3488      0.0000      0.2459      1.0999
  6      0.0000      0.4553      0.0832      0.0140      0.0000      0.5039      0.0637      0.0000      0.0518
  7      0.0000      0.5894      0.0000      0.2360      0.7863      0.0065      0.0228      0.1241      0.0907
  8      0.0000      0.4347      0.0963      0.1537      0.2419      0.1445      0.0000      0.4238      0.4854
  9      0.0000      0.6535      0.0000      0.0204      0.0000      0.0404      0.2454      0.0339      0.1654
 10      0.0000      0.5948      0.5144      0.0577      0.3895      0.0000      0.1862      0.0166      0.0513
 11      0.0000      0.3690      0.1264      0.0000      0.0000      0.3054      0.0000      0.0000      0.0000
 12      0.0000      0.4915      0.3694      0.0483      0.2834      0.1652      0.2224      0.7730      0.1844
 13      0.0000      0.5480      0.2423      0.0000      0.0451      0.0215      0.0000      0.2304      0.4189
 14      0.0000      0.4736      0.0548      0.0000      0.2799      0.0943      0.2128      0.0000      0.0000
 15      0.0000      0.5500      0.0000      0.6328      0.1810      0.3691      0.1378      0.2468      0.0000
 16      0.0000      0.6558      0.0000      0.0000      0.3238      0.8536      0.1975      0.0562      0.5403
 17      0.0000      0.4409      0.2457      0.0265      0.0201      0.0766      0.1786      0.0000      0.4643
 18      0.0000      0.6028      0.0000      0.1668      0.0281      0.0228      0.0175      0.4030      0.0000
 19      0.0000      0.5660      0.0000      0.1193      0.0822      0.3060      0.0000      0.2734      0.0000
 20      0.0000      0.4119      0.0000      0.0407      0.2061      0.6015      0.2813      0.0589      0.0000
 21      0.0000      0.5317      0.5919      0.0464      0.3041      0.5529      0.1850      0.2822      0.0000
 22      0.0000      0.6490      0.0763      0.0000      0.2795      0.2679      0.6318      0.1237      0.1952
 23      0.0000      0.4189      0.1888      0.1594      0.1355      0.1517      0.3762      0.8869      0.0000
 24      0.0000      0.4180      0.0351      0.0445      0.1010      0.0000      0.2615      0.1298      0.7679
 25      0.0000      0.4623      0.0000      0.0000      0.1316      0.0290      0.0071      0.6727      0.0308
 26      0.0000      0.3911      0.0000      0.0000      0.0323      0.0665      0.0000      0.5914      0.0000
 27      0.0000      0.6094      0.1203      0.0000      1.0179      0.2875      0.5471      0.0348      0.2729
 28      0.0000      0.6476      0.7820      0.0412      0.4609      0.5076      0.0342      0.0000      0.2233
 29      0.0000      0.5937      0.1074      0.1100      0.0000      0.0885      0.1235      0.0000      0.2636
 30      0.0000      0.5338      0.1241      0.0640      0.1294      0.2850      0.3600      0.4624      0.2722
 31      0.0000      0.6908      0.0000      0.0000      0.2530      0.0034      0.0000      0.0590      0.0205
 32      0.0000      0.5048      0.0700      0.1687      0.2636      0.0000      0.0007      0.0000      0.0040
 33      0.0000      0.5726      0.8594      0.0000      0.0000      0.3683      0.4102      0.1473      0.0265
 34      0.0000      0.6347      0.0000      0.0717      0.0000      0.1529      0.6949      0.2340      0.6030
 35      0.0000      0.5202      0.0000      0.0434      0.0114      0.0000      0.2135      0.0467      0.0208
 36      0.0000      0.6519      0.1582      0.0000      0.3066      0.0000      0.3307      0.4056      0.1593
 37      0.0000      0.5236      0.0454      0.1494      0.0000      0.0000      0.1985      0.0000      0.2128
 38      0.0000      0.4455      0.0549      0.1005      0.0000      0.1991      0.1536      0.2651      0.0029
 39      0.0000      0.6356      0.0000      0.0265      0.0491      0.4320      0.0000      0.0000      0.9197
 40      0.0000      0.7253      0.0000      0.0584      0.0000      0.2498      0.3284      0.0000      0.0000
 41      0.0000      0.5334      0.1164      0.0112      0.0000      0.0842      0.3236      0.4200      0.0879
 42      0.0000      0.7411      0.0000      0.0000      0.4878      0.3060      0.2860      0.0000      0.0000
 43      0.0000      0.5892      0.4859      0.0742      0.3598      0.0712      0.1109      0.8250      0.4297
 44      0.0000      0.4799      0.9690      0.2689      0.1100      0.3671      0.4970      0.0856      0.0113
 45      0.0000      0.6378      0.2480      0.0000      0.3844      0.2598      0.0000      0.2917      0.0548
 46      0.0000      0.6711      0.8510      0.0000      0.0623      0.5982      0.1941      0.0000      0.3251
