###################################################################
## OUTPUT of StarlightChains_v04.for    [Cid@UFSC - 01/Apr/2007] ##
###################################################################

## Some input info
KUG0210-078._34_32.txt                   [arq_obs]
Base.CB07.vall.4m                        [arq_base]
Masks.EmLines.NEW.gm                     [arq_masks]
StCv04.C11.config                        [arq_config]
   66                                    [N_base]
    0                                    [N_YAV_components = # of components with extra extinction!]
    0                                    [i_FitPowerLaw (1/0 = Yes/No)]
-9.99                                    [alpha_PowerLaw]
CCM                                      [red_law_option]
 1.458241                                [q_norm = A(l_norm)/A(V)]

## (Re)Sampling Parameters
 3741.00                                 [l_ini (A)]
 7218.00                                 [l_fin (A)]
    1.00                                 [dl    (A)]     (OBS: dl_cushion =    50.00 A)

## Normalization info
 4020.00                                 [l_norm (A) - for base]
 4010.00                                 [llow_norm (A) - window for f_obs]
 4060.00                                 [lupp_norm (A) - window for f_obs]
8.082051E-17                             [fobs_norm (in input units)]

## S/N
 3691.00                                 [llow_SN (A) - window for S/N]
 7268.00                                 [lupp_SN (A) - window for S/N]
   4.490                                 [S/N in S/N window]
   4.064                                 [S/N in norm. window]
   0.135                                 [S/N_err in S/N window]
   0.122                                 [S/N_err in norm. window]
  1.0000                                 [fscale_chi2]

## etc...
    -2007537                             [idum_orig]
  2432                                   [NOl_eff]
  2298                                   [Nl_eff]
   134    NSIGMA                         [Ntot_cliped & clip_method]
 10851260                                [Nglobal_steps]
   7                                     [N_chains]
   8                                     [NEX0s_base = N_base in EX0s-fits]
 0   0   1      134   2.0   4.069E+04    [Clip-Bug, RC-Crash & Burn-In warning-flags, n_censored_weights, wei_nsig_threshold & wei_limit]
    71     70.386     69.823      0.563  [idt_all, wdt_TotTime, wdt_UsrTime & wdt_SysTime (sec)]

## Synthesis Results - Best model ##

 9.75032E-05                             [chi2/Nl_eff]
     4.49967                             [adev (%)]

   112.92581                             [sum-of-x (%)]
 2.38242E-17                             [Flux_tot (units of input spectrum!)]
 2.18175E-12                             [Mini_tot (???)]
 1.12486E-12                             [Mcor_tot (???)]

 -83.99                                  [v0_min  (km/s)]
 175.29                                  [vd_min  (km/s)]
-1.0000                                  [AV_min  (mag)]
 0.0000                                  [YAV_min (mag)]

# j     x_j(%)      Mini_j(%)     Mcor_j(%)     age_j(yr)     Z_j      (L/M)_j    YAV?  Mstars   component_j        a/Fe...       SSP_chi2r SSP_adev(%)   SSP_AV   SSP_x(%)
  1      0.0000     0.0000E+00    0.0000E+00    1.000000E+06  0.00400  1.094E-02    0   1.0000   age020_m42            0.0000     8.3384E-04    11.4326   3.3518    94.4073
  2      0.0000     0.0000E+00    0.0000E+00    3.160000E+06  0.00400  4.007E-02    0   0.9999   age045_m42            0.0000     8.0188E-04    11.6945   2.6680    98.8473
  3      0.0000     0.0000E+00    0.0000E+00    5.010000E+06  0.00400  2.539E-02    0   0.9488   age055_m42            0.0000     8.3836E-04    11.7598   2.9786    96.9247
  4      0.0000     0.0000E+00    0.0000E+00    6.610000E+06  0.00400  2.620E-02    0   0.9220   age061_m42            0.0000     8.3034E-04    11.9883   2.6054    98.5444
  5      0.0000     0.0000E+00    0.0000E+00    1.000000E+07  0.00400  1.322E-02    0   0.8862   age070_m42            0.0000     9.5708E-04    13.5355   2.3428    99.6907
  6      0.0000     0.0000E+00    0.0000E+00    1.445000E+07  0.00400  7.883E-03    0   0.8571   age078_m42            0.0000     9.5538E-04    13.2726   2.6548    97.8547
  7      0.0000     0.0000E+00    0.0000E+00    2.512000E+07  0.00400  5.251E-03    0   0.8174   age090_m42            0.0000     9.8312E-04    13.9175   2.2195    99.9357
  8      0.0000     0.0000E+00    0.0000E+00    4.000000E+07  0.00400  3.649E-03    0   0.7851   age104_m42            0.0000     9.4966E-04    13.7402   1.9947   100.6618
  9      0.0000     0.0000E+00    0.0000E+00    5.500000E+07  0.00400  3.098E-03    0   0.7629   age110_m42            0.0000     8.9753E-04    13.1435   2.1486   100.6444
 10      0.0000     0.0000E+00    0.0000E+00    1.015200E+08  0.00400  2.228E-03    0   0.7207   age116_m42            0.0000     8.6571E-04    12.7936   2.1715   100.7110
 11      0.0000     0.0000E+00    0.0000E+00    2.861200E+08  0.00400  1.093E-03    0   0.6648   age125_m42            0.0000     8.7115E-04    13.2402   1.5995   103.4640
 12      0.0000     0.0000E+00    0.0000E+00    5.088000E+08  0.00400  6.597E-04    0   0.6365   age130_m42            0.0000     7.8644E-04    12.4532   1.5868   104.5621
 13      0.0000     0.0000E+00    0.0000E+00    1.434000E+09  0.00400  2.132E-04    0   0.5798   age139_m42            0.0000     5.9466E-04    11.3021   0.5919   108.0186
 14      0.0000     0.0000E+00    0.0000E+00    4.250000E+09  0.00400  5.895E-05    0   0.5377   age158_m42            0.0000     4.1313E-04     8.8830   0.0922   106.7815
 15      0.0000     0.0000E+00    0.0000E+00    7.500000E+09  0.00400  3.510E-05    0   0.5212   age171_m42            0.0000     3.5061E-04     8.0663  -0.1155   106.9515
 16      0.0000     0.0000E+00    0.0000E+00    1.300000E+10  0.00400  2.005E-05    0   0.5034   age193_m42            0.0000     2.9732E-04     7.3936  -0.3021   107.2812
 17      0.0000     0.0000E+00    0.0000E+00    1.800000E+10  0.00400  1.525E-05    0   0.4967   age213_m42            0.0000     3.0267E-04     7.4615  -0.3260   106.8600
 18      0.0000     0.0000E+00    0.0000E+00    1.000000E+06  0.00800  1.238E-02    0   1.0000   age020_m52            0.0000     8.3441E-04    11.4140   3.3482    94.5899
 19      0.0000     0.0000E+00    0.0000E+00    3.160000E+06  0.00800  3.074E-02    0   0.9966   age045_m52            0.0000     8.3274E-04    11.4179   3.2764    95.2425
 20      0.0000     0.0000E+00    0.0000E+00    5.010000E+06  0.00800  2.668E-02    0   0.9443   age055_m52            0.0000     8.4932E-04    11.7717   3.0568    96.2568
 21      0.0000     0.0000E+00    0.0000E+00    6.610000E+06  0.00800  2.136E-02    0   0.9177   age061_m52            0.0000     8.3061E-04    12.6755   1.8166   102.2219
 22      0.0000     0.0000E+00    0.0000E+00    1.000000E+07  0.00800  1.215E-02    0   0.8827   age070_m52            0.0000     1.0007E-03    13.8913   2.5145    99.6982
 23      0.0000     0.0000E+00    0.0000E+00    1.445000E+07  0.00800  8.717E-03    0   0.8552   age078_m52            0.0000     9.5464E-04    13.3644   2.6260    98.9660
 24      0.0000     0.0000E+00    0.0000E+00    2.512000E+07  0.00800  5.592E-03    0   0.8162   age090_m52            0.0000     9.9090E-04    14.0334   2.2852   100.9579
 25      0.0000     0.0000E+00    0.0000E+00    4.000000E+07  0.00800  3.896E-03    0   0.7841   age104_m52            0.0000     9.5070E-04    13.7241   2.1980   101.6516
 26      0.0000     0.0000E+00    0.0000E+00    1.015200E+08  0.00800  2.148E-03    0   0.7226   age116_m52            0.0000     8.7741E-04    13.0095   2.1368   101.5334
 27      0.0000     0.0000E+00    0.0000E+00    2.861200E+08  0.00800  9.925E-04    0   0.6683   age125_m52            0.0000     8.0041E-04    12.5747   1.6594   105.1583
 28      0.0000     0.0000E+00    0.0000E+00    9.047900E+08  0.00800  3.141E-04    0   0.6138   age135_m52            0.0000     5.3870E-04    10.5708   0.8130   111.9140
 29      0.0000     0.0000E+00    0.0000E+00    1.434000E+09  0.00800  1.719E-04    0   0.5853   age139_m52            0.0000     4.6757E-04     9.6959   0.2079   110.8680
 30      0.0000     0.0000E+00    0.0000E+00    2.500000E+09  0.00800  7.872E-05    0   0.5600   age150_m52            0.0000     3.3657E-04     7.9101  -0.0916   109.6564
 31      0.0000     0.0000E+00    0.0000E+00    4.250000E+09  0.00800  4.336E-05    0   0.5426   age158_m52            0.0000     3.1589E-04     7.6200  -0.1191   109.2226
 32      0.0000     0.0000E+00    0.0000E+00    6.250000E+09  0.00800  3.159E-05    0   0.5319   age166_m52            0.0000     2.4694E-04     6.7682  -0.3428   110.1985
 33      0.0000     0.0000E+00    0.0000E+00    1.300000E+10  0.00800  1.361E-05    0   0.5073   age193_m52            0.0000     1.7985E-04     5.8657  -0.8321   110.4744
 34      0.0000     0.0000E+00    0.0000E+00    1.800000E+10  0.00800  9.886E-06    0   0.4990   age213_m52            0.0000     1.3821E-04     5.1059  -0.9598   110.7949
 35      0.0000     0.0000E+00    0.0000E+00    1.000000E+06  0.02000  1.544E-02    0   1.0000   age020_m62            0.0000     8.3492E-04    11.3808   3.3422    94.8890
 36      0.0000     0.0000E+00    0.0000E+00    3.160000E+06  0.02000  3.762E-02    0   0.9858   age045_m62            0.0000     8.4040E-04    11.3851   3.2838    95.6059
 37      0.0000     0.0000E+00    0.0000E+00    5.010000E+06  0.02000  3.296E-02    0   0.9342   age055_m62            0.0000     8.3540E-04    11.7022   2.9498    97.6006
 38      0.0000     0.0000E+00    0.0000E+00    8.710000E+06  0.02000  1.154E-02    0   0.8861   age067_m62            0.0000     1.3095E-03    17.0355   1.9682   101.9696
 39      0.0000     0.0000E+00    0.0000E+00    1.445000E+07  0.02000  7.663E-03    0   0.8472   age078_m62            0.0000     1.0693E-03    14.7285   2.1596   101.7803
 40      0.0000     0.0000E+00    0.0000E+00    2.512000E+07  0.02000  4.532E-03    0   0.8099   age090_m62            0.0000     1.1145E-03    15.1331   2.1619   100.9340
 41      0.0000     0.0000E+00    0.0000E+00    5.500000E+07  0.02000  2.733E-03    0   0.7595   age110_m62            0.0000     9.5260E-04    13.7058   2.1819   100.9230
 42      0.0000     0.0000E+00    0.0000E+00    1.609000E+08  0.02000  1.369E-03    0   0.6985   age120_m62            0.0000     8.7550E-04    13.0857   2.0326   103.0987
 43      0.0000     0.0000E+00    0.0000E+00    2.861200E+08  0.02000  9.013E-04    0   0.6714   age125_m62            0.0000     8.1391E-04    12.7449   1.7878   105.8282
 44      0.0000     0.0000E+00    0.0000E+00    5.088000E+08  0.02000  5.028E-04    0   0.6449   age130_m62            0.0000     6.2662E-04    11.1648   1.3776   110.2581
 45      0.0000     0.0000E+00    0.0000E+00    9.047900E+08  0.02000  2.428E-04    0   0.6179   age135_m62            0.0000     4.4286E-04     9.3533   0.7390   112.1973
 46      0.0000     0.0000E+00    0.0000E+00    1.434000E+09  0.02000  1.263E-04    0   0.5908   age139_m62            0.0000     3.6218E-04     8.3092   0.2684   111.9380
 47      0.0000     0.0000E+00    0.0000E+00    2.500000E+09  0.02000  5.985E-05    0   0.5673   age150_m62            0.0000     2.6577E-04     6.9114  -0.1301   112.0152
 48      0.0000     0.0000E+00    0.0000E+00    4.250000E+09  0.02000  3.271E-05    0   0.5468   age158_m62            0.0000     1.8121E-04     5.7159  -0.4633   112.3934
 49      0.0000     0.0000E+00    0.0000E+00    1.000000E+10  0.02000  1.360E-05    0   0.5167   age181_m62            0.0000     1.1647E-04     4.5945  -0.8445   113.3894
 50      0.0000     0.0000E+00    0.0000E+00    1.800000E+10  0.02000  7.124E-06    0   0.5013   age213_m62            0.0000     9.6437E-05     4.9000  -1.0000   111.1006
 51      0.0000     0.0000E+00    0.0000E+00    1.000000E+06  0.05000  2.592E-02    0   0.9998   age020_m72            0.0000     8.3692E-04    11.3763   3.3290    95.1493
 52      0.0000     0.0000E+00    0.0000E+00    3.160000E+06  0.05000  4.845E-02    0   0.9577   age045_m72            0.0000     8.4114E-04    11.4893   3.1869    96.0035
 53      0.0000     0.0000E+00    0.0000E+00    5.010000E+06  0.05000  3.072E-02    0   0.9147   age055_m72            0.0000     9.9371E-04    13.4014   2.7141    99.1905
 54      0.0000     0.0000E+00    0.0000E+00    6.610000E+06  0.05000  1.455E-02    0   0.8877   age061_m72            0.0000     1.5787E-03    18.9055   1.9823   102.7649
 55      0.0000     0.0000E+00    0.0000E+00    1.000000E+07  0.05000  9.074E-03    0   0.8524   age070_m72            0.0000     1.0663E-03    13.7150   2.8758    98.9751
 56      0.0000     0.0000E+00    0.0000E+00    2.512000E+07  0.05000  4.250E-03    0   0.7902   age090_m72            0.0000     1.0507E-03    14.0279   2.6178    99.4277
 57      0.0000     0.0000E+00    0.0000E+00    4.000000E+07  0.05000  3.087E-03    0   0.7618   age104_m72            0.0000     1.0734E-03    14.4453   2.4021   100.4869
 58      0.0000     0.0000E+00    0.0000E+00    1.015200E+08  0.05000  1.700E-03    0   0.7096   age116_m72            0.0000     9.4702E-04    13.6241   2.1760   102.4254
 59      0.0000     0.0000E+00    0.0000E+00    2.861200E+08  0.05000  7.384E-04    0   0.6633   age125_m72            0.0000     7.1882E-04    11.9729   1.6421   107.9632
 60      0.0000     0.0000E+00    0.0000E+00    5.088000E+08  0.05000  3.819E-04    0   0.6372   age130_m72            0.0000     5.0027E-04    10.0675   1.1012   112.3029
 61      0.0000     0.0000E+00    0.0000E+00    9.047900E+08  0.05000  1.676E-04    0   0.6110   age135_m72            0.0000     2.9069E-04     7.3758   0.3402   113.6559
 62      0.0000     0.0000E+00    0.0000E+00    1.434000E+09  0.05000  8.837E-05    0   0.5874   age139_m72            0.0000     2.4286E-04     6.6905  -0.1431   114.2016
 63      0.0000     0.0000E+00    0.0000E+00    2.500000E+09  0.05000  4.233E-05    0   0.5598   age150_m72            0.0000     1.5829E-04     5.3043  -0.4773   113.9801
 64     83.4456     5.6231E+01    5.7247E+01    6.250000E+09  0.05000  1.435E-05    0   0.5249   age166_m72            0.0000     1.0288E-04     4.2284  -0.9543   113.4955
 65     29.4803     4.3769E+01    4.2753E+01    1.300000E+10  0.05000  6.513E-06    0   0.5036   age193_m72            0.0000     1.5187E-04     7.6630  -1.0000   107.3791
 66      0.0000     0.0000E+00    0.0000E+00    1.800000E+10  0.05000  4.527E-06    0   0.4945   age213_m72            0.0000     2.7391E-04    10.6517  -1.0000   101.9789


## Synthesis Results - Average & Chains ##

# j      x_j: min, <> & last-chain-values for 1 ...  7 chains
  1      0.0000      0.1720      0.0025      0.0722      0.0035      0.0000      0.0000      0.0000      0.0058
  2      0.0000      0.2469      0.0000      0.1173      0.0078      0.0312      0.0020      0.0000      0.0103
  3      0.0000      0.1442      0.0033      0.1032      0.0000      0.0286      0.0000      0.0002      0.0000
  4      0.0000      0.1521      0.0000      0.0228      0.0019      0.0179      0.0065      0.0085      0.0000
  5      0.0000      0.1522      0.0223      0.0632      0.0000      0.0176      0.0093      0.0269      0.0077
  6      0.0000      0.1660      0.0003      0.0200      0.0155      0.0175      0.0134      0.0050      0.0040
  7      0.0000      0.1626      0.0037      0.0642      0.0147      0.0193      0.0039      0.0014      0.0220
  8      0.0000      0.2628      0.0000      0.0000      0.0018      0.0000      0.0022      0.0000      0.0032
  9      0.0000      0.2190      0.0130      0.0273      0.0003      0.0022      0.0001      0.0080      0.0389
 10      0.0000      0.1431      0.0036      0.0000      0.0000      0.0133      0.0080      0.0006      0.0000
 11      0.0000      0.1931      0.0000      0.0076      0.0107      0.0000      0.0048      0.0000      0.0227
 12      0.0000      0.2212      0.0000      0.0883      0.0113      0.0028      0.0000      0.0183      0.0115
 13      0.0000      0.1943      0.0025      0.0407      0.0311      0.0031      0.0019      0.0105      0.0019
 14      0.0000      0.1767      0.0005      0.1548      0.0115      0.0212      0.0111      0.0064      0.0096
 15      0.0000      0.1565      0.0253      0.0485      0.0088      0.0000      0.0000      0.0091      0.0119
 16      0.0000      0.2303      0.0395      0.0083      0.0044      0.0344      0.0082      0.0131      0.0000
 17      0.0000      0.2031      0.0000      0.0860      0.0050      0.0000      0.0000      0.0114      0.0078
 18      0.0000      0.1797      0.0189      0.0344      0.0192      0.0162      0.0096      0.0005      0.0194
 19      0.0000      0.1692      0.0129      0.0128      0.0000      0.0114      0.0000      0.0146      0.0122
 20      0.0000      0.2020      0.0016      0.0417      0.0007      0.0000      0.0000      0.0000      0.0000
 21      0.0000      0.1260      0.0052      0.0135      0.0039      0.0603      0.0070      0.0051      0.0000
 22      0.0000      0.1941      0.0000      0.0000      0.0039      0.0000      0.0000      0.0032      0.0000
 23      0.0000      0.1724      0.0000      0.0000      0.0102      0.0153      0.0000      0.0000      0.0029
 24      0.0000      0.1760      0.0073      0.0182      0.0158      0.0175      0.0000      0.0021      0.0000
 25      0.0000      0.1671      0.0073      0.0585      0.0034      0.0000      0.0096      0.0113      0.0262
 26      0.0000      0.2425      0.0010      0.0000      0.0229      0.0000      0.0000      0.0068      0.0000
 27      0.0000      0.2559      0.0000      0.0154      0.0054      0.0337      0.0032      0.0141      0.0065
 28      0.0000      0.1677      0.0000      0.0394      0.0070      0.0340      0.0000      0.0170      0.0126
 29      0.0000      0.1909      0.0000      0.1664      0.0115      0.0270      0.0095      0.0000      0.0050
 30      0.0000      0.4251      0.6242      0.5073      0.0526      0.3594      0.7825      0.6457      0.0355
 31      0.0000      8.3268     10.1884      8.1903      9.9374      8.8310      7.2767      7.6264     11.1002
 32      0.0000     11.8689     13.1207     13.7853     12.7042     13.1670     14.6669     13.7853     13.1187
 33      0.0000      0.1707      0.0070      0.0189      0.0031      0.0453      0.0177      0.0085      0.0121
 34      0.0000      0.0900      0.0000      0.0036      0.0029      0.0057      0.0088      0.0046      0.0056
 35      0.0000      0.1612      0.0331      0.0062      0.0156      0.0000      0.0000      0.0000      0.0000
 36      0.0000      0.1910      0.0000      0.0514      0.0000      0.0000      0.0049      0.0084      0.0000
 37      0.0000      0.1629      0.0033      0.0009      0.0049      0.0607      0.0000      0.0071      0.0000
 38      0.0000      0.1901      0.0151      0.0000      0.0038      0.0000      0.0005      0.0069      0.0000
 39      0.0000      0.1287      0.0014      0.0117      0.0086      0.0110      0.0000      0.0263      0.0029
 40      0.0000      0.2206      0.0107      0.0141      0.0000      0.0380      0.0105      0.0051      0.0055
 41      0.0000      0.1587      0.0000      0.1425      0.0050      0.0000      0.0000      0.0007      0.0000
 42      0.0000      0.1530      0.0000      0.0474      0.0068      0.0121      0.0000      0.0000      0.0000
 43      0.0000      0.1654      0.0201      0.0102      0.0252      0.0011      0.0062      0.0179      0.0118
 44      0.0000      0.1311      0.0000      0.0177      0.0060      0.0000      0.0000      0.0100      0.0035
 45      0.0000      0.1791      0.0435      0.0688      0.0026      0.0783      0.0340      0.0500      0.0707
 46      0.0000      0.5411      0.7223      0.5103      0.0698      0.1244      0.6544      0.8404      0.2127
