###################################################################
## OUTPUT of StarlightChains_v04.for    [Cid@UFSC - 01/Apr/2007] ##
###################################################################

## Some input info
KUG0210-078._33_35.txt                   [arq_obs]
Base.CB07.vall.4m                        [arq_base]
Masks.EmLines.NEW.gm                     [arq_masks]
StCv04.C11.config                        [arq_config]
   66                                    [N_base]
    0                                    [N_YAV_components = # of components with extra extinction!]
    0                                    [i_FitPowerLaw (1/0 = Yes/No)]
-9.99                                    [alpha_PowerLaw]
CCM                                      [red_law_option]
 1.458241                                [q_norm = A(l_norm)/A(V)]

## (Re)Sampling Parameters
 3741.00                                 [l_ini (A)]
 7218.00                                 [l_fin (A)]
    1.00                                 [dl    (A)]     (OBS: dl_cushion =    50.00 A)

## Normalization info
 4020.00                                 [l_norm (A) - for base]
 4010.00                                 [llow_norm (A) - window for f_obs]
 4060.00                                 [lupp_norm (A) - window for f_obs]
5.242813E-17                             [fobs_norm (in input units)]

## S/N
 3691.00                                 [llow_SN (A) - window for S/N]
 7268.00                                 [lupp_SN (A) - window for S/N]
   3.752                                 [S/N in S/N window]
   2.260                                 [S/N in norm. window]
   0.143                                 [S/N_err in S/N window]
   0.086                                 [S/N_err in norm. window]
  1.0000                                 [fscale_chi2]

## etc...
    -2007510                             [idum_orig]
  2432                                   [NOl_eff]
  2420                                   [Nl_eff]
    12    NSIGMA                         [Ntot_cliped & clip_method]
  7330050                                [Nglobal_steps]
   7                                     [N_chains]
  38                                     [NEX0s_base = N_base in EX0s-fits]
 0   0   1       12   2.0   7.488E+03    [Clip-Bug, RC-Crash & Burn-In warning-flags, n_censored_weights, wei_nsig_threshold & wei_limit]
    66     65.948     65.252      0.696  [idt_all, wdt_TotTime, wdt_UsrTime & wdt_SysTime (sec)]

## Synthesis Results - Best model ##

 4.17718E-05                             [chi2/Nl_eff]
     3.77462                             [adev (%)]

   118.58141                             [sum-of-x (%)]
 4.87348E-17                             [Flux_tot (units of input spectrum!)]
 6.52767E-12                             [Mini_tot (???)]
 3.28413E-12                             [Mcor_tot (???)]

 -45.16                                  [v0_min  (km/s)]
 215.52                                  [vd_min  (km/s)]
-0.1813                                  [AV_min  (mag)]
 0.0000                                  [YAV_min (mag)]

# j     x_j(%)      Mini_j(%)     Mcor_j(%)     age_j(yr)     Z_j      (L/M)_j    YAV?  Mstars   component_j        a/Fe...       SSP_chi2r SSP_adev(%)   SSP_AV   SSP_x(%)
  1      0.0000     0.0000E+00    0.0000E+00    1.000000E+06  0.00400  1.094E-02    0   1.0000   age020_m42            0.0000     5.0584E-04    12.9978   4.0000   106.2995
  2      0.0000     0.0000E+00    0.0000E+00    3.160000E+06  0.00400  4.007E-02    0   0.9999   age045_m42            0.0000     3.8455E-04    12.0373   3.4642   106.2315
  3      0.0000     0.0000E+00    0.0000E+00    5.010000E+06  0.00400  2.539E-02    0   0.9488   age055_m42            0.0000     4.1932E-04    12.4203   3.8004   102.8205
  4      0.0000     0.0000E+00    0.0000E+00    6.610000E+06  0.00400  2.620E-02    0   0.9220   age061_m42            0.0000     3.9283E-04    12.1669   3.3865   106.5913
  5      0.0000     0.0000E+00    0.0000E+00    1.000000E+07  0.00400  1.322E-02    0   0.8862   age070_m42            0.0000     4.8953E-04    13.8845   3.0989   108.6769
  6      0.2429     1.9396E-04    3.3044E-04    1.445000E+07  0.00400  7.883E-03    0   0.8571   age078_m42            0.0000     4.9907E-04    13.8868   3.4354   105.4705
  7      0.0000     0.0000E+00    0.0000E+00    2.512000E+07  0.00400  5.251E-03    0   0.8174   age090_m42            0.0000     5.0658E-04    14.1917   2.9667   109.3423
  8      0.2538     4.3783E-04    6.8323E-04    4.000000E+07  0.00400  3.649E-03    0   0.7851   age104_m42            0.0000     4.7880E-04    13.8635   2.7324   110.6860
  9      0.0000     0.0000E+00    0.0000E+00    5.500000E+07  0.00400  3.098E-03    0   0.7629   age110_m42            0.0000     4.2471E-04    12.9847   2.8804   111.1817
 10      0.0000     0.0000E+00    0.0000E+00    1.015200E+08  0.00400  2.228E-03    0   0.7207   age116_m42            0.0000     3.9230E-04    12.3981   2.8964   111.7382
 11      0.0000     0.0000E+00    0.0000E+00    2.861200E+08  0.00400  1.093E-03    0   0.6648   age125_m42            0.0000     4.2325E-04    13.0690   2.3044   115.8109
 12      0.0000     0.0000E+00    0.0000E+00    5.088000E+08  0.00400  6.597E-04    0   0.6365   age130_m42            0.0000     3.5907E-04    11.9597   2.2912   117.2818
 13      0.2599     7.6745E-03    8.8444E-03    1.434000E+09  0.00400  2.132E-04    0   0.5798   age139_m42            0.0000     2.7569E-04    10.6496   1.3237   119.8289
 14      0.0000     0.0000E+00    0.0000E+00    4.250000E+09  0.00400  5.895E-05    0   0.5377   age158_m42            0.0000     2.0950E-04     9.0694   0.9093   114.2166
 15      0.0000     0.0000E+00    0.0000E+00    7.500000E+09  0.00400  3.510E-05    0   0.5212   age171_m42            0.0000     1.8274E-04     8.4222   0.7221   113.5069
 16      0.0000     0.0000E+00    0.0000E+00    1.300000E+10  0.00400  2.005E-05    0   0.5034   age193_m42            0.0000     1.6423E-04     7.9253   0.5581   112.8815
 17      1.6553     6.8338E-01    6.7467E-01    1.800000E+10  0.00400  1.525E-05    0   0.4967   age213_m42            0.0000     1.7112E-04     8.0750   0.5363   112.2970
 18      0.0000     0.0000E+00    0.0000E+00    1.000000E+06  0.00800  1.238E-02    0   1.0000   age020_m52            0.0000     5.0264E-04    12.9648   4.0000   106.3822
 19      0.0000     0.0000E+00    0.0000E+00    3.160000E+06  0.00800  3.074E-02    0   0.9966   age045_m52            0.0000     4.6452E-04    12.5792   4.0000   104.4543
 20      0.0000     0.0000E+00    0.0000E+00    5.010000E+06  0.00800  2.668E-02    0   0.9443   age055_m52            0.0000     4.2929E-04    12.5595   3.8871   101.6964
 21      0.0000     0.0000E+00    0.0000E+00    6.610000E+06  0.00800  2.136E-02    0   0.9177   age061_m52            0.0000     4.5382E-04    13.4290   2.6113   109.4899
 22      0.0000     0.0000E+00    0.0000E+00    1.000000E+07  0.00800  1.215E-02    0   0.8827   age070_m52            0.0000     5.3650E-04    14.5450   3.2778   108.1998
 23      0.0000     0.0000E+00    0.0000E+00    1.445000E+07  0.00800  8.717E-03    0   0.8552   age078_m52            0.0000     4.9387E-04    13.8679   3.3984   107.0704
 24      0.0000     0.0000E+00    0.0000E+00    2.512000E+07  0.00800  5.592E-03    0   0.8162   age090_m52            0.0000     5.1121E-04    14.2816   3.0232   110.9105
 25      0.2014     3.2539E-04    5.0713E-04    4.000000E+07  0.00800  3.896E-03    0   0.7841   age104_m52            0.0000     4.7603E-04    13.8181   2.9275   112.2603
 26      0.0000     0.0000E+00    0.0000E+00    1.015200E+08  0.00800  2.148E-03    0   0.7226   age116_m52            0.0000     4.1391E-04    12.8185   2.8617   112.5642
 27      0.0000     0.0000E+00    0.0000E+00    2.861200E+08  0.00800  9.925E-04    0   0.6683   age125_m52            0.0000     3.5740E-04    11.9245   2.3519   118.5807
 28      0.0000     0.0000E+00    0.0000E+00    9.047900E+08  0.00800  3.141E-04    0   0.6138   age135_m52            0.0000     2.4869E-04     9.9856   1.5448   124.4030
 29      0.0000     0.0000E+00    0.0000E+00    1.434000E+09  0.00800  1.719E-04    0   0.5853   age139_m52            0.0000     2.2981E-04     9.5963   0.9770   121.1664
 30      0.0000     0.0000E+00    0.0000E+00    2.500000E+09  0.00800  7.872E-05    0   0.5600   age150_m52            0.0000     1.5866E-04     7.9023   0.7289   117.4238
 31      0.0000     0.0000E+00    0.0000E+00    4.250000E+09  0.00800  4.336E-05    0   0.5426   age158_m52            0.0000     1.5766E-04     7.8592   0.7176   116.1449
 32      0.0000     0.0000E+00    0.0000E+00    6.250000E+09  0.00800  3.159E-05    0   0.5319   age166_m52            0.0000     1.2422E-04     6.9511   0.5138   116.4076
 33      0.0000     0.0000E+00    0.0000E+00    1.300000E+10  0.00800  1.361E-05    0   0.5073   age193_m52            0.0000     8.9446E-05     5.7753   0.0446   115.9596
 34      0.0000     0.0000E+00    0.0000E+00    1.800000E+10  0.00800  9.886E-06    0   0.4990   age213_m52            0.0000     6.8127E-05     4.9222  -0.0660   115.6957
 35      0.0000     0.0000E+00    0.0000E+00    1.000000E+06  0.02000  1.544E-02    0   1.0000   age020_m62            0.0000     5.0285E-04    12.9548   4.0000   106.4757
 36      0.0000     0.0000E+00    0.0000E+00    3.160000E+06  0.02000  3.762E-02    0   0.9858   age045_m62            0.0000     4.7661E-04    12.6806   4.0000   105.0897
 37      0.0000     0.0000E+00    0.0000E+00    5.010000E+06  0.02000  3.296E-02    0   0.9342   age055_m62            0.0000     3.9455E-04    12.0480   3.7524   104.5415
 38      0.0000     0.0000E+00    0.0000E+00    8.710000E+06  0.02000  1.154E-02    0   0.8861   age067_m62            0.0000     8.4917E-04    18.4937   2.7251   110.1601
 39      0.0000     0.0000E+00    0.0000E+00    1.445000E+07  0.02000  7.663E-03    0   0.8472   age078_m62            0.0000     6.1717E-04    15.7331   2.9142   110.6747
 40      0.0000     0.0000E+00    0.0000E+00    2.512000E+07  0.02000  4.532E-03    0   0.8099   age090_m62            0.0000     6.3577E-04    15.9684   2.9010   110.5272
 41      0.0000     0.0000E+00    0.0000E+00    5.500000E+07  0.02000  2.733E-03    0   0.7595   age110_m62            0.0000     4.7745E-04    13.7933   2.9142   111.2458
 42      0.0000     0.0000E+00    0.0000E+00    1.609000E+08  0.02000  1.369E-03    0   0.6985   age120_m62            0.0000     3.9410E-04    12.5187   2.7310   115.7677
 43      0.0000     0.0000E+00    0.0000E+00    2.861200E+08  0.02000  9.013E-04    0   0.6714   age125_m62            0.0000     3.4660E-04    11.7734   2.4670   120.0733
 44      0.0000     0.0000E+00    0.0000E+00    5.088000E+08  0.02000  5.028E-04    0   0.6449   age130_m62            0.0000     2.5831E-04    10.1539   2.0806   124.1504
 45      0.0000     0.0000E+00    0.0000E+00    9.047900E+08  0.02000  2.428E-04    0   0.6179   age135_m62            0.0000     1.9487E-04     8.8637   1.5041   123.0486
 46      0.0000     0.0000E+00    0.0000E+00    1.434000E+09  0.02000  1.263E-04    0   0.5908   age139_m62            0.0000     1.6781E-04     8.2051   1.0721   120.7261
 47      0.0000     0.0000E+00    0.0000E+00    2.500000E+09  0.02000  5.985E-05    0   0.5673   age150_m62            0.0000     1.2247E-04     6.9289   0.7153   118.8908
 48      0.0000     0.0000E+00    0.0000E+00    4.250000E+09  0.02000  3.271E-05    0   0.5468   age158_m62            0.0000     8.1433E-05     5.5545   0.4109   118.1462
 49     16.0134     7.4133E+00    7.6135E+00    1.000000E+10  0.02000  1.360E-05    0   0.5167   age181_m62            0.0000     5.1841E-05     4.2912   0.0555   118.3094
 50     33.3855     2.9505E+01    2.9399E+01    1.800000E+10  0.02000  7.124E-06    0   0.5013   age213_m62            0.0000     4.0974E-05     3.7476  -0.1600   117.8342
 51      0.0000     0.0000E+00    0.0000E+00    1.000000E+06  0.05000  2.592E-02    0   0.9998   age020_m72            0.0000     5.0917E-04    13.0113   4.0000   106.1588
 52      0.0000     0.0000E+00    0.0000E+00    3.160000E+06  0.05000  4.845E-02    0   0.9577   age045_m72            0.0000     4.2449E-04    12.3120   4.0000   102.0567
 53      0.0000     0.0000E+00    0.0000E+00    5.010000E+06  0.05000  3.072E-02    0   0.9147   age055_m72            0.0000     5.6967E-04    14.7768   3.5071   106.2066
 54      0.0000     0.0000E+00    0.0000E+00    6.610000E+06  0.05000  1.455E-02    0   0.8877   age061_m72            0.0000     1.1457E-03    21.6086   2.7242   111.5966
 55      0.0000     0.0000E+00    0.0000E+00    1.000000E+07  0.05000  9.074E-03    0   0.8524   age070_m72            0.0000     6.4575E-04    15.4029   3.6583   106.5794
 56      0.0000     0.0000E+00    0.0000E+00    2.512000E+07  0.05000  4.250E-03    0   0.7902   age090_m72            0.0000     5.7522E-04    14.8897   3.3614   109.0373
 57      0.0000     0.0000E+00    0.0000E+00    4.000000E+07  0.05000  3.087E-03    0   0.7618   age104_m72            0.0000     5.8307E-04    15.1147   3.1237   111.3090
 58      0.0000     0.0000E+00    0.0000E+00    1.015200E+08  0.05000  1.700E-03    0   0.7096   age116_m72            0.0000     4.4216E-04    13.2665   2.8685   115.2351
 59      0.0000     0.0000E+00    0.0000E+00    2.861200E+08  0.05000  7.384E-04    0   0.6633   age125_m72            0.0000     2.9727E-04    10.9209   2.3282   122.3219
 60      0.4154     6.8483E-03    8.6735E-03    5.088000E+08  0.05000  3.819E-04    0   0.6372   age130_m72            0.0000     2.0806E-04     9.1807   1.8417   124.4512
 61      0.0000     0.0000E+00    0.0000E+00    9.047900E+08  0.05000  1.676E-04    0   0.6110   age135_m72            0.0000     1.2528E-04     7.1122   1.1665   121.6441
 62      2.6040     1.8553E-01    2.1661E-01    1.434000E+09  0.05000  8.837E-05    0   0.5874   age139_m72            0.0000     1.1459E-04     6.7214   0.7057   121.1413
 63      0.0000     0.0000E+00    0.0000E+00    2.500000E+09  0.05000  4.233E-05    0   0.5598   age150_m72            0.0000     6.9758E-05     5.1018   0.4056   119.4997
 64     10.6258     4.6620E+00    4.8639E+00    6.250000E+09  0.05000  1.435E-05    0   0.5249   age166_m72            0.0000     4.6199E-05     3.9973  -0.0438   118.0122
 65     37.8935     3.6631E+01    3.6667E+01    1.300000E+10  0.05000  6.513E-06    0   0.5036   age193_m72            0.0000     4.0649E-05     3.6780  -0.3292   119.5946
 66     15.0307     2.0904E+01    2.0547E+01    1.800000E+10  0.05000  4.527E-06    0   0.4945   age213_m72            0.0000     4.5078E-05     3.8427  -0.4934   119.5957


## Synthesis Results - Average & Chains ##

# j      x_j: min, <> & last-chain-values for 1 ...  7 chains
  1      0.0000      1.5649      1.4483      1.6091      1.7912      1.7997      1.3837      1.6808      1.8409
  2      0.0000      0.8319      0.5248      0.5836      0.6294      0.5608      0.4927      0.5637      0.1186
  3      0.0000      0.9009      0.1081      0.8694      0.8490      0.8495      1.0041      0.7675      0.7155
  4      0.0000      0.6758      0.4028      0.3652      0.7351      0.7787      0.0573      0.7778      0.6716
  5      0.0000      1.9599      2.5264      2.0715      2.2403      2.2413      2.3524      2.1471      1.8520
  6      0.2429      0.6420      0.2244      0.7125      0.2305      0.2476      0.3285      0.3669      0.1494
  7      0.0000      1.8207      1.6806      1.6141      1.8446      1.7530      2.1214      1.9092      1.3680
  8      0.2538      0.7072      0.2227      0.3763      0.4121      0.4488      0.8115      0.3981      0.7591
  9      0.0000      0.5217      0.5128      0.3075      0.3053      0.2909      0.0978      0.3698      0.0000
 10      0.0000      0.3690      0.1535      0.0817      0.1168      0.0713      0.0986      0.2217      0.0892
 11      0.0000      0.6294      0.1529      0.4748      0.2203      0.2204      0.2106      0.2662      0.3324
 12      0.0000      0.6794      0.2159      0.6292      0.5821      0.5396      0.0000      0.5621      0.8628
 13      0.2599      1.4997      2.1120      1.7322      1.5848      1.6057      0.8110      1.4841      1.0277
 14      0.0000      0.4525      0.0000      0.0464      0.0638      0.0101      0.4236      0.0306      0.0000
 15      0.0000      0.3709      0.1194      0.0868      0.0329      0.0117      0.1398      0.0000      0.4861
 16      0.0000      0.3469      0.0000      0.1631      0.0000      0.0130      0.0589      0.1182      0.1933
 17      1.6553      0.3625      0.2176      0.1551      0.0517      0.0000      0.0000      0.0128      0.1490
 18      0.0000      0.4356      0.0000      0.0000      0.0651      0.0815      0.0198      0.1367      0.1604
 19      0.0000      9.0514     10.5647     10.6682     10.8667     10.8314     10.3785     10.8279     10.2983
 20      0.0000      0.4634      0.0000      0.0000      0.0244      0.0007      0.0616      0.0000      0.0368
 21      0.0000      0.6862      0.1060      0.2583      0.0721      0.1744      0.2181      0.1082      0.1561
 22      0.0000      0.3663      0.0000      0.0180      0.0042      0.0869      0.8614      0.0012      0.0935
 23      0.0000      0.5566      0.1571      0.0000      0.0202      0.0101      0.0935      0.1117      0.0000
 24      0.0000      0.4130      0.2380      0.0062      0.0000      0.0254      0.2605      0.0000      0.0000
 25      0.2014      0.5059      0.2845      0.0000      0.0454      0.0450      0.8212      0.0247      0.0000
 26      0.0000      0.5799      0.1504      0.0163      0.0000      0.0000      0.0000      0.0449      0.0000
 27      0.0000      2.6758      2.9672      3.4248      3.2360      3.2701      2.7376      3.2157      3.3413
 28      0.0000      0.4573      0.2084      0.0004      0.0066      0.0474      0.4097      0.0000      0.7953
 29      0.0000      0.4499      0.3685      0.0000      0.0445      0.0093      0.0000      0.0277      0.0360
 30      0.0000      0.3490      0.2082      0.2359      0.0060      0.0048      0.1058      0.0915      0.0518
 31      0.0000      0.3945      0.0000      0.0000      0.0000      0.0000      0.0000      0.0809      0.0767
 32      0.0000      0.3556      0.1232      0.0000      0.0206      0.0000      0.3826      0.0000      0.0229
 33      0.0000      0.4320      0.0649      0.1456      0.0639      0.0781      0.4610      0.0000      0.0000
 34      0.0000      1.1000      0.6866      0.6200      0.9472      0.9303      0.9140      0.9510      0.9218
 35      0.0000      1.1454      1.2218      1.0292      1.2185      1.1359      1.0213      1.0398      0.8737
 36      0.0000      1.3426      1.3621      1.5035      1.4114      1.4152      1.1159      1.3304      1.0575
 37      0.0000      0.3832      0.0000      0.1667      0.0148      0.0394      0.1551      0.0642      0.2756
 38      0.0000      1.2716      0.8934      1.2957      1.2707      1.2085      0.8503      1.2404      1.5295
 39      0.0000      0.8132      0.6179      0.8326      0.8052      0.8593      0.3331      0.9002      0.6787
 40      0.0000      0.4758      0.2407      0.0000      0.0000      0.0344      0.0000      0.0454      0.0000
 41      0.0000      2.3631      2.7712      2.3090      2.5208      2.4411      2.0610      2.5656      2.3627
 42      0.0000      0.5348      0.1984      0.0709      0.0093      0.0099      0.0767      0.0784      0.0000
 43      0.0000      0.5871      0.3658      0.3856      0.2937      0.3026      0.2274      0.3038      0.3875
 44      0.0000      1.7874      1.7335      2.0863      2.0737      2.0861      1.6099      2.1856      2.3850
 45      0.0000      0.4447      0.0305      0.0848      0.0179      0.0126      0.1594      0.0570      0.0199
 46      0.0000      0.6084      0.3123      0.4975      0.0292      0.0815      0.3916      0.0000      0.0000
