###################################################################
## OUTPUT of StarlightChains_v04.for    [Cid@UFSC - 01/Apr/2007] ##
###################################################################

## Some input info
KUG0210-078._31_35.txt                   [arq_obs]
Base.CB07.vall.4m                        [arq_base]
Masks.EmLines.NEW.gm                     [arq_masks]
StCv04.C11.config                        [arq_config]
   66                                    [N_base]
    0                                    [N_YAV_components = # of components with extra extinction!]
    0                                    [i_FitPowerLaw (1/0 = Yes/No)]
-9.99                                    [alpha_PowerLaw]
CCM                                      [red_law_option]
 1.458241                                [q_norm = A(l_norm)/A(V)]

## (Re)Sampling Parameters
 3741.00                                 [l_ini (A)]
 7218.00                                 [l_fin (A)]
    1.00                                 [dl    (A)]     (OBS: dl_cushion =    50.00 A)

## Normalization info
 4020.00                                 [l_norm (A) - for base]
 4010.00                                 [llow_norm (A) - window for f_obs]
 4060.00                                 [lupp_norm (A) - window for f_obs]
1.293855E-16                             [fobs_norm (in input units)]

## S/N
 3691.00                                 [llow_SN (A) - window for S/N]
 7268.00                                 [lupp_SN (A) - window for S/N]
   7.784                                 [S/N in S/N window]
   8.762                                 [S/N in norm. window]
   0.197                                 [S/N_err in S/N window]
   0.222                                 [S/N_err in norm. window]
  1.0000                                 [fscale_chi2]

## etc...
    -2007460                             [idum_orig]
  2432                                   [NOl_eff]
  2414                                   [Nl_eff]
    18    NSIGMA                         [Ntot_cliped & clip_method]
 11139450                                [Nglobal_steps]
   7                                     [N_chains]
  41                                     [NEX0s_base = N_base in EX0s-fits]
 0   1   1       18   2.0   2.278E+04    [Clip-Bug, RC-Crash & Burn-In warning-flags, n_censored_weights, wei_nsig_threshold & wei_limit]
   130    129.115    127.943      1.172  [idt_all, wdt_TotTime, wdt_UsrTime & wdt_SysTime (sec)]

## Synthesis Results - Best model ##

 3.50704E-04                             [chi2/Nl_eff]
     6.17580                             [adev (%)]

   109.08817                             [sum-of-x (%)]
 9.93751E-17                             [Flux_tot (units of input spectrum!)]
 2.62732E-12                             [Mini_tot (???)]
 1.34854E-12                             [Mcor_tot (???)]

 -16.36                                  [v0_min  (km/s)]
 307.55                                  [vd_min  (km/s)]
-0.2612                                  [AV_min  (mag)]
 0.0000                                  [YAV_min (mag)]

# j     x_j(%)      Mini_j(%)     Mcor_j(%)     age_j(yr)     Z_j      (L/M)_j    YAV?  Mstars   component_j        a/Fe...       SSP_chi2r SSP_adev(%)   SSP_AV   SSP_x(%)
  1      0.0000     0.0000E+00    0.0000E+00    1.000000E+06  0.00400  1.094E-02    0   1.0000   age020_m42            0.0000     1.3008E-03    10.2738   2.9083    87.7439
  2      0.0000     0.0000E+00    0.0000E+00    3.160000E+06  0.00400  4.007E-02    0   0.9999   age045_m42            0.0000     8.5794E-04     8.6786   2.1441    95.0514
  3      0.0000     0.0000E+00    0.0000E+00    5.010000E+06  0.00400  2.539E-02    0   0.9488   age055_m42            0.0000     1.0421E-03     9.3196   2.4848    92.0658
  4      0.0000     0.0000E+00    0.0000E+00    6.610000E+06  0.00400  2.620E-02    0   0.9220   age061_m42            0.0000     8.4166E-04     8.4033   2.0746    95.1336
  5      0.0000     0.0000E+00    0.0000E+00    1.000000E+07  0.00400  1.322E-02    0   0.8862   age070_m42            0.0000     9.0491E-04     7.7417   1.8403    95.6668
  6      0.0000     0.0000E+00    0.0000E+00    1.445000E+07  0.00400  7.883E-03    0   0.8571   age078_m42            0.0000     1.0157E-03     8.2436   2.1701    93.1203
  7      0.0000     0.0000E+00    0.0000E+00    2.512000E+07  0.00400  5.251E-03    0   0.8174   age090_m42            0.0000     8.8799E-04     7.5765   1.7147    96.0756
  8      0.7524     7.1491E-03    1.0935E-02    4.000000E+07  0.00400  3.649E-03    0   0.7851   age104_m42            0.0000     8.0706E-04     7.3081   1.4767    97.2573
  9      0.0000     0.0000E+00    0.0000E+00    5.500000E+07  0.00400  3.098E-03    0   0.7629   age110_m42            0.0000     7.3330E-04     7.2331   1.6032    98.1520
 10      0.0000     0.0000E+00    0.0000E+00    1.015200E+08  0.00400  2.228E-03    0   0.7207   age116_m42            0.0000     6.8714E-04     7.2243   1.6046    98.9421
 11      0.0000     0.0000E+00    0.0000E+00    2.861200E+08  0.00400  1.093E-03    0   0.6648   age125_m42            0.0000     6.0113E-04     6.2203   1.0391   101.6756
 12      0.0000     0.0000E+00    0.0000E+00    5.088000E+08  0.00400  6.597E-04    0   0.6365   age130_m42            0.0000     5.4320E-04     6.3473   0.9993   103.5750
 13     44.8961     7.3014E+00    8.2478E+00    1.434000E+09  0.00400  2.132E-04    0   0.5798   age139_m42            0.0000     3.7691E-04     5.9045   0.0130   106.1987
 14      0.0000     0.0000E+00    0.0000E+00    4.250000E+09  0.00400  5.895E-05    0   0.5377   age158_m42            0.0000     4.5943E-04     7.0911  -0.4427   102.4907
 15      1.3698     1.3531E+00    1.3740E+00    7.500000E+09  0.00400  3.510E-05    0   0.5212   age171_m42            0.0000     4.9535E-04     7.4007  -0.6443   102.1992
 16      0.0000     0.0000E+00    0.0000E+00    1.300000E+10  0.00400  2.005E-05    0   0.5034   age193_m42            0.0000     5.4794E-04     7.7342  -0.8208   101.9589
 17      0.0000     0.0000E+00    0.0000E+00    1.800000E+10  0.00400  1.525E-05    0   0.4967   age213_m42            0.0000     5.5104E-04     7.6871  -0.8398   101.3739
 18      0.0000     0.0000E+00    0.0000E+00    1.000000E+06  0.00800  1.238E-02    0   1.0000   age020_m52            0.0000     1.3032E-03    10.2865   2.9024    87.9720
 19      0.0000     0.0000E+00    0.0000E+00    3.160000E+06  0.00800  3.074E-02    0   0.9966   age045_m52            0.0000     1.2684E-03    10.2312   2.8233    88.8581
 20      0.0000     0.0000E+00    0.0000E+00    5.010000E+06  0.00800  2.668E-02    0   0.9443   age055_m52            0.0000     1.1035E-03     9.5059   2.5735    91.0540
 21      0.0000     0.0000E+00    0.0000E+00    6.610000E+06  0.00800  2.136E-02    0   0.9177   age061_m52            0.0000     8.9408E-04     7.9308   1.3415    96.7461
 22      0.0000     0.0000E+00    0.0000E+00    1.000000E+07  0.00800  1.215E-02    0   0.8827   age070_m52            0.0000     9.9360E-04     7.9108   2.0349    94.9259
 23      0.0000     0.0000E+00    0.0000E+00    1.445000E+07  0.00800  8.717E-03    0   0.8552   age078_m52            0.0000     9.7502E-04     8.0509   2.1345    94.4741
 24      0.0000     0.0000E+00    0.0000E+00    2.512000E+07  0.00800  5.592E-03    0   0.8162   age090_m52            0.0000     8.6545E-04     7.3932   1.7777    97.2435
 25      0.0283     2.5198E-04    3.8494E-04    4.000000E+07  0.00800  3.896E-03    0   0.7841   age104_m52            0.0000     7.6770E-04     7.0050   1.6726    98.5637
 26      0.0000     0.0000E+00    0.0000E+00    1.015200E+08  0.00800  2.148E-03    0   0.7226   age116_m52            0.0000     6.7243E-04     6.9401   1.5840    99.3070
 27      0.0000     0.0000E+00    0.0000E+00    2.861200E+08  0.00800  9.925E-04    0   0.6683   age125_m52            0.0000     5.3359E-04     6.3157   1.0637   104.5660
 28      5.7361     6.3320E-01    7.5721E-01    9.047900E+08  0.00800  3.141E-04    0   0.6138   age135_m52            0.0000     3.9385E-04     6.0654   0.2175   110.6042
 29      0.0000     0.0000E+00    0.0000E+00    1.434000E+09  0.00800  1.719E-04    0   0.5853   age139_m52            0.0000     3.6187E-04     6.0200  -0.3533   107.8997
 30      0.0000     0.0000E+00    0.0000E+00    2.500000E+09  0.00800  7.872E-05    0   0.5600   age150_m52            0.0000     4.4179E-04     7.2602  -0.6482   105.8914
 31      0.0000     0.0000E+00    0.0000E+00    4.250000E+09  0.00800  4.336E-05    0   0.5426   age158_m52            0.0000     4.8362E-04     7.4470  -0.6618   104.8202
 32      0.0000     0.0000E+00    0.0000E+00    6.250000E+09  0.00800  3.159E-05    0   0.5319   age166_m52            0.0000     5.2935E-04     7.8830  -0.8885   105.5921
 33      0.0000     0.0000E+00    0.0000E+00    1.300000E+10  0.00800  1.361E-05    0   0.5073   age193_m52            0.0000     9.5935E-04    10.2365  -1.0000    96.1293
 34      2.1573     7.5661E+00    7.3557E+00    1.800000E+10  0.00800  9.886E-06    0   0.4990   age213_m52            0.0000     1.3118E-03    12.2065  -1.0000    92.8625
 35      0.0000     0.0000E+00    0.0000E+00    1.000000E+06  0.02000  1.544E-02    0   1.0000   age020_m62            0.0000     1.3194E-03    10.3347   2.9001    88.1373
 36      0.0000     0.0000E+00    0.0000E+00    3.160000E+06  0.02000  3.762E-02    0   0.9858   age045_m62            0.0000     1.3216E-03    10.3298   2.8366    88.9980
 37      0.0000     0.0000E+00    0.0000E+00    5.010000E+06  0.02000  3.296E-02    0   0.9342   age055_m62            0.0000     9.6505E-04     9.1141   2.4309    93.6669
 38      0.0000     0.0000E+00    0.0000E+00    8.710000E+06  0.02000  1.154E-02    0   0.8861   age067_m62            0.0000     1.4371E-03     9.9861   1.5699    94.7232
 39      0.0000     0.0000E+00    0.0000E+00    1.445000E+07  0.02000  7.663E-03    0   0.8472   age078_m62            0.0000     1.0491E-03     8.0941   1.7023    96.3379
 40      0.0000     0.0000E+00    0.0000E+00    2.512000E+07  0.02000  4.532E-03    0   0.8099   age090_m62            0.0000     1.0299E-03     8.0094   1.6955    96.0120
 41      0.0000     0.0000E+00    0.0000E+00    5.500000E+07  0.02000  2.733E-03    0   0.7595   age110_m62            0.0000     7.9611E-04     7.1096   1.6599    97.6905
 42      0.0173     4.3914E-04    5.9762E-04    1.609000E+08  0.02000  1.369E-03    0   0.6985   age120_m62            0.0000     6.3118E-04     6.6719   1.4516   102.0217
 43      0.0000     0.0000E+00    0.0000E+00    2.861200E+08  0.02000  9.013E-04    0   0.6714   age125_m62            0.0000     5.6563E-04     6.5476   1.1721   106.0485
 44      8.1734     5.6363E-01    7.0817E-01    5.088000E+08  0.02000  5.028E-04    0   0.6449   age130_m62            0.0000     4.8750E-04     6.8072   0.7444   110.6541
 45      3.2262     4.6071E-01    5.5462E-01    9.047900E+08  0.02000  2.428E-04    0   0.6179   age135_m62            0.0000     3.9651E-04     6.7436   0.1454   110.3333
 46      2.0576     5.6486E-01    6.5018E-01    1.434000E+09  0.02000  1.263E-04    0   0.5908   age139_m62            0.0000     4.2770E-04     7.0852  -0.2987   108.6213
 47      0.0000     0.0000E+00    0.0000E+00    2.500000E+09  0.02000  5.985E-05    0   0.5673   age150_m62            0.0000     5.1832E-04     7.9682  -0.6908   107.9503
 48      0.1736     1.8399E-01    1.9601E-01    4.250000E+09  0.02000  3.271E-05    0   0.5468   age158_m62            0.0000     6.0909E-04     8.7058  -1.0000   107.4337
 49      2.1754     5.5460E+00    5.5831E+00    1.000000E+10  0.02000  1.360E-05    0   0.5167   age181_m62            0.0000     1.1686E-03    11.1583  -1.0000    98.1932
 50      0.0000     0.0000E+00    0.0000E+00    1.800000E+10  0.02000  7.124E-06    0   0.5013   age213_m62            0.0000     1.8926E-03    14.3636  -1.0000    91.6765
 51      0.0000     0.0000E+00    0.0000E+00    1.000000E+06  0.05000  2.592E-02    0   0.9998   age020_m72            0.0000     1.3656E-03    10.4553   2.8959    88.0380
 52      0.7973     5.7061E-04    1.0647E-03    3.160000E+06  0.05000  4.845E-02    0   0.9577   age045_m72            0.0000     1.1750E-03     9.9415   2.7050    90.6421
 53      0.2479     2.7984E-04    4.9870E-04    5.010000E+06  0.05000  3.072E-02    0   0.9147   age055_m72            0.0000     1.1385E-03     8.3968   2.2660    93.2198
 54      0.0000     0.0000E+00    0.0000E+00    6.610000E+06  0.05000  1.455E-02    0   0.8877   age061_m72            0.0000     1.7698E-03    11.2711   1.6233    94.6480
 55      0.0000     0.0000E+00    0.0000E+00    1.000000E+07  0.05000  9.074E-03    0   0.8524   age070_m72            0.0000     1.1815E-03     8.8138   2.4360    93.0318
 56      0.0000     0.0000E+00    0.0000E+00    2.512000E+07  0.05000  4.250E-03    0   0.7902   age090_m72            0.0000     9.5579E-04     7.7343   2.1308    95.2295
 57      0.0000     0.0000E+00    0.0000E+00    4.000000E+07  0.05000  3.087E-03    0   0.7618   age104_m72            0.0000     8.9036E-04     7.4213   1.9033    96.8553
 58      0.1556     3.1726E-03    4.3861E-03    1.015200E+08  0.05000  1.700E-03    0   0.7096   age116_m72            0.0000     6.7002E-04     6.5297   1.6091   101.0459
 59      8.0496     3.7798E-01    4.8846E-01    2.861200E+08  0.05000  7.384E-04    0   0.6633   age125_m72            0.0000     5.1016E-04     6.5621   1.0117   108.5108
 60     13.0545     1.1852E+00    1.4714E+00    5.088000E+08  0.05000  3.819E-04    0   0.6372   age130_m72            0.0000     4.1916E-04     6.9067   0.4838   111.5577
 61      0.0432     8.9274E-03    1.0627E-02    9.047900E+08  0.05000  1.676E-04    0   0.6110   age135_m72            0.0000     4.8155E-04     8.0118  -0.2442   110.5532
 62      2.0668     8.1093E-01    9.2804E-01    1.434000E+09  0.05000  8.837E-05    0   0.5874   age139_m72            0.0000     5.2907E-04     7.9968  -0.7039   109.9895
 63      1.1030     9.0349E-01    9.8538E-01    2.500000E+09  0.05000  4.233E-05    0   0.5598   age150_m72            0.0000     6.5574E-04     9.0075  -1.0000   108.5225
 64      3.4471     8.3289E+00    8.5175E+00    6.250000E+09  0.05000  1.435E-05    0   0.5249   age166_m72            0.0000     1.4220E-03    12.4237  -1.0000    95.1946
 65      3.2056     1.7065E+01    1.6744E+01    1.300000E+10  0.05000  6.513E-06    0   0.5036   age193_m72            0.0000     2.5645E-03    17.3536  -1.0000    88.0875
 66      6.1541     4.7134E+01    4.5410E+01    1.800000E+10  0.05000  4.527E-06    0   0.4945   age213_m72            0.0000     3.4000E-03    20.2104  -1.0000    83.1611


## Synthesis Results - Average & Chains ##

# j      x_j: min, <> & last-chain-values for 1 ...  7 chains
  1      0.0000      0.5160      0.5812      0.3926      0.0000      1.2120      0.0900      0.2553      0.2353
  2      0.0000      0.3989      0.3281      0.0000      0.0571      0.8116      0.0065      0.2216      0.6051
  3      0.0000      0.3502      0.1137      0.1473      0.1881      0.0000      0.0757      0.0933      0.0000
  4      0.0000      0.3910      0.0374      0.3455      0.0979      0.0804      0.2167      0.0000      0.0000
  5      0.0000      0.5612      0.0020      0.3498      0.0000      0.0325      0.1179      0.1448      1.2396
  6      0.0000      0.4209      0.0292      0.0596      0.0584      0.5602      0.1121      0.0644      1.4731
  7      0.0000      0.3107      0.0000      0.0000      0.6977      0.0000      0.3464      0.1726      0.0000
  8      0.7524      0.2431      0.0423      0.2429      0.0000      0.6271      0.2274      0.2068      0.3249
  9      0.0000      0.3864      0.2917      0.1134      0.4138      0.1269      0.0958      0.0000      0.0674
 10      0.0000      0.4311      0.0476      0.3081      0.2427      0.1963      0.0000      0.0000      0.8643
 11      0.0000      0.3914      0.1863      0.0847      1.3595      0.1687      0.9172      0.0870      0.0000
 12      0.0000      0.3955      0.1850      0.3766      0.3086      0.4856      0.5185      0.6030      0.1860
 13     44.8961      0.2938      0.0350      0.0214      0.1239      0.2624      0.1356      0.0990      0.2888
 14      0.0000      0.6448      0.2127      0.3054      0.6223      0.5251      0.3226      0.3975      0.2332
 15      1.3698      0.3808      0.0688      0.1721      0.0000      0.3431      0.0752      0.3292      1.1317
 16      0.0000      0.3855      0.1854      0.0127      1.1040      0.9702      0.2707      0.2655      0.0000
 17      0.0000      0.4810      0.7868      0.2251      0.2093      0.6921      0.2756      0.2769      0.6391
 18      0.0000      1.7815      1.4088      1.6401      1.8984      1.8260      1.7114      1.9054      0.0000
 19      0.0000      1.8575      2.1449      2.1869      2.2499      0.8057      1.0876      1.6700      0.9534
 20      0.0000      0.4681      0.2902      0.1664      0.2554      0.0000      0.1959      0.1096      0.7107
 21      0.0000      0.4804      0.1286      0.0266      0.3632      0.2564      0.1365      0.1454      0.5233
 22      0.0000      0.3024      0.0000      0.3551      0.0000      0.0785      0.6090      0.1317      1.0276
 23      0.0000      0.4610      0.3296      0.2552      1.0553      0.0000      0.5413      0.2075      0.1758
 24      0.0000      0.3902      0.0000      0.2865      0.0000      0.0000      0.1790      0.0000      0.0540
 25      0.0283      0.2405      0.1722      0.0768      0.5409      0.0000      0.0000      0.0000      0.3084
 26      0.0000      0.3344      0.1698      0.2590      0.2179      0.0000      0.2551      0.3827      0.0000
 27      0.0000      0.2894      0.0454      0.1080      0.3367      2.1260      0.0570      0.3201      0.0000
 28      5.7361      0.4598      0.0673      0.1001      0.2000      0.0000      0.2430      0.3125      0.8022
 29      0.0000      0.3849      0.1429      0.0000      0.0000      0.1445      0.0304      0.0988      0.1631
 30      0.0000      0.3653      0.1624      0.0153      0.3220      0.6335      0.3592      0.1098      0.8492
 31      0.0000      0.4177      0.4586      0.2404      0.0000      0.1659      0.2724      0.4056      0.2279
 32      0.0000      0.4215      0.6072      0.3182      0.3985      0.3014      0.2338      0.0000      0.0000
 33      0.0000      0.3792      0.1400      0.2171      0.2050      0.0000      0.2523      0.5428      0.1921
 34      2.1573      0.4944      0.3310      0.1996      1.0820      0.5037      0.2880      0.2049      0.4684
 35      0.0000      1.0114      0.9827      0.8436      0.4703      0.6445      0.9065      1.2329      0.4457
 36      0.0000      1.3460      0.5437      0.2147      0.8220      0.4782      1.6419      1.1896      1.3142
 37      0.0000      0.4465      0.2706      0.0945      0.3094      0.0000      0.1101      0.1581      0.0031
 38      0.0000      0.4799      0.2284      0.0613      0.3759      0.3797      0.1744      0.2116      0.7036
 39      0.0000      0.4263      0.0828      0.0353      0.3919      0.4029      0.0101      0.3532      0.0000
 40      0.0000      0.3944      0.3018      0.1575      0.6179      0.1933      0.1008      0.0733      0.3234
 41      0.0000      0.7281      0.4602      0.9016      0.6050      1.6607      0.4804      0.7870      0.4104
 42      0.0173      0.3114      0.0154      0.3126      0.0000      0.5133      0.0158      0.0000      1.2671
 43      0.0000      0.3511      0.1013      0.1634      0.3217      0.8658      0.3694      0.3022      0.2201
 44      8.1734      0.2591      0.0314      0.2026      0.1156      0.0131      0.0950      0.1549      0.6218
 45      3.2262      0.4903      0.0150      0.2346      0.3610      0.7385      0.1480      0.4017      0.6047
 46      2.0576      0.3641      0.0673      0.5242      0.0261      0.3960      0.1076      0.7756      1.2821
